EXPLAIN
TAG	CHRONOA
TITLE	LABEL	Chronoamperometry Scan	Test Identifier
DATE	LABEL	23/6/2022	Date
TIME	LABEL	12:29:07	Time
NOTES	NOTES	1	Notes...
	
PSTAT	PSTAT	IFC1010-21051	Potentiostat
VPRESTEP	POTEN	-3.50000E-001	F	Pre-step Voltage (V)
TPRESTEP	QUANT	5.00000E-001	Pre-step Delay Time (s)
VSTEP1	POTEN	-4.00000E-001	F	Step 1 Voltage (V)
TSTEP1	QUANT	3.00000E+002	Step 1 Time (s)
VSTEP2	POTEN	-4.50000E-001	F	Step 2 Voltage (V)
TSTEP2	QUANT	1.00000E+000	Step 2 Time (s)
SAMPLETIME	QUANT	1.00000E-001	Sample Period (s)
DECIMATE	TOGGLE	T	Decimate
ILIMIT	QUANT	1.00000E+000	Limit I (mA/cm^2)
IMODE	SELECTOR	1	I/E Range Mode
IRANGE	QUANT	3.00000E-001	Max Current (mA)
EQDELAY	QUANT	5.00000E+000	Equil. Time (s)
SAMPLINGMODE	SELECTOR	1	Sampling Mode
AREA	QUANT	1.00000E+000	Sample Area (cm^2)
IRCOMP	SELECTOR	0	IRComp
PFCOR	QUANT	5.00000E+001	PF Corr. (ohm)
SEQUENCER	TOGGLE	TRUE	Run as Sequence
PSTATMODEL	IQUANT	64	Pstat Model
PSTATSECTION	LABEL	IFC1010-21051	Pstat Section
PSTATSERIALNO	LABEL	21051	Pstat Serial Number
CTRLMODE	IQUANT	1	Control Mode
ELECTROMETER	IQUANT	0	RE=0 or CS=1
IESTAB	IQUANT	0	I/E Stability
CASPEED	IQUANT	4	Control Amp Speed
CONVENTION	IQUANT	1	Current Convention
ICHRANGE	IQUANT	2	Ich Range
ICHRANGEMODE	TOGGLE	T	Ich Auto Range
ICHOFFSETENABLE	TOGGLE	F	Ich Offset Enable
ICHOFFSET	QUANT	0	Ich Offset (V)
ICHFILTER	IQUANT	3	Ich Filter
VCHRANGE	IQUANT	3	Vch Range
VCHRANGEMODE	TOGGLE	T	Vch Auto Range
VCHOFFSETENABLE	TOGGLE	F	Vch Offset Enable
VCHOFFSET	QUANT	0	Vch Offset (V)
VCHFILTER	IQUANT	3	Vch Filter
IERANGELOWERLIMIT	IQUANT	4	I/E Range Lower Limit
IERANGEMODE	TOGGLE	F	I/E AutoRange
IERANGE	IQUANT	9	I/E Range
ACHSELECT	IQUANT	0	Ach Select
ACHRANGE	IQUANT	2	Ach Range
ACHOFFSETENABLE	TOGGLE	F	Ach Offset Enable
ACHOFFSET	QUANT	0	Ach Offset (V)
ACHFILTER	IQUANT	1	Ach Filter
SENSECABLEID	IQUANT	14	Sense Cable ID
PWRCABLEID	IQUANT	14	Power Cable ID
DCCALDATE	LABEL	5/16/2022	DC Calibration Date
ACCALDATE	LABEL	4/2/2018	AC Calibration Date
FRAMEWORKVERSION	QUANT	7.06	Framework Version
INSTRUMENTVERSION	LABEL	4.30	Instrument Version
CURVE	TABLE	98
	Pt	T	Vf	Im	Vu	Sig	Ach	IERange	Over	Temp
	#	s	V vs. Ref.	A	V	V	V	#	bits	deg C
	0	-0.4	-3.50413E-001	-3.07288E-005	0.00000E+000	-3.50011E-001	0.00000E+000	9	...........	1425.16
	1	-0.3	-3.50479E-001	-3.06660E-005	0.00000E+000	-3.50011E-001	0.00000E+000	9	...........	1425.16
	2	-0.2	-3.50474E-001	-3.06426E-005	0.00000E+000	-3.50011E-001	0.00000E+000	9	...........	1425.16
	3	-0.1	-3.50471E-001	-3.05820E-005	0.00000E+000	-3.50011E-001	0.00000E+000	9	...........	1425.16
	4	0	-3.50477E-001	-3.05439E-005	0.00000E+000	-3.50011E-001	0.00000E+000	9	...........	1425.16
	5	0.1	-4.00489E-001	-2.17639E-004	0.00000E+000	-4.00011E-001	0.00000E+000	9	...........	1425.16
	6	0.2	-4.00492E-001	-1.79549E-004	0.00000E+000	-4.00011E-001	0.00000E+000	9	...........	1425.16
	7	0.3	-4.00498E-001	-1.52610E-004	0.00000E+000	-4.00011E-001	0.00000E+000	9	...........	1425.16
	8	0.4	-4.00502E-001	-1.32864E-004	0.00000E+000	-4.00011E-001	0.00000E+000	9	...........	1425.16
	9	0.5	-4.00474E-001	-1.18079E-004	0.00000E+000	-4.00011E-001	0.00000E+000	9	...........	1425.16
	10	0.6	-4.00497E-001	-1.06893E-004	0.00000E+000	-4.00011E-001	0.00000E+000	9	...........	1425.16
	11	0.7	-4.00499E-001	-9.82745E-005	0.00000E+000	-4.00011E-001	0.00000E+000	9	...........	1425.16
	12	0.8	-4.00473E-001	-9.15516E-005	0.00000E+000	-4.00011E-001	0.00000E+000	9	...........	1425.16
	13	0.9	-4.00491E-001	-8.62817E-005	0.00000E+000	-4.00011E-001	0.00000E+000	9	...........	1425.16
	14	1	-4.00483E-001	-8.20721E-005	0.00000E+000	-4.00011E-001	0.00000E+000	9	...........	1425.16
	15	1.1	-4.00482E-001	-7.86696E-005	0.00000E+000	-4.00011E-001	0.00000E+000	9	...........	1425.16
	16	1.2	-4.00484E-001	-7.59305E-005	0.00000E+000	-4.00011E-001	0.00000E+000	9	...........	1425.16
	17	1.3	-4.00485E-001	-7.36326E-005	0.00000E+000	-4.00011E-001	0.00000E+000	9	...........	1425.16
	18	1.4	-4.00484E-001	-7.17557E-005	0.00000E+000	-4.00011E-001	0.00000E+000	9	...........	1425.16
	19	1.5	-4.00480E-001	-7.01578E-005	0.00000E+000	-4.00011E-001	0.00000E+000	9	...........	1425.16
	20	1.6	-4.00486E-001	-6.88258E-005	0.00000E+000	-4.00011E-001	0.00000E+000	9	...........	1425.16
	21	1.7	-4.00490E-001	-6.76441E-005	0.00000E+000	-4.00011E-001	0.00000E+000	9	...........	1425.16
	22	1.8	-4.00484E-001	-6.66268E-005	0.00000E+000	-4.00011E-001	0.00000E+000	9	...........	1425.16
	23	1.9	-4.00496E-001	-6.57631E-005	0.00000E+000	-4.00011E-001	0.00000E+000	9	...........	1425.16
	24	2	-4.00492E-001	-6.49865E-005	0.00000E+000	-4.00011E-001	0.00000E+000	9	...........	1425.16
	25	2.1	-4.00484E-001	-6.42500E-005	0.00000E+000	-4.00011E-001	0.00000E+000	9	...........	1425.16
	26	2.2	-4.00490E-001	-6.36222E-005	0.00000E+000	-4.00011E-001	0.00000E+000	9	...........	1425.07
	27	2.3	-4.00483E-001	-6.30350E-005	0.00000E+000	-4.00011E-001	0.00000E+000	9	...........	1425.07
	28	2.4	-4.00481E-001	-6.25345E-005	0.00000E+000	-4.00011E-001	0.00000E+000	9	...........	1425.07
	29	2.5	-4.00486E-001	-6.20586E-005	0.00000E+000	-4.00011E-001	0.00000E+000	9	...........	1425.07
	30	2.6	-4.00474E-001	-6.15898E-005	0.00000E+000	-4.00011E-001	0.00000E+000	9	...........	1425.07
	31	2.7	-4.00486E-001	-6.11921E-005	0.00000E+000	-4.00011E-001	0.00000E+000	9	...........	1425.07
	32	2.8	-4.00499E-001	-6.07863E-005	0.00000E+000	-4.00011E-001	0.00000E+000	9	...........	1425.07
	33	2.9	-4.00488E-001	-6.04292E-005	0.00000E+000	-4.00011E-001	0.00000E+000	9	...........	1425.07
	34	3	-4.00483E-001	-6.00767E-005	0.00000E+000	-4.00011E-001	0.00000E+000	9	...........	1425.07
	35	3.1	-4.00493E-001	-5.97755E-005	0.00000E+000	-4.00011E-001	0.00000E+000	9	...........	1425.07
	36	3.2	-4.00497E-001	-5.94665E-005	0.00000E+000	-4.00011E-001	0.00000E+000	9	...........	1425.07
	37	3.3	-4.00494E-001	-5.91621E-005	0.00000E+000	-4.00011E-001	0.00000E+000	9	...........	1425.07
	38	3.4	-4.00493E-001	-5.88889E-005	0.00000E+000	-4.00011E-001	0.00000E+000	9	...........	1425.07
	39	3.5	-4.00479E-001	-5.86149E-005	0.00000E+000	-4.00011E-001	0.00000E+000	9	...........	1425.07
	40	3.6	-4.00481E-001	-5.83640E-005	0.00000E+000	-4.00011E-001	0.00000E+000	9	...........	1425.07
	41	3.7	-4.00486E-001	-5.81111E-005	0.00000E+000	-4.00011E-001	0.00000E+000	9	...........	1425.07
	42	3.8	-4.00477E-001	-5.78921E-005	0.00000E+000	-4.00011E-001	0.00000E+000	9	...........	1425.07
	43	3.9	-4.00483E-001	-5.76787E-005	0.00000E+000	-4.00011E-001	0.00000E+000	9	...........	1425.07
	44	4	-4.00464E-001	-5.74110E-005	0.00000E+000	-4.00011E-001	0.00000E+000	9	...........	1425.07
	45	4.1	-4.00483E-001	-5.72277E-005	0.00000E+000	-4.00011E-001	0.00000E+000	9	...........	1425.07
	46	4.2	-4.00503E-001	-5.70259E-005	0.00000E+000	-4.00011E-001	0.00000E+000	9	...........	1424.89
	47	4.3	-4.00511E-001	-5.68320E-005	0.00000E+000	-4.00011E-001	0.00000E+000	9	...........	1424.89
	48	4.4	-4.00489E-001	-5.66162E-005	0.00000E+000	-4.00011E-001	0.00000E+000	9	...........	1424.89
	49	4.5	-4.00488E-001	-5.64388E-005	0.00000E+000	-4.00011E-001	0.00000E+000	9	...........	1424.89
	50	4.6	-4.00496E-001	-5.62679E-005	0.00000E+000	-4.00011E-001	0.00000E+000	9	...........	1424.89
	51	4.7	-4.00492E-001	-5.60938E-005	0.00000E+000	-4.00011E-001	0.00000E+000	9	...........	1424.89
	52	4.8	-4.00492E-001	-5.59342E-005	0.00000E+000	-4.00011E-001	0.00000E+000	9	...........	1424.89
	53	4.9	-4.00488E-001	-5.57573E-005	0.00000E+000	-4.00011E-001	0.00000E+000	9	...........	1424.89
	54	5	-4.00489E-001	-5.55952E-005	0.00000E+000	-4.00011E-001	0.00000E+000	9	...........	1424.89
	55	5.1	-4.00491E-001	-5.54360E-005	0.00000E+000	-4.00011E-001	0.00000E+000	9	...........	1424.89
	56	5.2	-4.00494E-001	-5.52605E-005	0.00000E+000	-4.00011E-001	0.00000E+000	9	...........	1425.07
	57	5.3	-4.00509E-001	-5.51201E-005	0.00000E+000	-4.00011E-001	0.00000E+000	9	...........	1425.07
	58	5.4	-4.00486E-001	-5.49711E-005	0.00000E+000	-4.00011E-001	0.00000E+000	9	...........	1425.07
	59	5.5	-4.00486E-001	-5.48257E-005	0.00000E+000	-4.00011E-001	0.00000E+000	9	...........	1425.07
	60	5.6	-4.00482E-001	-5.46586E-005	0.00000E+000	-4.00011E-001	0.00000E+000	9	...........	1425.07
	61	5.7	-4.00489E-001	-5.45331E-005	0.00000E+000	-4.00011E-001	0.00000E+000	9	...........	1425.07
	62	5.8	-4.00509E-001	-5.43791E-005	0.00000E+000	-4.00011E-001	0.00000E+000	9	...........	1425.07
	63	5.9	-4.00481E-001	-5.42695E-005	0.00000E+000	-4.00011E-001	0.00000E+000	9	...........	1425.07
	64	6	-4.00484E-001	-5.41606E-005	0.00000E+000	-4.00011E-001	0.00000E+000	9	...........	1425.07
	65	6.1	-4.00481E-001	-5.40207E-005	0.00000E+000	-4.00011E-001	0.00000E+000	9	...........	1425.07
	66	7.1	-4.00489E-001	-5.28102E-005	0.00000E+000	-4.00011E-001	0.00000E+000	9	...........	1425.07
	67	8.1	-4.00488E-001	-5.18004E-005	0.00000E+000	-4.00011E-001	0.00000E+000	9	...........	1425.07
	68	9.1	-4.00483E-001	-5.09512E-005	0.00000E+000	-4.00011E-001	0.00000E+000	9	...........	1425.07
	69	10.1	-4.00491E-001	-5.01348E-005	0.00000E+000	-4.00011E-001	0.00000E+000	9	...........	1425.07
	70	11.1	-4.00492E-001	-4.94575E-005	0.00000E+000	-4.00011E-001	0.00000E+000	9	...........	1425.16
	71	12.1	-4.00487E-001	-4.88291E-005	0.00000E+000	-4.00011E-001	0.00000E+000	9	...........	1425.16
	72	13.1	-4.00494E-001	-4.82985E-005	0.00000E+000	-4.00011E-001	0.00000E+000	9	...........	1425.16
	73	14.1	-4.00489E-001	-4.77724E-005	0.00000E+000	-4.00011E-001	0.00000E+000	9	...........	1425.16
	74	15.1	-4.00487E-001	-4.72852E-005	0.00000E+000	-4.00011E-001	0.00000E+000	9	...........	1425.16
	75	16.1	-4.00493E-001	-4.68046E-005	0.00000E+000	-4.00011E-001	0.00000E+000	9	...........	1425.16
	76	26.1	-4.00489E-001	-4.32169E-005	0.00000E+000	-4.00011E-001	0.00000E+000	9	...........	1425.16
	77	36.1	-4.00490E-001	-4.17193E-005	0.00000E+000	-4.00011E-001	0.00000E+000	9	...........	1425.16
	78	46.1	-4.00493E-001	-4.02692E-005	0.00000E+000	-4.00011E-001	0.00000E+000	9	...........	1425.16
	79	56.1	-4.00486E-001	-3.89160E-005	0.00000E+000	-4.00011E-001	0.00000E+000	9	...........	1425.16
	80	66.1	-4.00491E-001	-3.82296E-005	0.00000E+000	-4.00011E-001	0.00000E+000	9	...........	1425.16
	81	76.1	-4.00489E-001	-3.71309E-005	0.00000E+000	-4.00011E-001	0.00000E+000	9	...........	1425.07
	82	86.1	-4.00491E-001	-3.69135E-005	0.00000E+000	-4.00011E-001	0.00000E+000	9	...........	1425.16
	83	96.1	-4.00486E-001	-3.61058E-005	0.00000E+000	-4.00011E-001	0.00000E+000	9	...........	1425.16
	84	106.1	-4.00486E-001	-3.58327E-005	0.00000E+000	-4.00011E-001	0.00000E+000	9	...........	1425.16
	85	116.1	-4.00498E-001	-3.53407E-005	0.00000E+000	-4.00011E-001	0.00000E+000	9	...........	1425.16
	86	216.1	-4.00485E-001	-3.33843E-005	0.00000E+000	-4.00011E-001	0.00000E+000	9	...........	1425.25
	87	300	-4.00494E-001	-3.25421E-005	0.00000E+000	-4.00011E-001	0.00000E+000	9	...........	1425.25
	88	300.1	-4.50505E-001	-2.22300E-004	0.00000E+000	-4.50011E-001	0.00000E+000	9	...........	1425.25
	89	300.2	-4.50504E-001	-1.83356E-004	0.00000E+000	-4.50011E-001	0.00000E+000	9	...........	1425.25
	90	300.3	-4.50492E-001	-1.56279E-004	0.00000E+000	-4.50011E-001	0.00000E+000	9	...........	1425.25
	91	300.4	-4.50505E-001	-1.36849E-004	0.00000E+000	-4.50011E-001	0.00000E+000	9	...........	1425.25
	92	300.5	-4.50504E-001	-1.22621E-004	0.00000E+000	-4.50011E-001	0.00000E+000	9	...........	1425.25
	93	300.6	-4.50516E-001	-1.12001E-004	0.00000E+000	-4.50011E-001	0.00000E+000	9	...........	1425.25
	94	300.7	-4.50513E-001	-1.04012E-004	0.00000E+000	-4.50011E-001	0.00000E+000	9	...........	1425.25
	95	300.8	-4.50505E-001	-9.78978E-005	0.00000E+000	-4.50011E-001	0.00000E+000	9	...........	1425.25
	96	300.9	-4.50500E-001	-9.31860E-005	0.00000E+000	-4.50011E-001	0.00000E+000	9	...........	1425.25
	97	301	-4.50500E-001	-8.95535E-005	0.00000E+000	-4.50011E-001	0.00000E+000	9	...........	1425.25
