Data from AuAgCoreShell_UA_100uM_CRN_0uM_R6G_10uM_Scan_RamanShift__29__14-43-09-802.txt Node

Date: Thu Jun 23 14:43:09 BST 2022
User: TCL
Spectrometer: QEP01345
Trigger mode: 4
Integration Time (sec): 7.000000E0
Scans to average: 10
Electric dark correction enabled: true
Nonlinearity correction enabled: false
Boxcar width: 0
XAxis mode: Raman Shifts
Number of Pixels in Spectrum: 1044
>>>>>Begin Spectral Data<<<<<
46.04893	-0.9375
50.45542	-0.8375
54.85868	0.9625
59.25871	-0.6375
63.6555	36.5625
68.04907	39.4625
72.43941	43.8625
76.82654	46.3625
81.21044	49.0625
85.59113	55.8625
89.96862	59.1625
94.34289	60.6625
98.71396	59.7625
103.08183	62.2625
107.4465	64.9625
111.80798	62.9625
116.16626	63.5625
120.52136	57.9625
124.87327	62.9625
129.222	60.8625
133.56755	58.3625
137.90993	56.9625
142.24913	57.1625
146.58517	58.0625
150.91804	59.5625
155.24774	51.9625
159.57429	60.8625
163.89768	65.1625
168.21792	65.2625
172.53501	75.9625
176.84895	87.5625
181.15975	102.6625
185.46741	128.8625
189.77193	163.8625
194.07331	203.9625
198.37157	251.4625
202.6667	306.2625
206.9587	349.1625
211.24758	402.0625
215.53334	451.1625
219.81599	503.3625
224.09553	554.6625
228.37195	604.9625
232.64527	672.4625
236.91549	740.1625
241.18261	798.0625
245.44663	865.7625
249.70755	934.9625
253.96539	991.9625
258.22014	1032.9625
262.4718	1066.9625
266.72039	1098.0625
270.96589	1107.3625
275.20832	1103.4625
279.44768	1086.7625
283.68397	1077.4625
287.91719	1055.8625
292.14735	1048.4625
296.37445	1030.5625
300.59849	1028.9625
304.81948	1022.5625
309.03742	1020.6625
313.25231	1017.2625
317.46415	1005.4625
321.67296	998.3625
325.87872	997.6625
330.08145	993.8625
334.28114	998.3625
338.47781	1017.4625
342.67145	1026.4625
346.86207	1040.7625
351.04966	1064.3625
355.23424	1070.7625
359.4158	1089.7625
363.59435	1102.8625
367.76989	1121.4625
371.94243	1130.2625
376.11196	1144.5625
380.27849	1160.4625
384.44203	1161.7625
388.60257	1169.5625
392.76012	1182.5625
396.91468	1187.3625
401.06626	1203.0625
405.21485	1212.5625
409.36047	1218.1625
413.50311	1219.0625
417.64277	1215.7625
421.77947	1218.9625
425.9132	1221.1625
430.04396	1232.7625
434.17176	1241.4625
438.2966	1247.8625
442.41849	1252.3625
446.53742	1255.0625
450.6534	1259.7625
454.76644	1279.2625
458.87653	1280.1625
462.98368	1281.3625
467.08789	1283.9625
471.18916	1288.2625
475.2875	1287.1625
479.38291	1294.8625
483.4754	1302.2625
487.56496	1320.7625
491.6516	1334.2625
495.73531	1340.9625
499.81612	1338.1625
503.89401	1329.3625
507.96899	1318.4625
512.04106	1308.9625
516.11023	1304.1625
520.1765	1314.3625
524.23987	1322.7625
528.30034	1317.9625
532.35792	1313.7625
536.41261	1320.6625
540.46441	1299.6625
544.51333	1292.1625
548.55936	1290.2625
552.60252	1279.1625
556.64279	1285.3625
560.6802	1282.2625
564.71473	1287.7625
568.7464	1289.2625
572.7752	1296.0625
576.80114	1288.9625
580.82422	1287.7625
584.84444	1301.6625
588.86181	1305.9625
592.87633	1317.7625
596.888	1318.3625
600.89682	1328.5625
604.9028	1344.7625
608.90594	1397.4625
612.90624	1464.2625
616.90371	1468.7625
620.89834	1423.4625
624.89015	1430.8625
628.87913	1465.7625
632.86528	1512.0625
636.84862	1531.8625
640.82913	1518.2625
644.80683	1479.8625
648.78172	1427.6625
652.75379	1387.1625
656.72306	1363.2625
660.68952	1361.0625
664.65319	1338.7625
668.61405	1335.2625
672.57211	1341.2625
676.52738	1337.6625
680.47986	1345.4625
684.42955	1356.2625
688.37646	1365.2625
692.32058	1361.5625
696.26192	1342.5625
700.20048	1342.8625
704.13626	1335.4625
708.06928	1341.9625
711.99952	1330.9625
715.927	1330.2625
719.85171	1341.2625
723.77365	1341.7625
727.69284	1345.3625
731.60928	1350.2625
735.52295	1324.8625
739.43388	1327.6625
743.34206	1320.4625
747.24749	1319.7625
751.15017	1317.1625
755.05012	1316.1625
758.94733	1321.9625
762.8418	1324.9625
766.73354	1355.1625
770.62254	1381.8625
774.50882	1387.3625
778.39237	1377.6625
782.27321	1355.8625
786.15132	1334.8625
790.02671	1329.8625
793.89938	1315.1625
797.76935	1314.6625
801.6366	1333.1625
805.50115	1359.3625
809.36299	1382.7625
813.22213	1399.7625
817.07857	1391.1625
820.93231	1362.1625
824.78336	1340.6625
828.63172	1307.6625
832.47738	1305.8625
836.32036	1299.2625
840.16066	1293.3625
843.99827	1289.4625
847.8332	1293.5625
851.66546	1288.0625
855.49504	1285.2625
859.32195	1282.9625
863.1462	1286.1625
866.96777	1289.6625
870.78668	1288.8625
874.60293	1320.8625
878.41652	1328.1625
882.22745	1350.6625
886.03573	1357.4625
889.84136	1359.8625
893.64433	1351.5625
897.44466	1327.2625
901.24235	1297.1625
905.0374	1274.7625
908.8298	1267.1625
912.61957	1265.3625
916.40671	1256.4625
920.19121	1258.4625
923.97308	1256.7625
927.75233	1259.2625
931.52895	1258.0625
935.30295	1247.2625
939.07433	1248.7625
942.84309	1236.2625
946.60924	1232.1625
950.37278	1227.8625
954.13371	1212.3625
957.89203	1204.3625
961.64774	1200.3625
965.40086	1202.1625
969.15137	1188.3625
972.89929	1179.5625
976.64461	1181.8625
980.38733	1174.3625
984.12747	1177.5625
987.86502	1171.4625
991.59999	1173.6625
995.33237	1172.7625
999.06217	1184.6625
1002.78939	1195.0625
1006.51404	1208.3625
1010.23611	1224.9625
1013.95561	1231.3625
1017.67255	1227.4625
1021.38692	1239.7625
1025.09872	1234.7625
1028.80796	1212.5625
1032.51465	1202.8625
1036.21877	1190.6625
1039.92035	1186.6625
1043.61937	1167.9625
1047.31584	1169.1625
1051.00976	1166.7625
1054.70114	1173.2625
1058.38998	1175.6625
1062.07627	1181.5625
1065.76003	1191.1625
1069.44126	1192.3625
1073.11995	1196.5625
1076.79611	1204.3625
1080.46974	1194.8625
1084.14085	1186.1625
1087.80943	1177.4625
1091.47549	1172.0625
1095.13903	1150.7625
1098.80005	1144.2625
1102.45857	1137.7625
1106.11456	1139.5625
1109.76805	1140.0625
1113.41903	1152.9625
1117.06751	1153.6625
1120.71348	1184.7625
1124.35696	1220.9625
1127.99793	1273.9625
1131.63641	1325.5625
1135.2724	1340.8625
1138.90589	1349.8625
1142.5369	1310.2625
1146.16542	1265.5625
1149.79145	1217.7625
1153.415	1177.9625
1157.03607	1137.3625
1160.65467	1119.2625
1164.27079	1112.3625
1167.88443	1116.8625
1171.49561	1121.5625
1175.10432	1137.7625
1178.71056	1167.3625
1182.31434	1184.0625
1185.91565	1191.6625
1189.51451	1186.3625
1193.11091	1207.2625
1196.70485	1215.6625
1200.29634	1223.9625
1203.88538	1237.6625
1207.47197	1234.4625
1211.05612	1203.3625
1214.63782	1174.9625
1218.21708	1152.2625
1221.79391	1130.4625
1225.36829	1106.4625
1228.94024	1095.7625
1232.50976	1089.1625
1236.07685	1088.1625
1239.6415	1086.1625
1243.20374	1090.8625
1246.76355	1090.9625
1250.32093	1102.3625
1253.8759	1100.8625
1257.42845	1109.2625
1260.97859	1110.0625
1264.52631	1115.9625
1268.07163	1118.0625
1271.61453	1111.2625
1275.15503	1115.2625
1278.69312	1113.4625
1282.22882	1099.7625
1285.76211	1099.6625
1289.29301	1096.4625
1292.82151	1110.3625
1296.34761	1112.3625
1299.87133	1128.3625
1303.39266	1140.1625
1306.9116	1171.5625
1310.42815	1201.9625
1313.94233	1215.3625
1317.45412	1209.0625
1320.96354	1190.4625
1324.47058	1178.4625
1327.97525	1158.0625
1331.47754	1148.5625
1334.97747	1150.0625
1338.47502	1158.8625
1341.97022	1175.5625
1345.46305	1198.3625
1348.95352	1233.2625
1352.44163	1266.9625
1355.92738	1306.5625
1359.41078	1364.5625
1362.89183	1419.6625
1366.37053	1403.4625
1369.84688	1341.3625
1373.32088	1273.7625
1376.79254	1226.9625
1380.26186	1200.2625
1383.72883	1176.5625
1387.19347	1158.3625
1390.65578	1125.9625
1394.11575	1111.9625
1397.57339	1099.9625
1401.0287	1080.6625
1404.48168	1062.4625
1407.93234	1052.5625
1411.38068	1038.1625
1414.82669	1019.4625
1418.27039	1007.4625
1421.71177	998.3625
1425.15083	978.6625
1428.58758	969.6625
1432.02203	961.3625
1435.45416	961.6625
1438.88399	965.8625
1442.31151	951.7625
1445.73673	957.8625
1449.15965	951.5625
1452.58027	951.7625
1455.9986	954.1625
1459.41463	945.4625
1462.82837	946.6625
1466.23982	948.5625
1469.64898	943.2625
1473.05586	943.0625
1476.46045	941.5625
1479.86276	954.8625
1483.26279	951.0625
1486.66054	953.1625
1490.05602	954.6625
1493.44922	967.0625
1496.84016	984.2625
1500.22882	1009.1625
1503.61521	1041.8625
1506.99934	1089.1625
1510.38121	1125.3625
1513.76081	1131.9625
1517.13816	1100.3625
1520.51324	1054.3625
1523.88607	1011.8625
1527.25665	988.4625
1530.62498	967.6625
1533.99105	968.6625
1537.35488	970.9625
1540.71647	968.2625
1544.07581	974.7625
1547.4329	981.0625
1550.78776	996.1625
1554.14038	1001.3625
1557.49077	1001.9625
1560.83892	1008.2625
1564.18484	1016.5625
1567.52853	1017.0625
1570.86999	1030.7625
1574.20922	1035.3625
1577.54624	1047.2625
1580.88103	1045.3625
1584.2136	1027.0625
1587.54395	1007.1625
1590.87208	983.4625
1594.19801	976.2625
1597.52172	975.8625
1600.84321	979.0625
1604.16251	968.9625
1607.47959	970.0625
1610.79447	968.6625
1614.10715	957.7625
1617.41763	963.7625
1620.7259	958.6625
1624.03199	966.7625
1627.33587	961.1625
1630.63757	963.9625
1633.93707	958.4625
1637.23439	958.5625
1640.52951	969.5625
1643.82246	997.3625
1647.11321	1015.1625
1650.40179	1042.3625
1653.68819	1037.2625
1656.97241	1010.7625
1660.25446	977.2625
1663.53433	941.2625
1666.81203	908.5625
1670.08756	895.1625
1673.36092	886.6625
1676.63211	860.4625
1679.90115	854.6625
1683.16801	849.9625
1686.43272	838.6625
1689.69527	842.1625
1692.95567	846.2625
1696.2139	844.9625
1699.46999	853.2625
1702.72392	841.3625
1705.97571	811.3625
1709.22535	779.9625
1712.47284	759.8625
1715.71819	745.8625
1718.96139	726.7625
1722.20246	719.9625
1725.44139	711.8625
1728.67818	700.6625
1731.91284	690.3625
1735.14537	688.4625
1738.37576	684.3625
1741.60403	683.0625
1744.83017	672.9625
1748.05418	670.1625
1751.27607	672.2625
1754.49584	673.2625
1757.71349	675.8625
1760.92903	675.4625
1764.14244	665.2625
1767.35375	670.8625
1770.56294	666.5625
1773.77002	665.4625
1776.97499	656.7625
1780.17785	642.4625
1783.37861	638.2625
1786.57727	631.5625
1789.77382	622.1625
1792.96828	623.3625
1796.16064	624.9625
1799.3509	612.1625
1802.53907	614.7625
1805.72514	606.7625
1808.90913	611.2625
1812.09102	604.2625
1815.27083	606.9625
1818.44856	599.6625
1821.6242	594.5625
1824.79776	591.9625
1827.96924	593.0625
1831.13864	597.0625
1834.30597	593.5625
1837.47122	591.3625
1840.6344	587.8625
1843.7955	580.2625
1846.95454	576.4625
1850.11151	577.4625
1853.26642	572.9625
1856.41926	579.2625
1859.57004	573.7625
1862.71876	564.4625
1865.86542	565.4625
1869.01003	567.2625
1872.15258	555.8625
1875.29308	563.7625
1878.43152	561.0625
1881.56792	557.3625
1884.70227	553.8625
1887.83457	547.3625
1890.96482	554.9625
1894.09304	551.9625
1897.21921	548.3625
1900.34335	543.8625
1903.46544	542.4625
1906.58551	542.8625
1909.70353	543.9625
1912.81953	540.3625
1915.93349	538.0625
1919.04543	537.2625
1922.15534	532.3625
1925.26322	532.8625
1928.36908	530.9625
1931.47292	531.1625
1934.57473	535.9625
1937.67453	533.0625
1940.77232	525.6625
1943.86808	527.4625
1946.96184	521.2625
1950.05358	522.5625
1953.14331	515.5625
1956.23103	510.3625
1959.31675	515.1625
1962.40046	510.6625
1965.48217	512.2625
1968.56188	503.6625
1971.63959	500.5625
1974.7153	506.9625
1977.78901	497.2625
1980.86073	491.6625
1983.93046	486.3625
1986.99819	490.7625
1990.06394	488.5625
1993.1277	487.2625
1996.18947	486.5625
1999.24925	479.2625
2002.30706	479.6625
2005.36288	479.2625
2008.41672	472.4625
2011.46859	474.3625
2014.51848	469.0625
2017.56639	470.2625
2020.61233	471.4625
2023.6563	466.2625
2026.6983	466.2625
2029.73833	463.6625
2032.7764	457.0625
2035.8125	454.6625
2038.84664	458.3625
2041.87881	457.0625
2044.90903	449.0625
2047.93729	448.9625
2050.96359	453.5625
2053.98794	448.7625
2057.01034	448.0625
2060.03078	446.6625
2063.04927	445.8625
2066.06582	443.4625
2069.08042	447.7625
2072.09307	446.9625
2075.10378	440.9625
2078.11255	442.4625
2081.11938	443.9625
2084.12426	443.0625
2087.12722	438.7625
2090.12824	439.2625
2093.12732	443.0625
2096.12447	438.0625
2099.11969	437.6625
2102.11299	438.9625
2105.10435	436.4625
2108.09379	439.2625
2111.08131	433.9625
2114.0669	427.7625
2117.05057	433.3625
2120.03233	429.4625
2123.01216	435.9625
2125.99008	432.6625
2128.96609	427.5625
2131.94018	432.0625
2134.91236	433.5625
2137.88263	430.4625
2140.851	426.9625
2143.81746	429.6625
2146.78201	427.6625
2149.74466	422.4625
2152.7054	426.1625
2155.66425	421.4625
2158.6212	428.2625
2161.57625	425.4625
2164.52941	423.3625
2167.48067	420.9625
2170.43004	426.1625
2173.37752	423.0625
2176.32311	422.8625
2179.26681	417.8625
2182.20863	421.2625
2185.14856	413.2625
2188.08661	412.4625
2191.02278	413.2625
2193.95707	413.0625
2196.88948	412.0625
2199.82001	411.3625
2202.74867	411.3625
2205.67545	404.9625
2208.60037	407.4625
2211.52341	404.7625
2214.44458	403.8625
2217.36388	396.1625
2220.28132	396.2625
2223.1969	395.3625
2226.11061	401.0625
2229.02246	387.0625
2231.93245	393.3625
2234.84058	389.9625
2237.74686	395.0625
2240.65128	390.4625
2243.55385	388.7625
2246.45456	388.4625
2249.35343	390.9625
2252.25044	386.8625
2255.14561	382.2625
2258.03893	386.0625
2260.93041	382.4625
2263.82004	379.7625
2266.70783	380.9625
2269.59378	381.8625
2272.4779	380.3625
2275.36017	374.0625
2278.24061	370.1625
2281.11922	372.0625
2283.996	374.3625
2286.87094	365.6625
2289.74405	366.6625
2292.61534	361.6625
2295.4848	364.2625
2298.35243	362.9625
2301.21824	362.7625
2304.08223	363.4625
2306.94439	361.4625
2309.80474	362.2625
2312.66327	357.4625
2315.51999	352.4625
2318.37489	358.7625
2321.22797	355.1625
2324.07925	358.3625
2326.92871	357.1625
2329.77637	365.7625
2332.62222	353.5625
2335.46626	349.8625
2338.3085	343.9625
2341.14893	350.8625
2343.98756	345.8625
2346.8244	343.8625
2349.65943	342.5625
2352.49267	344.7625
2355.32411	346.5625
2358.15376	346.1625
2360.98161	340.2625
2363.80768	336.3625
2366.63195	340.2625
2369.45444	338.6625
2372.27514	334.6625
2375.09405	334.9625
2377.91118	333.0625
2380.72652	330.9625
2383.54009	330.1625
2386.35187	334.8625
2389.16188	330.6625
2391.97011	336.9625
2394.77657	331.5625
2397.58125	332.5625
2400.38416	327.5625
2403.18529	327.3625
2405.98466	319.2625
2408.78226	324.3625
2411.57809	320.3625
2414.37216	323.8625
2417.16446	317.2625
2419.955	324.3625
2422.74378	323.3625
2425.5308	315.2625
2428.31606	320.2625
2431.09956	319.5625
2433.88131	313.0625
2436.6613	309.4625
2439.43954	312.0625
2442.21603	310.5625
2444.99077	312.8625
2447.76377	312.2625
2450.53501	306.1625
2453.30451	307.0625
2456.07226	308.6625
2458.83827	309.1625
2461.60254	307.7625
2464.36507	304.7625
2467.12586	305.0625
2469.88492	303.5625
2472.64224	304.5625
2475.39782	302.0625
2478.15167	303.4625
2480.90379	301.1625
2483.65417	305.2625
2486.40283	298.1625
2489.14976	297.1625
2491.89497	288.6625
2494.63845	300.0625
2497.3802	301.1625
2500.12024	294.9625
2502.85855	292.6625
2505.59514	294.2625
2508.33002	293.5625
2511.06318	291.4625
2513.79462	296.7625
2516.52435	291.7625
2519.25237	287.4625
2521.97867	286.4625
2524.70327	288.1625
2527.42616	286.1625
2530.14734	285.4625
2532.86681	287.2625
2535.58458	285.8625
2538.30065	287.1625
2541.01501	283.0625
2543.72768	286.4625
2546.43864	280.6625
2549.14791	279.7625
2551.85548	282.2625
2554.56136	277.2625
2557.26554	281.4625
2559.96803	272.8625
2562.66883	273.6625
2565.36794	276.3625
2568.06536	277.0625
2570.7611	271.1625
2573.45514	267.8625
2576.14751	269.6625
2578.83819	270.5625
2581.52719	266.5625
2584.21451	268.5625
2586.90015	273.3625
2589.58411	267.3625
2592.2664	266.5625
2594.94701	264.6625
2597.62594	258.5625
2600.30321	262.7625
2602.9788	265.8625
2605.65273	262.8625
2608.32498	259.6625
2610.99557	264.0625
2613.66449	258.7625
2616.33175	258.7625
2618.99734	260.3625
2621.66128	258.9625
2624.32355	255.8625
2626.98416	257.4625
2629.64311	258.2625
2632.30041	255.1625
2634.95605	250.0625
2637.61004	251.5625
2640.26238	253.7625
2642.91306	247.2625
2645.56209	245.9625
2648.20948	245.6625
2650.85521	247.6625
2653.4993	237.0625
2656.14175	238.2625
2658.78255	243.5625
2661.42171	243.7625
2664.05923	247.1625
2666.6951	243.9625
2669.32934	242.0625
2671.96194	240.6625
2674.59291	243.7625
2677.22224	244.9625
2679.84993	248.1625
2682.476	242.2625
2685.10043	242.0625
2687.72324	245.8625
2690.34441	242.5625
2692.96396	245.1625
2695.58188	242.0625
2698.19818	242.1625
2700.81285	243.9625
2703.4259	252.6625
2706.03733	255.9625
2708.64714	255.6625
2711.25533	246.3625
2713.86191	244.1625
2716.46687	246.5625
2719.07021	246.0625
2721.67194	238.0625
2724.27206	244.6625
2726.87057	239.4625
2729.46747	242.1625
2732.06276	244.7625
2734.65644	243.6625
2737.24852	242.4625
2739.83899	239.9625
2742.42786	241.5625
2745.01513	241.0625
2747.60079	239.6625
2750.18486	248.8625
2752.76733	242.5625
2755.3482	238.8625
2757.92747	239.5625
2760.50515	243.6625
2763.08123	234.9625
2765.65573	239.9625
2768.22863	238.3625
2770.79994	240.4625
2773.36967	237.0625
2775.9378	241.8625
2778.50435	235.0625
2781.06932	239.0625
2783.6327	237.1625
2786.1945	237.3625
2788.75471	238.6625
2791.31335	236.9625
2793.87041	234.7625
2796.42589	232.3625
2798.97979	234.3625
2801.53212	229.1625
2804.08288	235.9625
2806.63206	232.6625
2809.17967	231.3625
2811.72571	232.4625
2814.27018	233.9625
2816.81308	229.8625
2819.35442	230.3625
2821.89419	231.3625
2824.43239	230.4625
2826.96904	230.1625
2829.50412	232.2625
2832.03763	225.7625
2834.56959	230.8625
2837.1	231.0625
2839.62884	225.5625
2842.15613	228.3625
2844.68186	230.4625
2847.20604	230.0625
2849.72867	227.4625
2852.24974	234.5625
2854.76927	230.4625
2857.28724	234.0625
2859.80367	236.1625
2862.31855	229.1625
2864.83189	227.8625
2867.34368	225.5625
2869.85393	233.0625
2872.36264	234.6625
2874.8698	228.1625
2877.37543	223.5625
2879.87952	225.3625
2882.38207	227.3625
2884.88308	228.8625
2887.38256	226.7625
2889.88051	233.2625
2892.37692	231.3625
2894.8718	236.6625
2897.36515	232.0625
2899.85698	233.8625
2902.34727	235.4625
2904.83604	239.8625
2907.32328	239.1625
2909.809	245.8625
2912.29319	245.8625
2914.77587	240.3625
2917.25702	241.9625
2919.73665	244.0625
2922.21476	249.6625
2924.69136	247.8625
2927.16644	249.0625
2929.64	240.3625
2932.11205	249.6625
2934.58258	243.9625
2937.05161	248.7625
2939.51912	249.8625
2941.98513	250.1625
2944.44962	247.1625
2946.91261	249.7625
2949.37409	248.6625
2951.83407	242.6625
2954.29254	247.5625
2956.74951	241.8625
2959.20498	248.0625
2961.65895	249.3625
2964.11142	249.1625
2966.56239	248.3625
2969.01186	250.9625
2971.45984	245.8625
2973.90632	257.0625
2976.35131	252.9625
2978.7948	256.8625
2981.23681	252.3625
2983.67732	255.2625
2986.11635	257.1625
2988.55388	254.1625
2990.98993	258.4625
2993.4245	258.1625
2995.85758	256.1625
2998.28917	260.6625
3000.71928	264.7625
3003.14791	264.1625
3005.57506	262.3625
3008.00073	268.5625
3010.42493	271.3625
3012.84764	269.5625
3015.26888	270.0625
3017.68865	269.2625
3020.10694	271.6625
3022.52376	276.7625
3024.9391	276.6625
3027.35298	280.2625
3029.76539	276.4625
3032.17632	280.3625
3034.5858	285.3625
3036.9938	288.0625
3039.40034	289.3625
3041.80542	290.8625
3044.20903	292.8625
3046.61118	299.0625
3049.01187	301.6625
3051.4111	300.1625
3053.80888	308.4625
3056.20519	307.2625
3058.60005	313.5625
3060.99345	314.3625
3063.3854	310.5625
3065.7759	319.2625
3068.16494	320.9625
3070.55254	323.6625
3072.93868	324.4625
3075.32338	329.7625
3077.70662	333.3625
3080.08842	337.7625
3082.46878	347.0625
3084.84769	349.0625
3087.22515	347.7625
3089.60118	356.1625
3091.97576	358.3625
3094.3489	361.0625
3096.72061	368.5625
3099.09087	377.5625
3101.4597	371.6625
3103.82709	382.4625
3106.19305	390.2625
3108.55757	389.1625
3110.92066	396.5625
3113.28232	401.4625
3115.64255	409.2625
3118.00134	410.2625
3120.35871	418.1625
3122.71466	425.8625
3125.06917	428.3625
3127.42226	433.9625
3129.77393	440.0625
3132.12417	446.9625
3134.47299	453.6625
3136.82039	457.4625
3139.16636	463.9625
3141.51092	466.9625
3143.85406	472.2625
3146.19579	478.0625
3148.53609	483.7625
3150.87499	497.1625
3153.21246	503.3625
3155.54853	513.3625
3157.88318	518.0625
3160.21642	525.0625
3162.54826	530.2625
3164.87868	534.6625
3167.2077	541.7625
3169.5353	552.8625
3171.86151	556.0625
3174.18631	553.7625
3176.5097	567.5625
3178.83169	573.5625
3181.15228	581.0625
3183.47147	583.2625
3185.78926	591.0625
3188.10565	596.5625
3190.42065	604.6625
3192.73424	605.8625
3195.04645	606.9625
3197.35725	622.0625
3199.66667	622.6625
3201.97469	628.2625
3204.28132	634.3625
3206.58656	633.9625
3208.8904	640.8625
3211.19287	642.6625
3213.49394	651.5625
3215.79363	655.9625
3218.09193	658.7625
3220.38884	660.7625
3222.68438	668.1625
3224.97853	673.6625
3227.2713	673.2625
3229.56269	677.3625
3231.8527	677.0625
3234.14133	676.3625
3236.42858	677.1625
3238.71446	676.5625
3240.99896	686.0625
3243.28209	685.2625
3245.56384	680.7625
3247.84423	679.3625
3250.12324	677.0625
3252.40088	683.3625
3254.67715	686.3625
3256.95205	686.1625
3259.22558	690.3625
3261.49775	689.8625
3263.76855	690.2625
3266.03799	685.0625
3268.30606	687.4625
3270.57277	690.8625
3272.83812	684.1625
3275.10211	690.6625
3277.36474	685.7625
3279.62601	688.6625
3281.88593	690.1625
3284.14448	688.7625
3286.40168	686.4625
3288.65753	695.4625
3290.91202	686.9625
3293.16516	688.6625
3295.41695	682.2625
3297.66738	685.3625
3299.91647	689.3625
3302.16421	681.7625
3304.4106	669.5625
3306.65564	675.4625
3308.89933	675.2625
3311.14169	672.5625
3313.38269	665.2625
3315.62236	669.5625
3317.86068	657.9625
3320.09766	661.1625
3322.3333	656.5625
3324.5676	652.3625
3326.80056	643.1625
3329.03219	643.6625
3331.26248	-0.1375
3333.49143	-0.1375
3335.71905	1.2625
