Data from AuAgCoreShell_UA_100uM_CRN_0uM_R6G_10uM_Scan_RamanShift__23__14-36-09-794.txt Node

Date: Thu Jun 23 14:36:09 BST 2022
User: TCL
Spectrometer: QEP01345
Trigger mode: 4
Integration Time (sec): 7.000000E0
Scans to average: 10
Electric dark correction enabled: true
Nonlinearity correction enabled: false
Boxcar width: 0
XAxis mode: Raman Shifts
Number of Pixels in Spectrum: 1044
>>>>>Begin Spectral Data<<<<<
46.04893	-0.2375
50.45542	-1.2375
54.85868	0.9625
59.25871	-0.0375
63.6555	32.6625
68.04907	34.6625
72.43941	38.5625
76.82654	45.7625
81.21044	46.6625
85.59113	52.0625
89.96862	53.3625
94.34289	52.4625
98.71396	59.3625
103.08183	55.5625
107.4465	60.6625
111.80798	55.2625
116.16626	59.4625
120.52136	57.0625
124.87327	56.7625
129.222	56.1625
133.56755	55.7625
137.90993	51.7625
142.24913	53.5625
146.58517	51.1625
150.91804	52.4625
155.24774	50.5625
159.57429	57.6625
163.89768	55.0625
168.21792	63.2625
172.53501	74.2625
176.84895	79.8625
181.15975	97.3625
185.46741	123.4625
189.77193	155.7625
194.07331	199.1625
198.37157	248.4625
202.6667	296.9625
206.9587	336.6625
211.24758	387.8625
215.53334	440.9625
219.81599	482.6625
224.09553	542.4625
228.37195	588.1625
232.64527	655.8625
236.91549	720.6625
241.18261	786.4625
245.44663	854.2625
249.70755	922.8625
253.96539	974.8625
258.22014	1026.4625
262.4718	1055.4625
266.72039	1071.1625
270.96589	1088.4625
275.20832	1082.9625
279.44768	1063.6625
283.68397	1049.2625
287.91719	1037.8625
292.14735	1017.1625
296.37445	1005.6625
300.59849	1005.2625
304.81948	995.1625
309.03742	1000.0625
313.25231	989.8625
317.46415	979.5625
321.67296	973.4625
325.87872	973.9625
330.08145	980.0625
334.28114	980.7625
338.47781	992.4625
342.67145	1006.7625
346.86207	1017.6625
351.04966	1035.5625
355.23424	1042.8625
359.4158	1056.0625
363.59435	1078.3625
367.76989	1092.5625
371.94243	1109.8625
376.11196	1110.4625
380.27849	1116.7625
384.44203	1132.3625
388.60257	1142.5625
392.76012	1148.5625
396.91468	1154.6625
401.06626	1170.7625
405.21485	1178.7625
409.36047	1189.0625
413.50311	1189.9625
417.64277	1178.3625
421.77947	1188.1625
425.9132	1185.2625
430.04396	1199.4625
434.17176	1192.0625
438.2966	1207.0625
442.41849	1214.8625
446.53742	1230.5625
450.6534	1230.4625
454.76644	1243.0625
458.87653	1247.3625
462.98368	1246.9625
467.08789	1243.5625
471.18916	1252.0625
475.2875	1254.9625
479.38291	1256.1625
483.4754	1260.3625
487.56496	1280.6625
491.6516	1287.6625
495.73531	1290.0625
499.81612	1284.2625
503.89401	1271.3625
507.96899	1274.4625
512.04106	1271.0625
516.11023	1269.7625
520.1765	1275.0625
524.23987	1263.6625
528.30034	1261.0625
532.35792	1266.8625
536.41261	1261.8625
540.46441	1254.1625
544.51333	1239.7625
548.55936	1235.8625
552.60252	1243.9625
556.64279	1243.0625
560.6802	1237.4625
564.71473	1250.9625
568.7464	1250.8625
572.7752	1249.6625
576.80114	1247.6625
580.82422	1249.0625
584.84444	1257.8625
588.86181	1257.0625
592.87633	1270.6625
596.888	1271.2625
600.89682	1278.4625
604.9028	1295.6625
608.90594	1351.4625
612.90624	1409.1625
616.90371	1408.2625
620.89834	1356.6625
624.89015	1353.0625
628.87913	1376.1625
632.86528	1400.2625
636.84862	1419.8625
640.82913	1397.8625
644.80683	1371.2625
648.78172	1351.2625
652.75379	1318.7625
656.72306	1308.0625
660.68952	1314.7625
664.65319	1300.7625
668.61405	1290.2625
672.57211	1291.7625
676.52738	1306.4625
680.47986	1302.9625
684.42955	1333.1625
688.37646	1337.3625
692.32058	1333.1625
696.26192	1312.5625
700.20048	1319.5625
704.13626	1292.0625
708.06928	1304.7625
711.99952	1300.7625
715.927	1288.9625
719.85171	1301.0625
723.77365	1299.6625
727.69284	1300.5625
731.60928	1300.2625
735.52295	1287.3625
739.43388	1278.4625
743.34206	1280.4625
747.24749	1281.2625
751.15017	1274.1625
755.05012	1272.7625
758.94733	1276.3625
762.8418	1290.9625
766.73354	1314.0625
770.62254	1337.9625
774.50882	1354.1625
778.39237	1337.5625
782.27321	1319.7625
786.15132	1301.0625
790.02671	1290.5625
793.89938	1284.2625
797.76935	1285.8625
801.6366	1303.0625
805.50115	1312.5625
809.36299	1326.7625
813.22213	1322.2625
817.07857	1315.8625
820.93231	1307.7625
824.78336	1288.7625
828.63172	1268.4625
832.47738	1265.8625
836.32036	1259.7625
840.16066	1265.9625
843.99827	1262.3625
847.8332	1265.0625
851.66546	1260.4625
855.49504	1243.0625
859.32195	1243.7625
863.1462	1257.9625
866.96777	1244.9625
870.78668	1254.1625
874.60293	1263.0625
878.41652	1273.5625
882.22745	1296.0625
886.03573	1298.9625
889.84136	1301.5625
893.64433	1293.8625
897.44466	1276.9625
901.24235	1267.7625
905.0374	1249.5625
908.8298	1244.1625
912.61957	1241.4625
916.40671	1240.4625
920.19121	1248.4625
923.97308	1250.0625
927.75233	1254.8625
931.52895	1251.1625
935.30295	1238.3625
939.07433	1238.5625
942.84309	1227.6625
946.60924	1212.1625
950.37278	1214.2625
954.13371	1206.9625
957.89203	1181.9625
961.64774	1184.0625
965.40086	1179.7625
969.15137	1172.5625
972.89929	1166.1625
976.64461	1166.6625
980.38733	1160.1625
984.12747	1148.8625
987.86502	1141.3625
991.59999	1157.0625
995.33237	1151.0625
999.06217	1156.9625
1002.78939	1173.9625
1006.51404	1176.1625
1010.23611	1185.6625
1013.95561	1191.0625
1017.67255	1192.4625
1021.38692	1201.7625
1025.09872	1201.1625
1028.80796	1178.1625
1032.51465	1167.5625
1036.21877	1172.9625
1039.92035	1162.8625
1043.61937	1152.8625
1047.31584	1146.3625
1051.00976	1143.9625
1054.70114	1143.9625
1058.38998	1150.7625
1062.07627	1154.0625
1065.76003	1156.7625
1069.44126	1160.4625
1073.11995	1169.9625
1076.79611	1172.9625
1080.46974	1170.0625
1084.14085	1160.8625
1087.80943	1151.9625
1091.47549	1150.1625
1095.13903	1138.7625
1098.80005	1122.8625
1102.45857	1117.7625
1106.11456	1117.8625
1109.76805	1111.8625
1113.41903	1116.2625
1117.06751	1125.8625
1120.71348	1147.1625
1124.35696	1174.7625
1127.99793	1198.6625
1131.63641	1237.7625
1135.2724	1259.6625
1138.90589	1250.3625
1142.5369	1225.2625
1146.16542	1185.2625
1149.79145	1158.0625
1153.415	1129.7625
1157.03607	1106.3625
1160.65467	1093.3625
1164.27079	1090.3625
1167.88443	1100.3625
1171.49561	1103.3625
1175.10432	1124.4625
1178.71056	1140.8625
1182.31434	1162.5625
1185.91565	1171.4625
1189.51451	1164.0625
1193.11091	1163.9625
1196.70485	1164.4625
1200.29634	1167.3625
1203.88538	1166.4625
1207.47197	1156.3625
1211.05612	1131.5625
1214.63782	1126.9625
1218.21708	1097.4625
1221.79391	1091.8625
1225.36829	1081.0625
1228.94024	1086.7625
1232.50976	1078.4625
1236.07685	1070.8625
1239.6415	1077.9625
1243.20374	1077.2625
1246.76355	1084.0625
1250.32093	1084.6625
1253.8759	1089.7625
1257.42845	1089.0625
1260.97859	1094.4625
1264.52631	1104.8625
1268.07163	1096.6625
1271.61453	1103.9625
1275.15503	1108.2625
1278.69312	1099.3625
1282.22882	1092.2625
1285.76211	1097.0625
1289.29301	1101.0625
1292.82151	1110.0625
1296.34761	1117.1625
1299.87133	1131.6625
1303.39266	1145.2625
1306.9116	1167.9625
1310.42815	1190.3625
1313.94233	1218.3625
1317.45412	1202.8625
1320.96354	1177.4625
1324.47058	1167.3625
1327.97525	1149.0625
1331.47754	1141.4625
1334.97747	1131.6625
1338.47502	1147.6625
1341.97022	1164.6625
1345.46305	1181.0625
1348.95352	1205.0625
1352.44163	1243.3625
1355.92738	1281.1625
1359.41078	1333.9625
1362.89183	1388.3625
1366.37053	1384.4625
1369.84688	1318.6625
1373.32088	1258.0625
1376.79254	1220.6625
1380.26186	1194.2625
1383.72883	1170.0625
1387.19347	1153.4625
1390.65578	1134.5625
1394.11575	1121.6625
1397.57339	1101.9625
1401.0287	1080.6625
1404.48168	1073.8625
1407.93234	1063.0625
1411.38068	1045.5625
1414.82669	1037.2625
1418.27039	1021.5625
1421.71177	1006.5625
1425.15083	1005.4625
1428.58758	988.7625
1432.02203	978.6625
1435.45416	975.1625
1438.88399	973.5625
1442.31151	969.8625
1445.73673	958.5625
1449.15965	960.4625
1452.58027	951.6625
1455.9986	959.9625
1459.41463	950.8625
1462.82837	952.9625
1466.23982	955.7625
1469.64898	962.8625
1473.05586	955.7625
1476.46045	959.4625
1479.86276	957.5625
1483.26279	951.5625
1486.66054	967.4625
1490.05602	964.1625
1493.44922	976.4625
1496.84016	983.0625
1500.22882	1005.2625
1503.61521	1035.8625
1506.99934	1079.3625
1510.38121	1113.2625
1513.76081	1112.5625
1517.13816	1096.3625
1520.51324	1048.5625
1523.88607	1010.9625
1527.25665	978.9625
1530.62498	966.5625
1533.99105	966.4625
1537.35488	957.4625
1540.71647	961.8625
1544.07581	965.9625
1547.4329	973.5625
1550.78776	976.9625
1554.14038	979.4625
1557.49077	988.2625
1560.83892	999.6625
1564.18484	996.1625
1567.52853	997.5625
1570.86999	1015.4625
1574.20922	1029.6625
1577.54624	1032.0625
1580.88103	1030.4625
1584.2136	1012.3625
1587.54395	987.6625
1590.87208	963.3625
1594.19801	952.5625
1597.52172	957.1625
1600.84321	946.3625
1604.16251	949.8625
1607.47959	942.1625
1610.79447	936.6625
1614.10715	933.9625
1617.41763	926.2625
1620.7259	923.4625
1624.03199	925.7625
1627.33587	924.5625
1630.63757	919.0625
1633.93707	915.2625
1637.23439	923.8625
1640.52951	923.5625
1643.82246	945.7625
1647.11321	972.4625
1650.40179	981.9625
1653.68819	973.5625
1656.97241	945.5625
1660.25446	917.1625
1663.53433	881.5625
1666.81203	853.9625
1670.08756	846.9625
1673.36092	841.4625
1676.63211	826.8625
1679.90115	821.8625
1683.16801	815.5625
1686.43272	807.9625
1689.69527	812.4625
1692.95567	811.0625
1696.2139	813.0625
1699.46999	806.7625
1702.72392	801.8625
1705.97571	782.5625
1709.22535	754.3625
1712.47284	746.1625
1715.71819	728.8625
1718.96139	723.0625
1722.20246	708.7625
1725.44139	700.1625
1728.67818	690.9625
1731.91284	682.0625
1735.14537	670.1625
1738.37576	670.2625
1741.60403	667.3625
1744.83017	653.4625
1748.05418	656.0625
1751.27607	655.2625
1754.49584	654.8625
1757.71349	652.9625
1760.92903	655.1625
1764.14244	646.1625
1767.35375	651.5625
1770.56294	641.0625
1773.77002	646.1625
1776.97499	635.3625
1780.17785	631.9625
1783.37861	619.3625
1786.57727	621.0625
1789.77382	620.1625
1792.96828	610.8625
1796.16064	608.0625
1799.3509	610.5625
1802.53907	611.4625
1805.72514	605.3625
1808.90913	604.2625
1812.09102	598.9625
1815.27083	595.8625
1818.44856	583.7625
1821.6242	587.6625
1824.79776	583.1625
1827.96924	582.5625
1831.13864	582.2625
1834.30597	584.8625
1837.47122	578.6625
1840.6344	580.1625
1843.7955	572.4625
1846.95454	572.0625
1850.11151	577.5625
1853.26642	567.5625
1856.41926	565.4625
1859.57004	564.4625
1862.71876	572.6625
1865.86542	564.3625
1869.01003	566.7625
1872.15258	558.4625
1875.29308	559.2625
1878.43152	551.7625
1881.56792	553.2625
1884.70227	549.8625
1887.83457	547.7625
1890.96482	551.1625
1894.09304	538.5625
1897.21921	546.1625
1900.34335	537.4625
1903.46544	537.4625
1906.58551	537.2625
1909.70353	538.5625
1912.81953	540.1625
1915.93349	535.8625
1919.04543	537.7625
1922.15534	529.9625
1925.26322	533.1625
1928.36908	523.8625
1931.47292	524.8625
1934.57473	531.6625
1937.67453	527.8625
1940.77232	523.4625
1943.86808	519.1625
1946.96184	524.8625
1950.05358	512.0625
1953.14331	512.6625
1956.23103	504.6625
1959.31675	506.5625
1962.40046	507.5625
1965.48217	504.4625
1968.56188	502.9625
1971.63959	492.1625
1974.7153	499.7625
1977.78901	494.8625
1980.86073	483.6625
1983.93046	490.5625
1986.99819	483.8625
1990.06394	480.6625
1993.1277	482.4625
1996.18947	483.7625
1999.24925	479.1625
2002.30706	470.9625
2005.36288	478.5625
2008.41672	478.1625
2011.46859	466.3625
2014.51848	468.7625
2017.56639	466.0625
2020.61233	469.6625
2023.6563	462.6625
2026.6983	462.8625
2029.73833	461.1625
2032.7764	460.6625
2035.8125	454.4625
2038.84664	452.9625
2041.87881	457.9625
2044.90903	448.7625
2047.93729	452.5625
2050.96359	448.2625
2053.98794	451.0625
2057.01034	443.6625
2060.03078	444.7625
2063.04927	441.4625
2066.06582	439.6625
2069.08042	444.4625
2072.09307	446.2625
2075.10378	443.8625
2078.11255	433.9625
2081.11938	442.1625
2084.12426	438.8625
2087.12722	434.2625
2090.12824	438.2625
2093.12732	438.8625
2096.12447	432.3625
2099.11969	435.2625
2102.11299	433.8625
2105.10435	436.8625
2108.09379	436.2625
2111.08131	433.6625
2114.0669	433.3625
2117.05057	437.2625
2120.03233	437.6625
2123.01216	433.4625
2125.99008	434.3625
2128.96609	428.1625
2131.94018	430.1625
2134.91236	428.4625
2137.88263	435.0625
2140.851	431.9625
2143.81746	433.4625
2146.78201	430.0625
2149.74466	427.2625
2152.7054	431.7625
2155.66425	430.6625
2158.6212	439.3625
2161.57625	431.8625
2164.52941	430.0625
2167.48067	432.9625
2170.43004	429.2625
2173.37752	429.3625
2176.32311	435.0625
2179.26681	429.5625
2182.20863	431.0625
2185.14856	424.6625
2188.08661	418.4625
2191.02278	419.0625
2193.95707	413.2625
2196.88948	414.1625
2199.82001	413.0625
2202.74867	412.7625
2205.67545	407.2625
2208.60037	409.9625
2211.52341	402.9625
2214.44458	402.4625
2217.36388	398.6625
2220.28132	404.0625
2223.1969	394.7625
2226.11061	391.4625
2229.02246	390.8625
2231.93245	393.1625
2234.84058	396.1625
2237.74686	390.1625
2240.65128	390.5625
2243.55385	391.8625
2246.45456	382.2625
2249.35343	381.5625
2252.25044	381.4625
2255.14561	384.7625
2258.03893	384.6625
2260.93041	383.4625
2263.82004	377.6625
2266.70783	382.9625
2269.59378	376.9625
2272.4779	375.6625
2275.36017	370.4625
2278.24061	368.2625
2281.11922	367.4625
2283.996	373.8625
2286.87094	365.7625
2289.74405	366.8625
2292.61534	366.0625
2295.4848	367.3625
2298.35243	362.8625
2301.21824	362.7625
2304.08223	360.9625
2306.94439	362.1625
2309.80474	357.1625
2312.66327	355.5625
2315.51999	355.4625
2318.37489	355.6625
2321.22797	354.0625
2324.07925	355.0625
2326.92871	352.9625
2329.77637	359.4625
2332.62222	354.8625
2335.46626	352.7625
2338.3085	347.3625
2341.14893	345.4625
2343.98756	345.2625
2346.8244	342.7625
2349.65943	340.0625
2352.49267	346.8625
2355.32411	341.6625
2358.15376	342.0625
2360.98161	340.1625
2363.80768	337.1625
2366.63195	338.6625
2369.45444	336.3625
2372.27514	335.8625
2375.09405	337.8625
2377.91118	332.3625
2380.72652	329.4625
2383.54009	329.8625
2386.35187	329.7625
2389.16188	331.8625
2391.97011	329.9625
2394.77657	331.2625
2397.58125	325.4625
2400.38416	322.6625
2403.18529	323.9625
2405.98466	316.5625
2408.78226	322.7625
2411.57809	319.9625
2414.37216	320.7625
2417.16446	317.0625
2419.955	318.1625
2422.74378	324.6625
2425.5308	317.0625
2428.31606	319.2625
2431.09956	314.6625
2433.88131	314.0625
2436.6613	315.9625
2439.43954	307.2625
2442.21603	312.1625
2444.99077	311.0625
2447.76377	312.5625
2450.53501	304.3625
2453.30451	307.0625
2456.07226	306.3625
2458.83827	309.1625
2461.60254	303.9625
2464.36507	303.6625
2467.12586	300.8625
2469.88492	299.5625
2472.64224	298.2625
2475.39782	300.0625
2478.15167	300.3625
2480.90379	305.9625
2483.65417	299.9625
2486.40283	296.1625
2489.14976	298.9625
2491.89497	294.5625
2494.63845	300.3625
2497.3802	300.5625
2500.12024	296.5625
2502.85855	292.6625
2505.59514	297.7625
2508.33002	293.8625
2511.06318	288.4625
2513.79462	291.1625
2516.52435	287.9625
2519.25237	289.3625
2521.97867	288.8625
2524.70327	289.6625
2527.42616	283.7625
2530.14734	287.6625
2532.86681	284.4625
2535.58458	280.8625
2538.30065	287.3625
2541.01501	283.9625
2543.72768	281.0625
2546.43864	282.7625
2549.14791	280.2625
2551.85548	280.9625
2554.56136	278.6625
2557.26554	301.9625
2559.96803	285.9625
2562.66883	278.4625
2565.36794	274.4625
2568.06536	273.2625
2570.7611	276.7625
2573.45514	268.9625
2576.14751	266.6625
2578.83819	270.8625
2581.52719	272.3625
2584.21451	273.6625
2586.90015	270.4625
2589.58411	263.6625
2592.2664	269.4625
2594.94701	265.2625
2597.62594	262.6625
2600.30321	261.8625
2602.9788	262.5625
2605.65273	262.3625
2608.32498	265.1625
2610.99557	259.6625
2613.66449	260.4625
2616.33175	259.6625
2618.99734	256.9625
2621.66128	259.3625
2624.32355	254.6625
2626.98416	261.9625
2629.64311	253.7625
2632.30041	256.2625
2634.95605	256.5625
2637.61004	250.3625
2640.26238	250.7625
2642.91306	249.7625
2645.56209	250.4625
2648.20948	269.9625
2650.85521	255.3625
2653.4993	247.8625
2656.14175	250.2625
2658.78255	247.7625
2661.42171	245.1625
2664.05923	254.5625
2666.6951	246.8625
2669.32934	242.3625
2671.96194	247.9625
2674.59291	244.7625
2677.22224	246.5625
2679.84993	249.9625
2682.476	249.2625
2685.10043	244.6625
2687.72324	242.7625
2690.34441	246.6625
2692.96396	244.2625
2695.58188	246.4625
2698.19818	242.5625
2700.81285	247.0625
2703.4259	252.7625
2706.03733	253.2625
2708.64714	257.0625
2711.25533	245.7625
2713.86191	246.7625
2716.46687	240.4625
2719.07021	252.2625
2721.67194	244.2625
2724.27206	240.4625
2726.87057	246.8625
2729.46747	244.0625
2732.06276	245.2625
2734.65644	247.7625
2737.24852	244.4625
2739.83899	246.3625
2742.42786	240.7625
2745.01513	243.7625
2747.60079	241.2625
2750.18486	245.3625
2752.76733	248.2625
2755.3482	242.2625
2757.92747	239.2625
2760.50515	241.0625
2763.08123	238.8625
2765.65573	238.6625
2768.22863	241.3625
2770.79994	239.5625
2773.36967	238.4625
2775.9378	236.9625
2778.50435	238.4625
2781.06932	237.1625
2783.6327	238.1625
2786.1945	234.4625
2788.75471	234.7625
2791.31335	237.3625
2793.87041	231.9625
2796.42589	231.1625
2798.97979	233.5625
2801.53212	232.9625
2804.08288	229.9625
2806.63206	231.3625
2809.17967	231.2625
2811.72571	231.3625
2814.27018	231.1625
2816.81308	230.6625
2819.35442	228.8625
2821.89419	225.6625
2824.43239	225.0625
2826.96904	226.7625
2829.50412	227.1625
2832.03763	225.3625
2834.56959	225.6625
2837.1	224.3625
2839.62884	224.8625
2842.15613	230.1625
2844.68186	225.5625
2847.20604	225.0625
2849.72867	225.8625
2852.24974	229.2625
2854.76927	227.4625
2857.28724	231.7625
2859.80367	234.8625
2862.31855	229.1625
2864.83189	227.1625
2867.34368	229.1625
2869.85393	225.0625
2872.36264	231.0625
2874.8698	227.4625
2877.37543	226.4625
2879.87952	228.1625
2882.38207	226.8625
2884.88308	225.2625
2887.38256	230.9625
2889.88051	226.1625
2892.37692	232.2625
2894.8718	233.2625
2897.36515	232.8625
2899.85698	232.0625
2902.34727	236.0625
2904.83604	239.5625
2907.32328	238.8625
2909.809	240.5625
2912.29319	240.3625
2914.77587	240.0625
2917.25702	241.5625
2919.73665	241.5625
2922.21476	242.4625
2924.69136	248.8625
2927.16644	243.0625
2929.64	246.5625
2932.11205	247.3625
2934.58258	248.0625
2937.05161	247.4625
2939.51912	252.2625
2941.98513	248.2625
2944.44962	251.2625
2946.91261	246.4625
2949.37409	249.3625
2951.83407	243.9625
2954.29254	244.6625
2956.74951	239.6625
2959.20498	243.8625
2961.65895	248.9625
2964.11142	251.3625
2966.56239	249.7625
2969.01186	249.1625
2971.45984	247.9625
2973.90632	253.7625
2976.35131	253.5625
2978.7948	250.5625
2981.23681	250.3625
2983.67732	250.9625
2986.11635	254.5625
2988.55388	253.0625
2990.98993	259.6625
2993.4245	255.5625
2995.85758	252.9625
2998.28917	256.3625
3000.71928	257.6625
3003.14791	260.6625
3005.57506	261.3625
3008.00073	263.4625
3010.42493	264.5625
3012.84764	268.7625
3015.26888	266.1625
3017.68865	264.0625
3020.10694	264.3625
3022.52376	268.1625
3024.9391	273.8625
3027.35298	280.2625
3029.76539	278.3625
3032.17632	279.0625
3034.5858	278.7625
3036.9938	278.6625
3039.40034	283.9625
3041.80542	284.7625
3044.20903	285.5625
3046.61118	289.9625
3049.01187	297.1625
3051.4111	294.7625
3053.80888	297.1625
3056.20519	304.3625
3058.60005	309.5625
3060.99345	308.0625
3063.3854	313.2625
3065.7759	313.0625
3068.16494	316.3625
3070.55254	318.6625
3072.93868	317.4625
3075.32338	323.2625
3077.70662	328.6625
3080.08842	331.9625
3082.46878	335.5625
3084.84769	336.9625
3087.22515	340.7625
3089.60118	342.7625
3091.97576	349.0625
3094.3489	354.6625
3096.72061	364.3625
3099.09087	369.4625
3101.4597	369.1625
3103.82709	375.4625
3106.19305	381.5625
3108.55757	383.3625
3110.92066	385.3625
3113.28232	394.5625
3115.64255	397.1625
3118.00134	402.1625
3120.35871	408.1625
3122.71466	412.6625
3125.06917	423.8625
3127.42226	419.3625
3129.77393	427.7625
3132.12417	433.9625
3134.47299	438.5625
3136.82039	446.6625
3139.16636	447.5625
3141.51092	456.9625
3143.85406	462.1625
3146.19579	468.8625
3148.53609	476.1625
3150.87499	486.5625
3153.21246	489.2625
3155.54853	497.1625
3157.88318	501.7625
3160.21642	513.3625
3162.54826	519.3625
3164.87868	522.1625
3167.2077	529.4625
3169.5353	537.4625
3171.86151	547.5625
3174.18631	543.0625
3176.5097	551.7625
3178.83169	555.8625
3181.15228	564.6625
3183.47147	563.6625
3185.78926	570.2625
3188.10565	578.7625
3190.42065	582.6625
3192.73424	593.8625
3195.04645	594.2625
3197.35725	595.8625
3199.66667	599.4625
3201.97469	610.7625
3204.28132	614.7625
3206.58656	617.7625
3208.8904	618.6625
3211.19287	623.9625
3213.49394	628.2625
3215.79363	629.0625
3218.09193	639.9625
3220.38884	638.9625
3222.68438	648.4625
3224.97853	651.3625
3227.2713	650.2625
3229.56269	650.8625
3231.8527	656.2625
3234.14133	658.9625
3236.42858	660.7625
3238.71446	657.3625
3240.99896	660.7625
3243.28209	657.8625
3245.56384	654.0625
3247.84423	660.0625
3250.12324	656.2625
3252.40088	669.0625
3254.67715	663.3625
3256.95205	666.9625
3259.22558	671.2625
3261.49775	670.5625
3263.76855	671.3625
3266.03799	669.2625
3268.30606	669.0625
3270.57277	672.0625
3272.83812	670.1625
3275.10211	667.0625
3277.36474	667.8625
3279.62601	668.6625
3281.88593	666.3625
3284.14448	667.8625
3286.40168	667.5625
3288.65753	672.5625
3290.91202	665.6625
3293.16516	662.1625
3295.41695	666.8625
3297.66738	661.4625
3299.91647	661.2625
3302.16421	661.7625
3304.4106	656.7625
3306.65564	654.1625
3308.89933	652.9625
3311.14169	658.4625
3313.38269	649.9625
3315.62236	646.9625
3317.86068	639.4625
3320.09766	636.3625
3322.3333	634.4625
3324.5676	629.6625
3326.80056	627.8625
3329.03219	627.2625
3331.26248	-0.5375
3333.49143	1.1625
3335.71905	0.8625
