EXPLAIN
TAG	CHRONOA
TITLE	LABEL	Chronoamperometry Scan	Test Identifier
DATE	LABEL	21/12/2021	Date
TIME	LABEL	13:17:20	Time
NOTES	NOTES	1	Notes...
	
PSTAT	PSTAT	IFC1010-21051	Potentiostat
VPRESTEP	POTEN	-3.00000E-001	F	Pre-step Voltage (V)
TPRESTEP	QUANT	5.00000E-001	Pre-step Delay Time (s)
VSTEP1	POTEN	-4.00000E-001	F	Step 1 Voltage (V)
TSTEP1	QUANT	3.00000E+002	Step 1 Time (s)
VSTEP2	POTEN	-5.00000E-001	F	Step 2 Voltage (V)
TSTEP2	QUANT	1.00000E+000	Step 2 Time (s)
SAMPLETIME	QUANT	1.00000E-001	Sample Period (s)
DECIMATE	TOGGLE	T	Decimate
ILIMIT	QUANT	1.00000E+000	Limit I (mA/cm^2)
IMODE	SELECTOR	1	I/E Range Mode
IRANGE	QUANT	3.00000E-001	Max Current (mA)
EQDELAY	QUANT	5.00000E+000	Equil. Time (s)
SAMPLINGMODE	SELECTOR	1	Sampling Mode
AREA	QUANT	1.00000E+000	Sample Area (cm^2)
IRCOMP	SELECTOR	0	IRComp
PFCOR	QUANT	5.00000E+001	PF Corr. (ohm)
SEQUENCER	TOGGLE	TRUE	Run as Sequence
PSTATMODEL	IQUANT	64	Pstat Model
PSTATSECTION	LABEL	IFC1010-21051	Pstat Section
PSTATSERIALNO	LABEL	21051	Pstat Serial Number
CTRLMODE	IQUANT	1	Control Mode
ELECTROMETER	IQUANT	0	RE=0 or CS=1
IESTAB	IQUANT	0	I/E Stability
CASPEED	IQUANT	4	Control Amp Speed
CONVENTION	IQUANT	1	Current Convention
ICHRANGE	IQUANT	2	Ich Range
ICHRANGEMODE	TOGGLE	T	Ich Auto Range
ICHOFFSETENABLE	TOGGLE	F	Ich Offset Enable
ICHOFFSET	QUANT	0	Ich Offset (V)
ICHFILTER	IQUANT	3	Ich Filter
VCHRANGE	IQUANT	3	Vch Range
VCHRANGEMODE	TOGGLE	T	Vch Auto Range
VCHOFFSETENABLE	TOGGLE	F	Vch Offset Enable
VCHOFFSET	QUANT	0	Vch Offset (V)
VCHFILTER	IQUANT	3	Vch Filter
IERANGELOWERLIMIT	IQUANT	4	I/E Range Lower Limit
IERANGEMODE	TOGGLE	F	I/E AutoRange
IERANGE	IQUANT	9	I/E Range
ACHSELECT	IQUANT	0	Ach Select
ACHRANGE	IQUANT	2	Ach Range
ACHOFFSETENABLE	TOGGLE	F	Ach Offset Enable
ACHOFFSET	QUANT	0	Ach Offset (V)
ACHFILTER	IQUANT	1	Ach Filter
SENSECABLEID	IQUANT	14	Sense Cable ID
PWRCABLEID	IQUANT	14	Power Cable ID
DCCALDATE	LABEL	10/1/2020	DC Calibration Date
ACCALDATE	LABEL	4/2/2018	AC Calibration Date
FRAMEWORKVERSION	QUANT	7.06	Framework Version
INSTRUMENTVERSION	LABEL	4.30	Instrument Version
CURVE	TABLE	98
	Pt	T	Vf	Im	Vu	Sig	Ach	IERange	Over	Temp
	#	s	V vs. Ref.	A	V	V	V	#	bits	deg C
	0	-0.4	-3.00641E-001	-4.45856E-005	0.00000E+000	-3.00011E-001	0.00000E+000	9	...........	1425.95
	1	-0.3	-3.00533E-001	-4.45475E-005	0.00000E+000	-3.00011E-001	0.00000E+000	9	...........	1425.95
	2	-0.2	-3.00536E-001	-4.44529E-005	0.00000E+000	-3.00011E-001	0.00000E+000	9	...........	1425.95
	3	-0.1	-3.00544E-001	-4.44107E-005	0.00000E+000	-3.00011E-001	0.00000E+000	9	...........	1425.95
	4	0	-3.00534E-001	-4.43542E-005	0.00000E+000	-3.00011E-001	0.00000E+000	9	...........	1425.95
	5	0.1	-4.00587E-001	-3.15535E-004	0.00000E+000	-4.00011E-001	0.00000E+000	9	...........	1425.95
	6	0.2	-4.00580E-001	-2.35375E-004	0.00000E+000	-4.00011E-001	0.00000E+000	9	...........	1425.95
	7	0.3	-4.00594E-001	-2.05106E-004	0.00000E+000	-4.00011E-001	0.00000E+000	9	...........	1425.95
	8	0.4	-4.00579E-001	-1.90233E-004	0.00000E+000	-4.00011E-001	0.00000E+000	9	...........	1425.95
	9	0.5	-4.00584E-001	-1.81461E-004	0.00000E+000	-4.00011E-001	0.00000E+000	9	...........	1425.95
	10	0.6	-4.00579E-001	-1.75503E-004	0.00000E+000	-4.00011E-001	0.00000E+000	9	...........	1425.95
	11	0.7	-4.00583E-001	-1.71142E-004	0.00000E+000	-4.00011E-001	0.00000E+000	9	...........	1425.95
	12	0.8	-4.00564E-001	-1.67613E-004	0.00000E+000	-4.00011E-001	0.00000E+000	9	...........	1425.95
	13	0.9	-4.00578E-001	-1.64719E-004	0.00000E+000	-4.00011E-001	0.00000E+000	9	...........	1425.95
	14	1	-4.00574E-001	-1.62193E-004	0.00000E+000	-4.00011E-001	0.00000E+000	9	...........	1425.95
	15	1.1	-4.00575E-001	-1.59959E-004	0.00000E+000	-4.00011E-001	0.00000E+000	9	...........	1425.95
	16	1.2	-4.00578E-001	-1.57915E-004	0.00000E+000	-4.00011E-001	0.00000E+000	9	...........	1425.95
	17	1.3	-4.00571E-001	-1.56054E-004	0.00000E+000	-4.00011E-001	0.00000E+000	9	...........	1425.95
	18	1.4	-4.00578E-001	-1.54345E-004	0.00000E+000	-4.00011E-001	0.00000E+000	9	...........	1425.95
	19	1.5	-4.00580E-001	-1.52732E-004	0.00000E+000	-4.00011E-001	0.00000E+000	9	...........	1425.95
	20	1.6	-4.00569E-001	-1.51203E-004	0.00000E+000	-4.00011E-001	0.00000E+000	9	...........	1425.95
	21	1.7	-4.00584E-001	-1.49812E-004	0.00000E+000	-4.00011E-001	0.00000E+000	9	...........	1425.95
	22	1.8	-4.00581E-001	-1.48493E-004	0.00000E+000	-4.00011E-001	0.00000E+000	9	...........	1425.95
	23	1.9	-4.00589E-001	-1.47234E-004	0.00000E+000	-4.00011E-001	0.00000E+000	9	...........	1425.95
	24	2	-4.00575E-001	-1.45983E-004	0.00000E+000	-4.00011E-001	0.00000E+000	9	...........	1425.95
	25	2.1	-4.00589E-001	-1.44836E-004	0.00000E+000	-4.00011E-001	0.00000E+000	9	...........	1425.95
	26	2.2	-4.00581E-001	-1.43734E-004	0.00000E+000	-4.00011E-001	0.00000E+000	9	...........	1425.95
	27	2.3	-4.00578E-001	-1.42664E-004	0.00000E+000	-4.00011E-001	0.00000E+000	9	...........	1425.95
	28	2.4	-4.00582E-001	-1.41661E-004	0.00000E+000	-4.00011E-001	0.00000E+000	9	...........	1425.87
	29	2.5	-4.00578E-001	-1.40679E-004	0.00000E+000	-4.00011E-001	0.00000E+000	9	...........	1425.87
	30	2.6	-4.00574E-001	-1.39689E-004	0.00000E+000	-4.00011E-001	0.00000E+000	9	...........	1425.87
	31	2.7	-4.00576E-001	-1.38757E-004	0.00000E+000	-4.00011E-001	0.00000E+000	9	...........	1425.87
	32	2.8	-4.00567E-001	-1.37820E-004	0.00000E+000	-4.00011E-001	0.00000E+000	9	...........	1425.87
	33	2.9	-4.00583E-001	-1.36982E-004	0.00000E+000	-4.00011E-001	0.00000E+000	9	...........	1425.87
	34	3	-4.00583E-001	-1.36132E-004	0.00000E+000	-4.00011E-001	0.00000E+000	9	...........	1425.87
	35	3.1	-4.00584E-001	-1.35321E-004	0.00000E+000	-4.00011E-001	0.00000E+000	9	...........	1425.87
	36	3.2	-4.00581E-001	-1.34528E-004	0.00000E+000	-4.00011E-001	0.00000E+000	9	...........	1425.87
	37	3.3	-4.00579E-001	-1.33752E-004	0.00000E+000	-4.00011E-001	0.00000E+000	9	...........	1425.87
	38	3.4	-4.00576E-001	-1.32986E-004	0.00000E+000	-4.00011E-001	0.00000E+000	9	...........	1425.87
	39	3.5	-4.00571E-001	-1.32234E-004	0.00000E+000	-4.00011E-001	0.00000E+000	9	...........	1425.87
	40	3.6	-4.00579E-001	-1.31548E-004	0.00000E+000	-4.00011E-001	0.00000E+000	9	...........	1425.87
	41	3.7	-4.00578E-001	-1.30837E-004	0.00000E+000	-4.00011E-001	0.00000E+000	9	...........	1425.87
	42	3.8	-4.00594E-001	-1.30178E-004	0.00000E+000	-4.00011E-001	0.00000E+000	9	...........	1425.87
	43	3.9	-4.00585E-001	-1.29493E-004	0.00000E+000	-4.00011E-001	0.00000E+000	9	...........	1425.87
	44	4	-4.00586E-001	-1.28833E-004	0.00000E+000	-4.00011E-001	0.00000E+000	9	...........	1425.87
	45	4.1	-4.00563E-001	-1.28187E-004	0.00000E+000	-4.00011E-001	0.00000E+000	9	...........	1425.87
	46	4.2	-4.00559E-001	-1.27536E-004	0.00000E+000	-4.00011E-001	0.00000E+000	9	...........	1425.87
	47	4.3	-4.00574E-001	-1.26972E-004	0.00000E+000	-4.00011E-001	0.00000E+000	9	...........	1425.87
	48	4.4	-4.00574E-001	-1.26344E-004	0.00000E+000	-4.00011E-001	0.00000E+000	9	...........	1425.87
	49	4.5	-4.00577E-001	-1.25777E-004	0.00000E+000	-4.00011E-001	0.00000E+000	9	...........	1425.87
	50	4.6	-4.00578E-001	-1.25217E-004	0.00000E+000	-4.00011E-001	0.00000E+000	9	...........	1425.87
	51	4.7	-4.00569E-001	-1.24660E-004	0.00000E+000	-4.00011E-001	0.00000E+000	9	...........	1425.87
	52	4.8	-4.00570E-001	-1.24082E-004	0.00000E+000	-4.00011E-001	0.00000E+000	9	...........	1425.87
	53	4.9	-4.00579E-001	-1.23586E-004	0.00000E+000	-4.00011E-001	0.00000E+000	9	...........	1425.87
	54	5	-4.00586E-001	-1.23079E-004	0.00000E+000	-4.00011E-001	0.00000E+000	9	...........	1425.87
	55	5.1	-4.00583E-001	-1.22587E-004	0.00000E+000	-4.00011E-001	0.00000E+000	9	...........	1425.87
	56	5.2	-4.00579E-001	-1.22082E-004	0.00000E+000	-4.00011E-001	0.00000E+000	9	...........	1425.87
	57	5.3	-4.00591E-001	-1.21587E-004	0.00000E+000	-4.00011E-001	0.00000E+000	9	...........	1425.87
	58	5.4	-4.00579E-001	-1.21118E-004	0.00000E+000	-4.00011E-001	0.00000E+000	9	...........	1425.87
	59	5.5	-4.00566E-001	-1.20619E-004	0.00000E+000	-4.00011E-001	0.00000E+000	9	...........	1425.87
	60	5.6	-4.00583E-001	-1.20197E-004	0.00000E+000	-4.00011E-001	0.00000E+000	9	...........	1425.87
	61	5.7	-4.00583E-001	-1.19743E-004	0.00000E+000	-4.00011E-001	0.00000E+000	9	...........	1425.87
	62	5.8	-4.00579E-001	-1.19292E-004	0.00000E+000	-4.00011E-001	0.00000E+000	9	...........	1425.87
	63	5.9	-4.00578E-001	-1.18861E-004	0.00000E+000	-4.00011E-001	0.00000E+000	9	...........	1425.87
	64	6	-4.00583E-001	-1.18420E-004	0.00000E+000	-4.00011E-001	0.00000E+000	9	...........	1425.87
	65	6.1	-4.00586E-001	-1.17973E-004	0.00000E+000	-4.00011E-001	0.00000E+000	9	...........	1425.87
	66	7.1	-4.00581E-001	-1.14056E-004	0.00000E+000	-4.00011E-001	0.00000E+000	9	...........	1425.87
	67	8.1	-4.00571E-001	-1.10570E-004	0.00000E+000	-4.00011E-001	0.00000E+000	9	...........	1425.95
	68	9.1	-4.00573E-001	-1.07585E-004	0.00000E+000	-4.00011E-001	0.00000E+000	9	...........	1425.95
	69	10.1	-4.00583E-001	-1.05039E-004	0.00000E+000	-4.00011E-001	0.00000E+000	9	...........	1425.95
	70	11.1	-4.00572E-001	-1.02831E-004	0.00000E+000	-4.00011E-001	0.00000E+000	9	...........	1425.95
	71	12.1	-4.00582E-001	-1.00750E-004	0.00000E+000	-4.00011E-001	0.00000E+000	9	...........	1425.95
	72	13.1	-4.00581E-001	-9.88799E-005	0.00000E+000	-4.00011E-001	0.00000E+000	9	...........	1425.95
	73	14.1	-4.00555E-001	-9.72171E-005	0.00000E+000	-4.00011E-001	0.00000E+000	9	...........	1425.95
	74	15.1	-4.00590E-001	-9.58091E-005	0.00000E+000	-4.00011E-001	0.00000E+000	9	...........	1425.95
	75	16.1	-4.00572E-001	-9.44329E-005	0.00000E+000	-4.00011E-001	0.00000E+000	9	...........	1425.95
	76	26.1	-4.00578E-001	-8.36993E-005	0.00000E+000	-4.00011E-001	0.00000E+000	9	...........	1426.04
	77	36.1	-4.00578E-001	-7.75279E-005	0.00000E+000	-4.00011E-001	0.00000E+000	9	...........	1426.04
	78	46.1	-4.00577E-001	-7.34318E-005	0.00000E+000	-4.00011E-001	0.00000E+000	9	...........	1426.04
	79	56.1	-4.00570E-001	-7.03712E-005	0.00000E+000	-4.00011E-001	0.00000E+000	9	...........	1426.04
	80	66.1	-4.00569E-001	-6.76134E-005	0.00000E+000	-4.00011E-001	0.00000E+000	9	...........	1426.04
	81	76.1	-4.00572E-001	-6.55349E-005	0.00000E+000	-4.00011E-001	0.00000E+000	9	...........	1426.04
	82	86.1	-4.00575E-001	-6.38843E-005	0.00000E+000	-4.00011E-001	0.00000E+000	9	...........	1426.04
	83	96.1	-4.00574E-001	-6.25315E-005	0.00000E+000	-4.00011E-001	0.00000E+000	9	...........	1426.04
	84	106.1	-4.00569E-001	-6.14559E-005	0.00000E+000	-4.00011E-001	0.00000E+000	9	...........	1426.04
	85	116.1	-4.00576E-001	-6.05275E-005	0.00000E+000	-4.00011E-001	0.00000E+000	9	...........	1426.04
	86	216.1	-4.00574E-001	-5.52836E-005	0.00000E+000	-4.00011E-001	0.00000E+000	9	...........	1426.04
	87	300	-4.00573E-001	-5.39604E-005	0.00000E+000	-4.00011E-001	0.00000E+000	9	...........	1426.04
	88	300.1	-5.00570E-001	-3.30302E-004	0.00000E+000	-5.00010E-001	0.00000E+000	9	...........	1426.04
	89	300.2	-5.00571E-001	-2.46834E-004	0.00000E+000	-5.00010E-001	0.00000E+000	9	...........	1426.04
	90	300.3	-5.00581E-001	-2.16719E-004	0.00000E+000	-5.00010E-001	0.00000E+000	9	...........	1426.04
	91	300.4	-5.00589E-001	-2.02207E-004	0.00000E+000	-5.00010E-001	0.00000E+000	9	...........	1426.04
	92	300.5	-5.00589E-001	-1.93531E-004	0.00000E+000	-5.00010E-001	0.00000E+000	9	...........	1426.04
	93	300.6	-5.00588E-001	-1.87568E-004	0.00000E+000	-5.00010E-001	0.00000E+000	9	...........	1426.04
	94	300.7	-5.00586E-001	-1.83045E-004	0.00000E+000	-5.00010E-001	0.00000E+000	9	...........	1426.04
	95	300.8	-5.00592E-001	-1.79403E-004	0.00000E+000	-5.00010E-001	0.00000E+000	9	...........	1426.04
	96	300.9	-5.00585E-001	-1.76316E-004	0.00000E+000	-5.00010E-001	0.00000E+000	9	...........	1426.04
	97	301	-5.00586E-001	-1.73619E-004	0.00000E+000	-5.00010E-001	0.00000E+000	9	...........	1426.04
