EXPLAIN
TAG	CHRONOA
TITLE	LABEL	Chronoamperometry Scan	Test Identifier
DATE	LABEL	21/12/2021	Date
TIME	LABEL	15:13:05	Time
NOTES	NOTES	1	Notes...
	
PSTAT	PSTAT	IFC1010-21051	Potentiostat
VPRESTEP	POTEN	3.00000E-001	F	Pre-step Voltage (V)
TPRESTEP	QUANT	5.00000E-001	Pre-step Delay Time (s)
VSTEP1	POTEN	4.00000E-001	F	Step 1 Voltage (V)
TSTEP1	QUANT	3.00000E+002	Step 1 Time (s)
VSTEP2	POTEN	3.00000E-001	F	Step 2 Voltage (V)
TSTEP2	QUANT	1.00000E+000	Step 2 Time (s)
SAMPLETIME	QUANT	1.00000E-001	Sample Period (s)
DECIMATE	TOGGLE	T	Decimate
ILIMIT	QUANT	1.00000E+000	Limit I (mA/cm^2)
IMODE	SELECTOR	1	I/E Range Mode
IRANGE	QUANT	3.00000E-001	Max Current (mA)
EQDELAY	QUANT	5.00000E+000	Equil. Time (s)
SAMPLINGMODE	SELECTOR	1	Sampling Mode
AREA	QUANT	1.00000E+000	Sample Area (cm^2)
IRCOMP	SELECTOR	0	IRComp
PFCOR	QUANT	5.00000E+001	PF Corr. (ohm)
SEQUENCER	TOGGLE	TRUE	Run as Sequence
PSTATMODEL	IQUANT	64	Pstat Model
PSTATSECTION	LABEL	IFC1010-21051	Pstat Section
PSTATSERIALNO	LABEL	21051	Pstat Serial Number
CTRLMODE	IQUANT	1	Control Mode
ELECTROMETER	IQUANT	0	RE=0 or CS=1
IESTAB	IQUANT	0	I/E Stability
CASPEED	IQUANT	4	Control Amp Speed
CONVENTION	IQUANT	1	Current Convention
ICHRANGE	IQUANT	2	Ich Range
ICHRANGEMODE	TOGGLE	T	Ich Auto Range
ICHOFFSETENABLE	TOGGLE	F	Ich Offset Enable
ICHOFFSET	QUANT	0	Ich Offset (V)
ICHFILTER	IQUANT	3	Ich Filter
VCHRANGE	IQUANT	3	Vch Range
VCHRANGEMODE	TOGGLE	T	Vch Auto Range
VCHOFFSETENABLE	TOGGLE	F	Vch Offset Enable
VCHOFFSET	QUANT	0	Vch Offset (V)
VCHFILTER	IQUANT	3	Vch Filter
IERANGELOWERLIMIT	IQUANT	4	I/E Range Lower Limit
IERANGEMODE	TOGGLE	F	I/E AutoRange
IERANGE	IQUANT	9	I/E Range
ACHSELECT	IQUANT	0	Ach Select
ACHRANGE	IQUANT	2	Ach Range
ACHOFFSETENABLE	TOGGLE	F	Ach Offset Enable
ACHOFFSET	QUANT	0	Ach Offset (V)
ACHFILTER	IQUANT	1	Ach Filter
SENSECABLEID	IQUANT	14	Sense Cable ID
PWRCABLEID	IQUANT	14	Power Cable ID
DCCALDATE	LABEL	10/1/2020	DC Calibration Date
ACCALDATE	LABEL	4/2/2018	AC Calibration Date
FRAMEWORKVERSION	QUANT	7.06	Framework Version
INSTRUMENTVERSION	LABEL	4.30	Instrument Version
CURVE	TABLE	98
	Pt	T	Vf	Im	Vu	Sig	Ach	IERange	Over	Temp
	#	s	V vs. Ref.	A	V	V	V	#	bits	deg C
	0	-0.4	3.00126E-001	1.30011E-005	0.00000E+000	3.00072E-001	0.00000E+000	9	...........	1426.13
	1	-0.3	3.00437E-001	1.28798E-005	0.00000E+000	3.00072E-001	0.00000E+000	9	...........	1426.13
	2	-0.2	3.00431E-001	1.27772E-005	0.00000E+000	3.00072E-001	0.00000E+000	9	...........	1426.13
	3	-0.1	3.00433E-001	1.27146E-005	0.00000E+000	3.00072E-001	0.00000E+000	9	...........	1426.13
	4	0	3.00442E-001	1.25947E-005	0.00000E+000	3.00072E-001	0.00000E+000	9	...........	1426.13
	5	0.1	4.00477E-001	4.18227E-004	0.00000E+000	4.00072E-001	0.00000E+000	9	...........	1426.13
	6	0.2	4.00482E-001	3.71363E-004	0.00000E+000	4.00072E-001	0.00000E+000	9	...........	1426.13
	7	0.3	4.00493E-001	3.33155E-004	0.00000E+000	4.00072E-001	0.00000E+000	9	...........	1426.13
	8	0.4	4.00487E-001	3.00893E-004	0.00000E+000	4.00072E-001	0.00000E+000	9	...........	1426.13
	9	0.5	4.00494E-001	2.75222E-004	0.00000E+000	4.00072E-001	0.00000E+000	9	...........	1426.13
	10	0.6	4.00501E-001	2.54649E-004	0.00000E+000	4.00072E-001	0.00000E+000	9	...........	1426.13
	11	0.7	4.00490E-001	2.37836E-004	0.00000E+000	4.00072E-001	0.00000E+000	9	...........	1426.13
	12	0.8	4.00486E-001	2.23741E-004	0.00000E+000	4.00072E-001	0.00000E+000	9	...........	1426.13
	13	0.9	4.00493E-001	2.11679E-004	0.00000E+000	4.00072E-001	0.00000E+000	9	...........	1426.13
	14	1	4.00491E-001	2.01179E-004	0.00000E+000	4.00072E-001	0.00000E+000	9	...........	1426.13
	15	1.1	4.00501E-001	1.91860E-004	0.00000E+000	4.00072E-001	0.00000E+000	9	...........	1426.13
	16	1.2	4.00485E-001	1.83581E-004	0.00000E+000	4.00072E-001	0.00000E+000	9	...........	1426.13
	17	1.3	4.00494E-001	1.76095E-004	0.00000E+000	4.00072E-001	0.00000E+000	9	...........	1426.13
	18	1.4	4.00493E-001	1.69338E-004	0.00000E+000	4.00072E-001	0.00000E+000	9	...........	1425.60
	19	1.5	4.00509E-001	1.63136E-004	0.00000E+000	4.00072E-001	0.00000E+000	9	...........	1425.60
	20	1.6	4.00489E-001	1.57460E-004	0.00000E+000	4.00072E-001	0.00000E+000	9	...........	1425.60
	21	1.7	4.00482E-001	1.52231E-004	0.00000E+000	4.00072E-001	0.00000E+000	9	...........	1425.60
	22	1.8	4.00489E-001	1.47363E-004	0.00000E+000	4.00072E-001	0.00000E+000	9	...........	1425.60
	23	1.9	4.00483E-001	1.42907E-004	0.00000E+000	4.00072E-001	0.00000E+000	9	...........	1425.60
	24	2	4.00491E-001	1.38715E-004	0.00000E+000	4.00072E-001	0.00000E+000	9	...........	1425.60
	25	2.1	4.00496E-001	1.34783E-004	0.00000E+000	4.00072E-001	0.00000E+000	9	...........	1425.60
	26	2.2	4.00492E-001	1.31150E-004	0.00000E+000	4.00072E-001	0.00000E+000	9	...........	1425.60
	27	2.3	4.00493E-001	1.27674E-004	0.00000E+000	4.00072E-001	0.00000E+000	9	...........	1425.60
	28	2.4	4.00495E-001	1.24453E-004	0.00000E+000	4.00072E-001	0.00000E+000	9	...........	1425.69
	29	2.5	4.00490E-001	1.21416E-004	0.00000E+000	4.00072E-001	0.00000E+000	9	...........	1425.69
	30	2.6	4.00496E-001	1.18513E-004	0.00000E+000	4.00072E-001	0.00000E+000	9	...........	1425.69
	31	2.7	4.00498E-001	1.15791E-004	0.00000E+000	4.00072E-001	0.00000E+000	9	...........	1425.69
	32	2.8	4.00490E-001	1.13244E-004	0.00000E+000	4.00072E-001	0.00000E+000	9	...........	1425.69
	33	2.9	4.00494E-001	1.10826E-004	0.00000E+000	4.00072E-001	0.00000E+000	9	...........	1425.69
	34	3	4.00485E-001	1.08504E-004	0.00000E+000	4.00072E-001	0.00000E+000	9	...........	1425.69
	35	3.1	4.00495E-001	1.06300E-004	0.00000E+000	4.00072E-001	0.00000E+000	9	...........	1425.69
	36	3.2	4.00489E-001	1.04214E-004	0.00000E+000	4.00072E-001	0.00000E+000	9	...........	1425.69
	37	3.3	4.00501E-001	1.02242E-004	0.00000E+000	4.00072E-001	0.00000E+000	9	...........	1425.69
	38	3.4	4.00486E-001	1.00350E-004	0.00000E+000	4.00072E-001	0.00000E+000	9	...........	1425.87
	39	3.5	4.00493E-001	9.85372E-005	0.00000E+000	4.00072E-001	0.00000E+000	9	...........	1425.87
	40	3.6	4.00496E-001	9.68353E-005	0.00000E+000	4.00072E-001	0.00000E+000	9	...........	1425.87
	41	3.7	4.00501E-001	9.51452E-005	0.00000E+000	4.00072E-001	0.00000E+000	9	...........	1425.87
	42	3.8	4.00494E-001	9.36044E-005	0.00000E+000	4.00072E-001	0.00000E+000	9	...........	1425.87
	43	3.9	4.00476E-001	9.21102E-005	0.00000E+000	4.00072E-001	0.00000E+000	9	...........	1425.87
	44	4	4.00488E-001	9.07186E-005	0.00000E+000	4.00072E-001	0.00000E+000	9	...........	1425.87
	45	4.1	4.00492E-001	8.93379E-005	0.00000E+000	4.00072E-001	0.00000E+000	9	...........	1425.87
	46	4.2	4.00493E-001	8.80310E-005	0.00000E+000	4.00072E-001	0.00000E+000	9	...........	1425.87
	47	4.3	4.00508E-001	8.67420E-005	0.00000E+000	4.00072E-001	0.00000E+000	9	...........	1425.87
	48	4.4	4.00488E-001	8.55510E-005	0.00000E+000	4.00072E-001	0.00000E+000	9	...........	1425.60
	49	4.5	4.00509E-001	8.43733E-005	0.00000E+000	4.00072E-001	0.00000E+000	9	...........	1425.60
	50	4.6	4.00496E-001	8.32559E-005	0.00000E+000	4.00072E-001	0.00000E+000	9	...........	1425.60
	51	4.7	4.00514E-001	8.21653E-005	0.00000E+000	4.00072E-001	0.00000E+000	9	...........	1425.60
	52	4.8	4.00504E-001	8.11070E-005	0.00000E+000	4.00072E-001	0.00000E+000	9	...........	1425.60
	53	4.9	4.00478E-001	8.01018E-005	0.00000E+000	4.00072E-001	0.00000E+000	9	...........	1425.60
	54	5	4.00484E-001	7.91126E-005	0.00000E+000	4.00072E-001	0.00000E+000	9	...........	1425.60
	55	5.1	4.00487E-001	7.81561E-005	0.00000E+000	4.00072E-001	0.00000E+000	9	...........	1425.60
	56	5.2	4.00497E-001	7.72008E-005	0.00000E+000	4.00072E-001	0.00000E+000	9	...........	1425.60
	57	5.3	4.00479E-001	7.63106E-005	0.00000E+000	4.00072E-001	0.00000E+000	9	...........	1425.60
	58	5.4	4.00486E-001	7.54055E-005	0.00000E+000	4.00072E-001	0.00000E+000	9	...........	1425.60
	59	5.5	4.00485E-001	7.45739E-005	0.00000E+000	4.00072E-001	0.00000E+000	9	...........	1425.60
	60	5.6	4.00496E-001	7.37721E-005	0.00000E+000	4.00072E-001	0.00000E+000	9	...........	1425.60
	61	5.7	4.00493E-001	7.29750E-005	0.00000E+000	4.00072E-001	0.00000E+000	9	...........	1425.60
	62	5.8	4.00493E-001	7.21394E-005	0.00000E+000	4.00072E-001	0.00000E+000	9	...........	1425.60
	63	5.9	4.00493E-001	7.14060E-005	0.00000E+000	4.00072E-001	0.00000E+000	9	...........	1425.60
	64	6	4.00502E-001	7.06518E-005	0.00000E+000	4.00072E-001	0.00000E+000	9	...........	1425.60
	65	6.1	4.00495E-001	6.99624E-005	0.00000E+000	4.00072E-001	0.00000E+000	9	...........	1425.60
	66	7.1	4.00494E-001	6.36263E-005	0.00000E+000	4.00072E-001	0.00000E+000	9	...........	1425.87
	67	8.1	4.00492E-001	5.85924E-005	0.00000E+000	4.00072E-001	0.00000E+000	9	...........	1426.04
	68	9.1	4.00493E-001	5.44790E-005	0.00000E+000	4.00072E-001	0.00000E+000	9	...........	1426.04
	69	10.1	4.00494E-001	5.10197E-005	0.00000E+000	4.00072E-001	0.00000E+000	9	...........	1426.04
	70	11.1	4.00479E-001	4.79841E-005	0.00000E+000	4.00072E-001	0.00000E+000	9	...........	1426.13
	71	12.1	4.00493E-001	4.53240E-005	0.00000E+000	4.00072E-001	0.00000E+000	9	...........	1426.04
	72	13.1	4.00498E-001	4.29897E-005	0.00000E+000	4.00072E-001	0.00000E+000	9	...........	1426.04
	73	14.1	4.00492E-001	4.10433E-005	0.00000E+000	4.00072E-001	0.00000E+000	9	...........	1426.04
	74	15.1	4.00500E-001	3.93312E-005	0.00000E+000	4.00072E-001	0.00000E+000	9	...........	1425.95
	75	16.1	4.00492E-001	3.77258E-005	0.00000E+000	4.00072E-001	0.00000E+000	9	...........	1426.04
	76	26.1	4.00504E-001	2.80274E-005	0.00000E+000	4.00072E-001	0.00000E+000	9	...........	1426.04
	77	36.1	4.00485E-001	2.39723E-005	0.00000E+000	4.00072E-001	0.00000E+000	9	...........	1426.13
	78	46.1	4.00493E-001	2.15946E-005	0.00000E+000	4.00072E-001	0.00000E+000	9	...........	1426.13
	79	56.1	4.00489E-001	1.96984E-005	0.00000E+000	4.00072E-001	0.00000E+000	9	...........	1426.13
	80	66.1	4.00506E-001	1.88064E-005	0.00000E+000	4.00072E-001	0.00000E+000	9	...........	1426.13
	81	76.1	4.00499E-001	1.79991E-005	0.00000E+000	4.00072E-001	0.00000E+000	9	...........	1426.13
	82	86.1	4.00488E-001	1.71196E-005	0.00000E+000	4.00072E-001	0.00000E+000	9	...........	1426.13
	83	96.1	4.00488E-001	1.68894E-005	0.00000E+000	4.00072E-001	0.00000E+000	9	...........	1426.04
	84	106.1	4.00487E-001	1.65776E-005	0.00000E+000	4.00072E-001	0.00000E+000	9	...........	1426.04
	85	116.1	4.00496E-001	1.61391E-005	0.00000E+000	4.00072E-001	0.00000E+000	9	...........	1426.13
	86	216.1	4.00499E-001	1.45729E-005	0.00000E+000	4.00072E-001	0.00000E+000	9	...........	1426.04
	87	300	4.00507E-001	1.35344E-005	0.00000E+000	4.00072E-001	0.00000E+000	9	...........	1426.04
	88	300.1	3.00451E-001	-3.68236E-004	0.00000E+000	3.00072E-001	0.00000E+000	9	...........	1426.04
	89	300.2	3.00451E-001	-2.74145E-004	0.00000E+000	3.00072E-001	0.00000E+000	9	...........	1426.04
	90	300.3	3.00438E-001	-2.13507E-004	0.00000E+000	3.00072E-001	0.00000E+000	9	...........	1426.04
	91	300.4	3.00447E-001	-1.72352E-004	0.00000E+000	3.00072E-001	0.00000E+000	9	...........	1426.04
	92	300.5	3.00449E-001	-1.43586E-004	0.00000E+000	3.00072E-001	0.00000E+000	9	...........	1426.04
	93	300.6	3.00439E-001	-1.22920E-004	0.00000E+000	3.00072E-001	0.00000E+000	9	...........	1426.04
	94	300.7	3.00451E-001	-1.07655E-004	0.00000E+000	3.00072E-001	0.00000E+000	9	...........	1426.04
	95	300.8	3.00448E-001	-9.60413E-005	0.00000E+000	3.00072E-001	0.00000E+000	9	...........	1426.04
	96	300.9	3.00448E-001	-8.69577E-005	0.00000E+000	3.00072E-001	0.00000E+000	9	...........	1426.04
	97	301	3.00452E-001	-7.96903E-005	0.00000E+000	3.00072E-001	0.00000E+000	9	...........	1426.04
