EXPLAIN
TAG	CHRONOA
TITLE	LABEL	Chronoamperometry Scan	Test Identifier
DATE	LABEL	21/12/2021	Date
TIME	LABEL	16:06:07	Time
NOTES	NOTES	1	Notes...
	
PSTAT	PSTAT	IFC1010-21051	Potentiostat
VPRESTEP	POTEN	-3.00000E-001	F	Pre-step Voltage (V)
TPRESTEP	QUANT	5.00000E-001	Pre-step Delay Time (s)
VSTEP1	POTEN	-4.00000E-001	F	Step 1 Voltage (V)
TSTEP1	QUANT	3.00000E+002	Step 1 Time (s)
VSTEP2	POTEN	-5.00000E-001	F	Step 2 Voltage (V)
TSTEP2	QUANT	1.00000E+000	Step 2 Time (s)
SAMPLETIME	QUANT	1.00000E-001	Sample Period (s)
DECIMATE	TOGGLE	T	Decimate
ILIMIT	QUANT	1.00000E+000	Limit I (mA/cm^2)
IMODE	SELECTOR	1	I/E Range Mode
IRANGE	QUANT	3.00000E-001	Max Current (mA)
EQDELAY	QUANT	5.00000E+000	Equil. Time (s)
SAMPLINGMODE	SELECTOR	1	Sampling Mode
AREA	QUANT	1.00000E+000	Sample Area (cm^2)
IRCOMP	SELECTOR	0	IRComp
PFCOR	QUANT	5.00000E+001	PF Corr. (ohm)
SEQUENCER	TOGGLE	TRUE	Run as Sequence
PSTATMODEL	IQUANT	64	Pstat Model
PSTATSECTION	LABEL	IFC1010-21051	Pstat Section
PSTATSERIALNO	LABEL	21051	Pstat Serial Number
CTRLMODE	IQUANT	1	Control Mode
ELECTROMETER	IQUANT	0	RE=0 or CS=1
IESTAB	IQUANT	0	I/E Stability
CASPEED	IQUANT	4	Control Amp Speed
CONVENTION	IQUANT	1	Current Convention
ICHRANGE	IQUANT	2	Ich Range
ICHRANGEMODE	TOGGLE	T	Ich Auto Range
ICHOFFSETENABLE	TOGGLE	F	Ich Offset Enable
ICHOFFSET	QUANT	0	Ich Offset (V)
ICHFILTER	IQUANT	3	Ich Filter
VCHRANGE	IQUANT	3	Vch Range
VCHRANGEMODE	TOGGLE	T	Vch Auto Range
VCHOFFSETENABLE	TOGGLE	F	Vch Offset Enable
VCHOFFSET	QUANT	0	Vch Offset (V)
VCHFILTER	IQUANT	3	Vch Filter
IERANGELOWERLIMIT	IQUANT	4	I/E Range Lower Limit
IERANGEMODE	TOGGLE	F	I/E AutoRange
IERANGE	IQUANT	9	I/E Range
ACHSELECT	IQUANT	0	Ach Select
ACHRANGE	IQUANT	2	Ach Range
ACHOFFSETENABLE	TOGGLE	F	Ach Offset Enable
ACHOFFSET	QUANT	0	Ach Offset (V)
ACHFILTER	IQUANT	1	Ach Filter
SENSECABLEID	IQUANT	14	Sense Cable ID
PWRCABLEID	IQUANT	14	Power Cable ID
DCCALDATE	LABEL	10/1/2020	DC Calibration Date
ACCALDATE	LABEL	4/2/2018	AC Calibration Date
FRAMEWORKVERSION	QUANT	7.06	Framework Version
INSTRUMENTVERSION	LABEL	4.30	Instrument Version
CURVE	TABLE	98
	Pt	T	Vf	Im	Vu	Sig	Ach	IERange	Over	Temp
	#	s	V vs. Ref.	A	V	V	V	#	bits	deg C
	0	-0.4	-3.00707E-001	-5.21818E-005	0.00000E+000	-3.00011E-001	0.00000E+000	9	...........	1426.13
	1	-0.3	-3.00541E-001	-5.19958E-005	0.00000E+000	-3.00011E-001	0.00000E+000	9	...........	1426.13
	2	-0.2	-3.00544E-001	-5.18084E-005	0.00000E+000	-3.00011E-001	0.00000E+000	9	...........	1426.13
	3	-0.1	-3.00550E-001	-5.16190E-005	0.00000E+000	-3.00011E-001	0.00000E+000	9	...........	1426.13
	4	0	-3.00546E-001	-5.14405E-005	0.00000E+000	-3.00011E-001	0.00000E+000	9	...........	1426.13
	5	0.1	-4.00602E-001	-3.81033E-004	0.00000E+000	-4.00011E-001	0.00000E+000	9	...........	1426.13
	6	0.2	-4.00582E-001	-2.82543E-004	0.00000E+000	-4.00011E-001	0.00000E+000	9	...........	1426.13
	7	0.3	-4.00590E-001	-2.44572E-004	0.00000E+000	-4.00011E-001	0.00000E+000	9	...........	1426.13
	8	0.4	-4.00587E-001	-2.24662E-004	0.00000E+000	-4.00011E-001	0.00000E+000	9	...........	1426.13
	9	0.5	-4.00571E-001	-2.12122E-004	0.00000E+000	-4.00011E-001	0.00000E+000	9	...........	1426.13
	10	0.6	-4.00575E-001	-2.03190E-004	0.00000E+000	-4.00011E-001	0.00000E+000	9	...........	1426.13
	11	0.7	-4.00579E-001	-1.96282E-004	0.00000E+000	-4.00011E-001	0.00000E+000	9	...........	1426.13
	12	0.8	-4.00577E-001	-1.90711E-004	0.00000E+000	-4.00011E-001	0.00000E+000	9	...........	1426.13
	13	0.9	-4.00585E-001	-1.85991E-004	0.00000E+000	-4.00011E-001	0.00000E+000	9	...........	1426.13
	14	1	-4.00588E-001	-1.81947E-004	0.00000E+000	-4.00011E-001	0.00000E+000	9	...........	1426.13
	15	1.1	-4.00579E-001	-1.78389E-004	0.00000E+000	-4.00011E-001	0.00000E+000	9	...........	1426.13
	16	1.2	-4.00581E-001	-1.75241E-004	0.00000E+000	-4.00011E-001	0.00000E+000	9	...........	1426.13
	17	1.3	-4.00570E-001	-1.72320E-004	0.00000E+000	-4.00011E-001	0.00000E+000	9	...........	1426.13
	18	1.4	-4.00586E-001	-1.69794E-004	0.00000E+000	-4.00011E-001	0.00000E+000	9	...........	1426.13
	19	1.5	-4.00591E-001	-1.67378E-004	0.00000E+000	-4.00011E-001	0.00000E+000	9	...........	1426.13
	20	1.6	-4.00589E-001	-1.65193E-004	0.00000E+000	-4.00011E-001	0.00000E+000	9	...........	1426.13
	21	1.7	-4.00592E-001	-1.63143E-004	0.00000E+000	-4.00011E-001	0.00000E+000	9	...........	1426.13
	22	1.8	-4.00592E-001	-1.61267E-004	0.00000E+000	-4.00011E-001	0.00000E+000	9	...........	1426.13
	23	1.9	-4.00591E-001	-1.59456E-004	0.00000E+000	-4.00011E-001	0.00000E+000	9	...........	1426.13
	24	2	-4.00590E-001	-1.57767E-004	0.00000E+000	-4.00011E-001	0.00000E+000	9	...........	1426.13
	25	2.1	-4.00592E-001	-1.56239E-004	0.00000E+000	-4.00011E-001	0.00000E+000	9	...........	1426.13
	26	2.2	-4.00589E-001	-1.54708E-004	0.00000E+000	-4.00011E-001	0.00000E+000	9	...........	1426.13
	27	2.3	-4.00580E-001	-1.53320E-004	0.00000E+000	-4.00011E-001	0.00000E+000	9	...........	1426.13
	28	2.4	-4.00584E-001	-1.51939E-004	0.00000E+000	-4.00011E-001	0.00000E+000	9	...........	1426.13
	29	2.5	-4.00589E-001	-1.50667E-004	0.00000E+000	-4.00011E-001	0.00000E+000	9	...........	1426.13
	30	2.6	-4.00603E-001	-1.49453E-004	0.00000E+000	-4.00011E-001	0.00000E+000	9	...........	1426.13
	31	2.7	-4.00592E-001	-1.48260E-004	0.00000E+000	-4.00011E-001	0.00000E+000	9	...........	1426.13
	32	2.8	-4.00589E-001	-1.47154E-004	0.00000E+000	-4.00011E-001	0.00000E+000	9	...........	1426.13
	33	2.9	-4.00584E-001	-1.46033E-004	0.00000E+000	-4.00011E-001	0.00000E+000	9	...........	1426.13
	34	3	-4.00593E-001	-1.45037E-004	0.00000E+000	-4.00011E-001	0.00000E+000	9	...........	1426.04
	35	3.1	-4.00584E-001	-1.44024E-004	0.00000E+000	-4.00011E-001	0.00000E+000	9	...........	1426.04
	36	3.2	-4.00582E-001	-1.43005E-004	0.00000E+000	-4.00011E-001	0.00000E+000	9	...........	1426.04
	37	3.3	-4.00591E-001	-1.42120E-004	0.00000E+000	-4.00011E-001	0.00000E+000	9	...........	1426.04
	38	3.4	-4.00586E-001	-1.41196E-004	0.00000E+000	-4.00011E-001	0.00000E+000	9	...........	1426.04
	39	3.5	-4.00578E-001	-1.40275E-004	0.00000E+000	-4.00011E-001	0.00000E+000	9	...........	1426.04
	40	3.6	-4.00587E-001	-1.39453E-004	0.00000E+000	-4.00011E-001	0.00000E+000	9	...........	1426.04
	41	3.7	-4.00583E-001	-1.38609E-004	0.00000E+000	-4.00011E-001	0.00000E+000	9	...........	1426.04
	42	3.8	-4.00582E-001	-1.37781E-004	0.00000E+000	-4.00011E-001	0.00000E+000	9	...........	1426.04
	43	3.9	-4.00598E-001	-1.37068E-004	0.00000E+000	-4.00011E-001	0.00000E+000	9	...........	1426.04
	44	4	-4.00590E-001	-1.36296E-004	0.00000E+000	-4.00011E-001	0.00000E+000	9	...........	1426.13
	45	4.1	-4.00589E-001	-1.35541E-004	0.00000E+000	-4.00011E-001	0.00000E+000	9	...........	1426.13
	46	4.2	-4.00588E-001	-1.34813E-004	0.00000E+000	-4.00011E-001	0.00000E+000	9	...........	1426.13
	47	4.3	-4.00593E-001	-1.34099E-004	0.00000E+000	-4.00011E-001	0.00000E+000	9	...........	1426.13
	48	4.4	-4.00589E-001	-1.33391E-004	0.00000E+000	-4.00011E-001	0.00000E+000	9	...........	1426.13
	49	4.5	-4.00588E-001	-1.32715E-004	0.00000E+000	-4.00011E-001	0.00000E+000	9	...........	1426.13
	50	4.6	-4.00599E-001	-1.32079E-004	0.00000E+000	-4.00011E-001	0.00000E+000	9	...........	1426.13
	51	4.7	-4.00608E-001	-1.31451E-004	0.00000E+000	-4.00011E-001	0.00000E+000	9	...........	1426.13
	52	4.8	-4.00606E-001	-1.30829E-004	0.00000E+000	-4.00011E-001	0.00000E+000	9	...........	1426.13
	53	4.9	-4.00579E-001	-1.30204E-004	0.00000E+000	-4.00011E-001	0.00000E+000	9	...........	1426.13
	54	5	-4.00582E-001	-1.29638E-004	0.00000E+000	-4.00011E-001	0.00000E+000	9	...........	1426.13
	55	5.1	-4.00588E-001	-1.29076E-004	0.00000E+000	-4.00011E-001	0.00000E+000	9	...........	1426.13
	56	5.2	-4.00586E-001	-1.28481E-004	0.00000E+000	-4.00011E-001	0.00000E+000	9	...........	1426.13
	57	5.3	-4.00582E-001	-1.27920E-004	0.00000E+000	-4.00011E-001	0.00000E+000	9	...........	1426.13
	58	5.4	-4.00571E-001	-1.27381E-004	0.00000E+000	-4.00011E-001	0.00000E+000	9	...........	1426.13
	59	5.5	-4.00575E-001	-1.26806E-004	0.00000E+000	-4.00011E-001	0.00000E+000	9	...........	1426.13
	60	5.6	-4.00593E-001	-1.26355E-004	0.00000E+000	-4.00011E-001	0.00000E+000	9	...........	1426.13
	61	5.7	-4.00586E-001	-1.25786E-004	0.00000E+000	-4.00011E-001	0.00000E+000	9	...........	1426.13
	62	5.8	-4.00601E-001	-1.25337E-004	0.00000E+000	-4.00011E-001	0.00000E+000	9	...........	1426.13
	63	5.9	-4.00586E-001	-1.24829E-004	0.00000E+000	-4.00011E-001	0.00000E+000	9	...........	1426.13
	64	6	-4.00579E-001	-1.24333E-004	0.00000E+000	-4.00011E-001	0.00000E+000	9	...........	1426.13
	65	6.1	-4.00582E-001	-1.23847E-004	0.00000E+000	-4.00011E-001	0.00000E+000	9	...........	1426.13
	66	7.1	-4.00596E-001	-1.19568E-004	0.00000E+000	-4.00011E-001	0.00000E+000	9	...........	1426.13
	67	8.1	-4.00582E-001	-1.15993E-004	0.00000E+000	-4.00011E-001	0.00000E+000	9	...........	1426.13
	68	9.1	-4.00602E-001	-1.12902E-004	0.00000E+000	-4.00011E-001	0.00000E+000	9	...........	1426.13
	69	10.1	-4.00586E-001	-1.10182E-004	0.00000E+000	-4.00011E-001	0.00000E+000	9	...........	1426.13
	70	11.1	-4.00589E-001	-1.07715E-004	0.00000E+000	-4.00011E-001	0.00000E+000	9	...........	1426.13
	71	12.1	-4.00586E-001	-1.05459E-004	0.00000E+000	-4.00011E-001	0.00000E+000	9	...........	1426.22
	72	13.1	-4.00591E-001	-1.03400E-004	0.00000E+000	-4.00011E-001	0.00000E+000	9	...........	1426.13
	73	14.1	-4.00577E-001	-1.01493E-004	0.00000E+000	-4.00011E-001	0.00000E+000	9	...........	1426.13
	74	15.1	-4.00592E-001	-9.98561E-005	0.00000E+000	-4.00011E-001	0.00000E+000	9	...........	1426.22
	75	16.1	-4.00587E-001	-9.82501E-005	0.00000E+000	-4.00011E-001	0.00000E+000	9	...........	1426.13
	76	26.1	-4.00593E-001	-8.64521E-005	0.00000E+000	-4.00011E-001	0.00000E+000	9	...........	1426.22
	77	36.1	-4.00585E-001	-7.98187E-005	0.00000E+000	-4.00011E-001	0.00000E+000	9	...........	1426.22
	78	46.1	-4.00578E-001	-7.47618E-005	0.00000E+000	-4.00011E-001	0.00000E+000	9	...........	1426.22
	79	56.1	-4.00597E-001	-7.18159E-005	0.00000E+000	-4.00011E-001	0.00000E+000	9	...........	1426.22
	80	66.1	-4.00587E-001	-6.87212E-005	0.00000E+000	-4.00011E-001	0.00000E+000	9	...........	1426.22
	81	76.1	-4.00586E-001	-6.68972E-005	0.00000E+000	-4.00011E-001	0.00000E+000	9	...........	1426.22
	82	86.1	-4.00585E-001	-6.49198E-005	0.00000E+000	-4.00011E-001	0.00000E+000	9	...........	1426.22
	83	96.1	-4.00589E-001	-6.34097E-005	0.00000E+000	-4.00011E-001	0.00000E+000	9	...........	1426.22
	84	106.1	-4.00581E-001	-6.24579E-005	0.00000E+000	-4.00011E-001	0.00000E+000	9	...........	1426.22
	85	116.1	-4.00585E-001	-6.14140E-005	0.00000E+000	-4.00011E-001	0.00000E+000	9	...........	1426.22
	86	216.1	-4.00594E-001	-5.60245E-005	0.00000E+000	-4.00011E-001	0.00000E+000	9	...........	1426.22
	87	300	-4.00581E-001	-5.42478E-005	0.00000E+000	-4.00011E-001	0.00000E+000	9	...........	1426.31
	88	300.1	-5.00596E-001	-3.91165E-004	0.00000E+000	-5.00010E-001	0.00000E+000	9	...........	1426.31
	89	300.2	-5.00590E-001	-2.80960E-004	0.00000E+000	-5.00010E-001	0.00000E+000	9	...........	1426.31
	90	300.3	-5.00585E-001	-2.41967E-004	0.00000E+000	-5.00010E-001	0.00000E+000	9	...........	1426.31
	91	300.4	-5.00589E-001	-2.25044E-004	0.00000E+000	-5.00010E-001	0.00000E+000	9	...........	1426.31
	92	300.5	-5.00591E-001	-2.16011E-004	0.00000E+000	-5.00010E-001	0.00000E+000	9	...........	1426.31
	93	300.6	-5.00601E-001	-2.10257E-004	0.00000E+000	-5.00010E-001	0.00000E+000	9	...........	1426.31
	94	300.7	-5.00597E-001	-2.05997E-004	0.00000E+000	-5.00010E-001	0.00000E+000	9	...........	1426.31
	95	300.8	-5.00601E-001	-2.02611E-004	0.00000E+000	-5.00010E-001	0.00000E+000	9	...........	1426.31
	96	300.9	-5.00595E-001	-1.99728E-004	0.00000E+000	-5.00010E-001	0.00000E+000	9	...........	1426.31
	97	301	-5.00591E-001	-1.97185E-004	0.00000E+000	-5.00010E-001	0.00000E+000	9	...........	1426.22
