EXPLAIN
TAG	CHRONOA
TITLE	LABEL	Chronoamperometry Scan	Test Identifier
DATE	LABEL	21/12/2021	Date
TIME	LABEL	11:44:24	Time
NOTES	NOTES	1	Notes...
	
PSTAT	PSTAT	IFC1010-21051	Potentiostat
VPRESTEP	POTEN	3.00000E-001	F	Pre-step Voltage (V)
TPRESTEP	QUANT	5.00000E-001	Pre-step Delay Time (s)
VSTEP1	POTEN	4.00000E-001	F	Step 1 Voltage (V)
TSTEP1	QUANT	3.00000E+002	Step 1 Time (s)
VSTEP2	POTEN	3.00000E-001	F	Step 2 Voltage (V)
TSTEP2	QUANT	1.00000E+000	Step 2 Time (s)
SAMPLETIME	QUANT	1.00000E-001	Sample Period (s)
DECIMATE	TOGGLE	T	Decimate
ILIMIT	QUANT	1.00000E+000	Limit I (mA/cm^2)
IMODE	SELECTOR	1	I/E Range Mode
IRANGE	QUANT	3.00000E-001	Max Current (mA)
EQDELAY	QUANT	5.00000E+000	Equil. Time (s)
SAMPLINGMODE	SELECTOR	1	Sampling Mode
AREA	QUANT	1.00000E+000	Sample Area (cm^2)
IRCOMP	SELECTOR	0	IRComp
PFCOR	QUANT	5.00000E+001	PF Corr. (ohm)
SEQUENCER	TOGGLE	TRUE	Run as Sequence
PSTATMODEL	IQUANT	64	Pstat Model
PSTATSECTION	LABEL	IFC1010-21051	Pstat Section
PSTATSERIALNO	LABEL	21051	Pstat Serial Number
CTRLMODE	IQUANT	1	Control Mode
ELECTROMETER	IQUANT	0	RE=0 or CS=1
IESTAB	IQUANT	0	I/E Stability
CASPEED	IQUANT	4	Control Amp Speed
CONVENTION	IQUANT	1	Current Convention
ICHRANGE	IQUANT	2	Ich Range
ICHRANGEMODE	TOGGLE	T	Ich Auto Range
ICHOFFSETENABLE	TOGGLE	F	Ich Offset Enable
ICHOFFSET	QUANT	0	Ich Offset (V)
ICHFILTER	IQUANT	3	Ich Filter
VCHRANGE	IQUANT	3	Vch Range
VCHRANGEMODE	TOGGLE	T	Vch Auto Range
VCHOFFSETENABLE	TOGGLE	F	Vch Offset Enable
VCHOFFSET	QUANT	0	Vch Offset (V)
VCHFILTER	IQUANT	3	Vch Filter
IERANGELOWERLIMIT	IQUANT	4	I/E Range Lower Limit
IERANGEMODE	TOGGLE	F	I/E AutoRange
IERANGE	IQUANT	9	I/E Range
ACHSELECT	IQUANT	0	Ach Select
ACHRANGE	IQUANT	2	Ach Range
ACHOFFSETENABLE	TOGGLE	F	Ach Offset Enable
ACHOFFSET	QUANT	0	Ach Offset (V)
ACHFILTER	IQUANT	1	Ach Filter
SENSECABLEID	IQUANT	14	Sense Cable ID
PWRCABLEID	IQUANT	14	Power Cable ID
DCCALDATE	LABEL	10/1/2020	DC Calibration Date
ACCALDATE	LABEL	4/2/2018	AC Calibration Date
FRAMEWORKVERSION	QUANT	7.06	Framework Version
INSTRUMENTVERSION	LABEL	4.30	Instrument Version
CURVE	TABLE	98
	Pt	T	Vf	Im	Vu	Sig	Ach	IERange	Over	Temp
	#	s	V vs. Ref.	A	V	V	V	#	bits	deg C
	0	-0.4	3.00176E-001	5.13333E-006	0.00000E+000	3.00072E-001	0.00000E+000	9	...........	1425.69
	1	-0.3	3.00459E-001	5.08454E-006	0.00000E+000	3.00072E-001	0.00000E+000	9	...........	1425.69
	2	-0.2	3.00458E-001	5.05058E-006	0.00000E+000	3.00072E-001	0.00000E+000	9	...........	1425.69
	3	-0.1	3.00460E-001	4.98227E-006	0.00000E+000	3.00072E-001	0.00000E+000	9	...........	1425.69
	4	0	3.00467E-001	4.94186E-006	0.00000E+000	3.00072E-001	0.00000E+000	9	...........	1425.69
	5	0.1	4.00504E-001	3.50421E-004	0.00000E+000	4.00072E-001	0.00000E+000	9	...........	1425.69
	6	0.2	4.00510E-001	2.76838E-004	0.00000E+000	4.00072E-001	0.00000E+000	9	...........	1425.69
	7	0.3	4.00508E-001	2.35321E-004	0.00000E+000	4.00072E-001	0.00000E+000	9	...........	1425.69
	8	0.4	4.00497E-001	2.07003E-004	0.00000E+000	4.00072E-001	0.00000E+000	9	...........	1425.69
	9	0.5	4.00502E-001	1.85970E-004	0.00000E+000	4.00072E-001	0.00000E+000	9	...........	1425.69
	10	0.6	4.00507E-001	1.69726E-004	0.00000E+000	4.00072E-001	0.00000E+000	9	...........	1425.69
	11	0.7	4.00506E-001	1.56759E-004	0.00000E+000	4.00072E-001	0.00000E+000	9	...........	1425.69
	12	0.8	4.00524E-001	1.46043E-004	0.00000E+000	4.00072E-001	0.00000E+000	9	...........	1425.69
	13	0.9	4.00504E-001	1.37149E-004	0.00000E+000	4.00072E-001	0.00000E+000	9	...........	1425.69
	14	1	4.00512E-001	1.29484E-004	0.00000E+000	4.00072E-001	0.00000E+000	9	...........	1425.69
	15	1.1	4.00525E-001	1.22859E-004	0.00000E+000	4.00072E-001	0.00000E+000	9	...........	1425.69
	16	1.2	4.00515E-001	1.17039E-004	0.00000E+000	4.00072E-001	0.00000E+000	9	...........	1425.69
	17	1.3	4.00516E-001	1.11876E-004	0.00000E+000	4.00072E-001	0.00000E+000	9	...........	1425.69
	18	1.4	4.00518E-001	1.07206E-004	0.00000E+000	4.00072E-001	0.00000E+000	9	...........	1425.69
	19	1.5	4.00496E-001	1.02992E-004	0.00000E+000	4.00072E-001	0.00000E+000	9	...........	1425.69
	20	1.6	4.00510E-001	9.91400E-005	0.00000E+000	4.00072E-001	0.00000E+000	9	...........	1425.60
	21	1.7	4.00496E-001	9.56184E-005	0.00000E+000	4.00072E-001	0.00000E+000	9	...........	1425.60
	22	1.8	4.00511E-001	9.23632E-005	0.00000E+000	4.00072E-001	0.00000E+000	9	...........	1425.60
	23	1.9	4.00502E-001	8.93265E-005	0.00000E+000	4.00072E-001	0.00000E+000	9	...........	1425.60
	24	2	4.00508E-001	8.64747E-005	0.00000E+000	4.00072E-001	0.00000E+000	9	...........	1425.60
	25	2.1	4.00505E-001	8.38243E-005	0.00000E+000	4.00072E-001	0.00000E+000	9	...........	1425.60
	26	2.2	4.00506E-001	8.13073E-005	0.00000E+000	4.00072E-001	0.00000E+000	9	...........	1425.60
	27	2.3	4.00508E-001	7.89418E-005	0.00000E+000	4.00072E-001	0.00000E+000	9	...........	1425.60
	28	2.4	4.00502E-001	7.67505E-005	0.00000E+000	4.00072E-001	0.00000E+000	9	...........	1425.60
	29	2.5	4.00505E-001	7.46423E-005	0.00000E+000	4.00072E-001	0.00000E+000	9	...........	1425.60
	30	2.6	4.00506E-001	7.26600E-005	0.00000E+000	4.00072E-001	0.00000E+000	9	...........	1425.60
	31	2.7	4.00509E-001	7.07383E-005	0.00000E+000	4.00072E-001	0.00000E+000	9	...........	1425.60
	32	2.8	4.00503E-001	6.89760E-005	0.00000E+000	4.00072E-001	0.00000E+000	9	...........	1425.60
	33	2.9	4.00497E-001	6.72855E-005	0.00000E+000	4.00072E-001	0.00000E+000	9	...........	1425.60
	34	3	4.00497E-001	6.56525E-005	0.00000E+000	4.00072E-001	0.00000E+000	9	...........	1425.60
	35	3.1	4.00509E-001	6.40991E-005	0.00000E+000	4.00072E-001	0.00000E+000	9	...........	1425.60
	36	3.2	4.00506E-001	6.26718E-005	0.00000E+000	4.00072E-001	0.00000E+000	9	...........	1425.60
	37	3.3	4.00509E-001	6.12759E-005	0.00000E+000	4.00072E-001	0.00000E+000	9	...........	1425.60
	38	3.4	4.00511E-001	5.99093E-005	0.00000E+000	4.00072E-001	0.00000E+000	9	...........	1425.60
	39	3.5	4.00507E-001	5.86476E-005	0.00000E+000	4.00072E-001	0.00000E+000	9	...........	1425.60
	40	3.6	4.00504E-001	5.73962E-005	0.00000E+000	4.00072E-001	0.00000E+000	9	...........	1425.60
	41	3.7	4.00501E-001	5.62557E-005	0.00000E+000	4.00072E-001	0.00000E+000	9	...........	1425.60
	42	3.8	4.00511E-001	5.50871E-005	0.00000E+000	4.00072E-001	0.00000E+000	9	...........	1425.60
	43	3.9	4.00506E-001	5.40125E-005	0.00000E+000	4.00072E-001	0.00000E+000	9	...........	1425.60
	44	4	4.00502E-001	5.29859E-005	0.00000E+000	4.00072E-001	0.00000E+000	9	...........	1425.60
	45	4.1	4.00495E-001	5.19778E-005	0.00000E+000	4.00072E-001	0.00000E+000	9	...........	1425.60
	46	4.2	4.00499E-001	5.10439E-005	0.00000E+000	4.00072E-001	0.00000E+000	9	...........	1425.60
	47	4.3	4.00505E-001	5.01106E-005	0.00000E+000	4.00072E-001	0.00000E+000	9	...........	1425.60
	48	4.4	4.00501E-001	4.92133E-005	0.00000E+000	4.00072E-001	0.00000E+000	9	...........	1425.60
	49	4.5	4.00505E-001	4.83423E-005	0.00000E+000	4.00072E-001	0.00000E+000	9	...........	1425.60
	50	4.6	4.00510E-001	4.74931E-005	0.00000E+000	4.00072E-001	0.00000E+000	9	...........	1425.42
	51	4.7	4.00511E-001	4.66848E-005	0.00000E+000	4.00072E-001	0.00000E+000	9	...........	1425.42
	52	4.8	4.00529E-001	4.58884E-005	0.00000E+000	4.00072E-001	0.00000E+000	9	...........	1425.42
	53	4.9	4.00510E-001	4.51848E-005	0.00000E+000	4.00072E-001	0.00000E+000	9	...........	1425.42
	54	5	4.00505E-001	4.44061E-005	0.00000E+000	4.00072E-001	0.00000E+000	9	...........	1425.42
	55	5.1	4.00506E-001	4.37523E-005	0.00000E+000	4.00072E-001	0.00000E+000	9	...........	1425.42
	56	5.2	4.00507E-001	4.30695E-005	0.00000E+000	4.00072E-001	0.00000E+000	9	...........	1425.42
	57	5.3	4.00503E-001	4.24094E-005	0.00000E+000	4.00072E-001	0.00000E+000	9	...........	1425.42
	58	5.4	4.00499E-001	4.17491E-005	0.00000E+000	4.00072E-001	0.00000E+000	9	...........	1425.42
	59	5.5	4.00513E-001	4.11543E-005	0.00000E+000	4.00072E-001	0.00000E+000	9	...........	1425.42
	60	5.6	4.00512E-001	4.05735E-005	0.00000E+000	4.00072E-001	0.00000E+000	9	...........	1425.60
	61	5.7	4.00510E-001	3.99890E-005	0.00000E+000	4.00072E-001	0.00000E+000	9	...........	1425.60
	62	5.8	4.00502E-001	3.94468E-005	0.00000E+000	4.00072E-001	0.00000E+000	9	...........	1425.60
	63	5.9	4.00501E-001	3.88873E-005	0.00000E+000	4.00072E-001	0.00000E+000	9	...........	1425.60
	64	6	4.00510E-001	3.83650E-005	0.00000E+000	4.00072E-001	0.00000E+000	9	...........	1425.60
	65	6.1	4.00503E-001	3.78938E-005	0.00000E+000	4.00072E-001	0.00000E+000	9	...........	1425.60
	66	7.1	4.00511E-001	3.36998E-005	0.00000E+000	4.00072E-001	0.00000E+000	9	...........	1425.60
	67	8.1	4.00509E-001	3.06513E-005	0.00000E+000	4.00072E-001	0.00000E+000	9	...........	1425.60
	68	9.1	4.00516E-001	2.83262E-005	0.00000E+000	4.00072E-001	0.00000E+000	9	...........	1425.69
	69	10.1	4.00507E-001	2.64860E-005	0.00000E+000	4.00072E-001	0.00000E+000	9	...........	1425.69
	70	11.1	4.00512E-001	2.49462E-005	0.00000E+000	4.00072E-001	0.00000E+000	9	...........	1425.69
	71	12.1	4.00508E-001	2.36477E-005	0.00000E+000	4.00072E-001	0.00000E+000	9	...........	1425.60
	72	13.1	4.00506E-001	2.25634E-005	0.00000E+000	4.00072E-001	0.00000E+000	9	...........	1425.69
	73	14.1	4.00518E-001	2.16120E-005	0.00000E+000	4.00072E-001	0.00000E+000	9	...........	1425.69
	74	15.1	4.00509E-001	2.08004E-005	0.00000E+000	4.00072E-001	0.00000E+000	9	...........	1425.69
	75	16.1	4.00509E-001	2.00965E-005	0.00000E+000	4.00072E-001	0.00000E+000	9	...........	1425.69
	76	26.1	4.00501E-001	1.56510E-005	0.00000E+000	4.00072E-001	0.00000E+000	9	...........	1425.69
	77	36.1	4.00523E-001	1.37491E-005	0.00000E+000	4.00072E-001	0.00000E+000	9	...........	1425.69
	78	46.1	4.00500E-001	1.23483E-005	0.00000E+000	4.00072E-001	0.00000E+000	9	...........	1425.69
	79	56.1	4.00504E-001	1.15662E-005	0.00000E+000	4.00072E-001	0.00000E+000	9	...........	1425.60
	80	66.1	4.00509E-001	1.11118E-005	0.00000E+000	4.00072E-001	0.00000E+000	9	...........	1425.69
	81	76.1	4.00512E-001	1.07815E-005	0.00000E+000	4.00072E-001	0.00000E+000	9	...........	1425.69
	82	86.1	4.00503E-001	1.04209E-005	0.00000E+000	4.00072E-001	0.00000E+000	9	...........	1425.69
	83	96.1	4.00514E-001	9.96812E-006	0.00000E+000	4.00072E-001	0.00000E+000	9	...........	1425.69
	84	106.1	4.00516E-001	9.93939E-006	0.00000E+000	4.00072E-001	0.00000E+000	9	...........	1425.69
	85	116.1	4.00506E-001	9.91366E-006	0.00000E+000	4.00072E-001	0.00000E+000	9	...........	1425.69
	86	216.1	4.00504E-001	9.24774E-006	0.00000E+000	4.00072E-001	0.00000E+000	9	...........	1425.60
	87	300	4.00505E-001	8.94533E-006	0.00000E+000	4.00072E-001	0.00000E+000	9	...........	1425.69
	88	300.1	3.00465E-001	-3.33207E-004	0.00000E+000	3.00072E-001	0.00000E+000	9	...........	1425.69
	89	300.2	3.00459E-001	-2.36458E-004	0.00000E+000	3.00072E-001	0.00000E+000	9	...........	1425.69
	90	300.3	3.00457E-001	-1.77536E-004	0.00000E+000	3.00072E-001	0.00000E+000	9	...........	1425.69
	91	300.4	3.00467E-001	-1.39151E-004	0.00000E+000	3.00072E-001	0.00000E+000	9	...........	1425.69
	92	300.5	3.00465E-001	-1.13200E-004	0.00000E+000	3.00072E-001	0.00000E+000	9	...........	1425.69
	93	300.6	3.00458E-001	-9.50846E-005	0.00000E+000	3.00072E-001	0.00000E+000	9	...........	1425.69
	94	300.7	3.00455E-001	-8.20501E-005	0.00000E+000	3.00072E-001	0.00000E+000	9	...........	1425.69
	95	300.8	3.00450E-001	-7.23404E-005	0.00000E+000	3.00072E-001	0.00000E+000	9	...........	1425.69
	96	300.9	3.00461E-001	-6.49364E-005	0.00000E+000	3.00072E-001	0.00000E+000	9	...........	1425.69
	97	301	3.00458E-001	-5.90850E-005	0.00000E+000	3.00072E-001	0.00000E+000	9	...........	1425.69
