EXPLAIN
TAG	CHRONOA
TITLE	LABEL	Chronoamperometry Scan	Test Identifier
DATE	LABEL	21/12/2021	Date
TIME	LABEL	15:24:25	Time
NOTES	NOTES	1	Notes...
	
PSTAT	PSTAT	IFC1010-21051	Potentiostat
VPRESTEP	POTEN	-3.00000E-001	F	Pre-step Voltage (V)
TPRESTEP	QUANT	5.00000E-001	Pre-step Delay Time (s)
VSTEP1	POTEN	-4.00000E-001	F	Step 1 Voltage (V)
TSTEP1	QUANT	3.00000E+002	Step 1 Time (s)
VSTEP2	POTEN	-5.00000E-001	F	Step 2 Voltage (V)
TSTEP2	QUANT	1.00000E+000	Step 2 Time (s)
SAMPLETIME	QUANT	1.00000E-001	Sample Period (s)
DECIMATE	TOGGLE	T	Decimate
ILIMIT	QUANT	1.00000E+000	Limit I (mA/cm^2)
IMODE	SELECTOR	1	I/E Range Mode
IRANGE	QUANT	3.00000E-001	Max Current (mA)
EQDELAY	QUANT	5.00000E+000	Equil. Time (s)
SAMPLINGMODE	SELECTOR	1	Sampling Mode
AREA	QUANT	1.00000E+000	Sample Area (cm^2)
IRCOMP	SELECTOR	0	IRComp
PFCOR	QUANT	5.00000E+001	PF Corr. (ohm)
SEQUENCER	TOGGLE	TRUE	Run as Sequence
PSTATMODEL	IQUANT	64	Pstat Model
PSTATSECTION	LABEL	IFC1010-21051	Pstat Section
PSTATSERIALNO	LABEL	21051	Pstat Serial Number
CTRLMODE	IQUANT	1	Control Mode
ELECTROMETER	IQUANT	0	RE=0 or CS=1
IESTAB	IQUANT	0	I/E Stability
CASPEED	IQUANT	4	Control Amp Speed
CONVENTION	IQUANT	1	Current Convention
ICHRANGE	IQUANT	2	Ich Range
ICHRANGEMODE	TOGGLE	T	Ich Auto Range
ICHOFFSETENABLE	TOGGLE	F	Ich Offset Enable
ICHOFFSET	QUANT	0	Ich Offset (V)
ICHFILTER	IQUANT	3	Ich Filter
VCHRANGE	IQUANT	3	Vch Range
VCHRANGEMODE	TOGGLE	T	Vch Auto Range
VCHOFFSETENABLE	TOGGLE	F	Vch Offset Enable
VCHOFFSET	QUANT	0	Vch Offset (V)
VCHFILTER	IQUANT	3	Vch Filter
IERANGELOWERLIMIT	IQUANT	4	I/E Range Lower Limit
IERANGEMODE	TOGGLE	F	I/E AutoRange
IERANGE	IQUANT	9	I/E Range
ACHSELECT	IQUANT	0	Ach Select
ACHRANGE	IQUANT	2	Ach Range
ACHOFFSETENABLE	TOGGLE	F	Ach Offset Enable
ACHOFFSET	QUANT	0	Ach Offset (V)
ACHFILTER	IQUANT	1	Ach Filter
SENSECABLEID	IQUANT	14	Sense Cable ID
PWRCABLEID	IQUANT	14	Power Cable ID
DCCALDATE	LABEL	10/1/2020	DC Calibration Date
ACCALDATE	LABEL	4/2/2018	AC Calibration Date
FRAMEWORKVERSION	QUANT	7.06	Framework Version
INSTRUMENTVERSION	LABEL	4.30	Instrument Version
CURVE	TABLE	98
	Pt	T	Vf	Im	Vu	Sig	Ach	IERange	Over	Temp
	#	s	V vs. Ref.	A	V	V	V	#	bits	deg C
	0	-0.4	-3.00710E-001	-4.20058E-005	0.00000E+000	-3.00011E-001	0.00000E+000	9	...........	1426.13
	1	-0.3	-3.00542E-001	-4.19059E-005	0.00000E+000	-3.00011E-001	0.00000E+000	9	...........	1426.13
	2	-0.2	-3.00539E-001	-4.18029E-005	0.00000E+000	-3.00011E-001	0.00000E+000	9	...........	1426.13
	3	-0.1	-3.00525E-001	-4.16959E-005	0.00000E+000	-3.00011E-001	0.00000E+000	9	...........	1426.13
	4	0	-3.00535E-001	-4.16087E-005	0.00000E+000	-3.00011E-001	0.00000E+000	9	...........	1426.13
	5	0.1	-4.00576E-001	-3.34072E-004	0.00000E+000	-4.00011E-001	0.00000E+000	9	...........	1426.13
	6	0.2	-4.00584E-001	-2.43729E-004	0.00000E+000	-4.00011E-001	0.00000E+000	9	...........	1426.13
	7	0.3	-4.00591E-001	-2.09655E-004	0.00000E+000	-4.00011E-001	0.00000E+000	9	...........	1426.13
	8	0.4	-4.00581E-001	-1.92276E-004	0.00000E+000	-4.00011E-001	0.00000E+000	9	...........	1426.13
	9	0.5	-4.00576E-001	-1.81532E-004	0.00000E+000	-4.00011E-001	0.00000E+000	9	...........	1426.13
	10	0.6	-4.00578E-001	-1.74058E-004	0.00000E+000	-4.00011E-001	0.00000E+000	9	...........	1426.13
	11	0.7	-4.00590E-001	-1.68347E-004	0.00000E+000	-4.00011E-001	0.00000E+000	9	...........	1426.13
	12	0.8	-4.00579E-001	-1.63748E-004	0.00000E+000	-4.00011E-001	0.00000E+000	9	...........	1426.13
	13	0.9	-4.00576E-001	-1.59925E-004	0.00000E+000	-4.00011E-001	0.00000E+000	9	...........	1426.13
	14	1	-4.00587E-001	-1.56685E-004	0.00000E+000	-4.00011E-001	0.00000E+000	9	...........	1426.13
	15	1.1	-4.00589E-001	-1.53824E-004	0.00000E+000	-4.00011E-001	0.00000E+000	9	...........	1426.13
	16	1.2	-4.00588E-001	-1.51263E-004	0.00000E+000	-4.00011E-001	0.00000E+000	9	...........	1426.13
	17	1.3	-4.00592E-001	-1.48978E-004	0.00000E+000	-4.00011E-001	0.00000E+000	9	...........	1426.13
	18	1.4	-4.00592E-001	-1.46886E-004	0.00000E+000	-4.00011E-001	0.00000E+000	9	...........	1426.13
	19	1.5	-4.00601E-001	-1.45009E-004	0.00000E+000	-4.00011E-001	0.00000E+000	9	...........	1425.60
	20	1.6	-4.00588E-001	-1.43252E-004	0.00000E+000	-4.00011E-001	0.00000E+000	9	...........	1425.60
	21	1.7	-4.00583E-001	-1.41607E-004	0.00000E+000	-4.00011E-001	0.00000E+000	9	...........	1425.60
	22	1.8	-4.00574E-001	-1.40048E-004	0.00000E+000	-4.00011E-001	0.00000E+000	9	...........	1425.60
	23	1.9	-4.00581E-001	-1.38641E-004	0.00000E+000	-4.00011E-001	0.00000E+000	9	...........	1425.60
	24	2	-4.00580E-001	-1.37273E-004	0.00000E+000	-4.00011E-001	0.00000E+000	9	...........	1425.60
	25	2.1	-4.00590E-001	-1.36040E-004	0.00000E+000	-4.00011E-001	0.00000E+000	9	...........	1425.60
	26	2.2	-4.00580E-001	-1.34854E-004	0.00000E+000	-4.00011E-001	0.00000E+000	9	...........	1425.60
	27	2.3	-4.00584E-001	-1.33704E-004	0.00000E+000	-4.00011E-001	0.00000E+000	9	...........	1425.60
	28	2.4	-4.00587E-001	-1.32593E-004	0.00000E+000	-4.00011E-001	0.00000E+000	9	...........	1425.60
	29	2.5	-4.00586E-001	-1.31542E-004	0.00000E+000	-4.00011E-001	0.00000E+000	9	...........	1425.78
	30	2.6	-4.00599E-001	-1.30593E-004	0.00000E+000	-4.00011E-001	0.00000E+000	9	...........	1425.78
	31	2.7	-4.00593E-001	-1.29621E-004	0.00000E+000	-4.00011E-001	0.00000E+000	9	...........	1425.78
	32	2.8	-4.00584E-001	-1.28719E-004	0.00000E+000	-4.00011E-001	0.00000E+000	9	...........	1425.78
	33	2.9	-4.00586E-001	-1.27780E-004	0.00000E+000	-4.00011E-001	0.00000E+000	9	...........	1425.78
	34	3	-4.00587E-001	-1.26968E-004	0.00000E+000	-4.00011E-001	0.00000E+000	9	...........	1425.78
	35	3.1	-4.00581E-001	-1.26168E-004	0.00000E+000	-4.00011E-001	0.00000E+000	9	...........	1425.78
	36	3.2	-4.00587E-001	-1.25365E-004	0.00000E+000	-4.00011E-001	0.00000E+000	9	...........	1425.78
	37	3.3	-4.00587E-001	-1.24578E-004	0.00000E+000	-4.00011E-001	0.00000E+000	9	...........	1425.78
	38	3.4	-4.00580E-001	-1.23836E-004	0.00000E+000	-4.00011E-001	0.00000E+000	9	...........	1425.78
	39	3.5	-4.00578E-001	-1.23107E-004	0.00000E+000	-4.00011E-001	0.00000E+000	9	...........	1425.60
	40	3.6	-4.00571E-001	-1.22403E-004	0.00000E+000	-4.00011E-001	0.00000E+000	9	...........	1425.60
	41	3.7	-4.00587E-001	-1.21784E-004	0.00000E+000	-4.00011E-001	0.00000E+000	9	...........	1425.60
	42	3.8	-4.00586E-001	-1.21094E-004	0.00000E+000	-4.00011E-001	0.00000E+000	9	...........	1425.60
	43	3.9	-4.00574E-001	-1.20452E-004	0.00000E+000	-4.00011E-001	0.00000E+000	9	...........	1425.60
	44	4	-4.00580E-001	-1.19841E-004	0.00000E+000	-4.00011E-001	0.00000E+000	9	...........	1425.60
	45	4.1	-4.00576E-001	-1.19205E-004	0.00000E+000	-4.00011E-001	0.00000E+000	9	...........	1425.60
	46	4.2	-4.00581E-001	-1.18637E-004	0.00000E+000	-4.00011E-001	0.00000E+000	9	...........	1425.60
	47	4.3	-4.00571E-001	-1.18043E-004	0.00000E+000	-4.00011E-001	0.00000E+000	9	...........	1425.60
	48	4.4	-4.00584E-001	-1.17499E-004	0.00000E+000	-4.00011E-001	0.00000E+000	9	...........	1425.60
	49	4.5	-4.00581E-001	-1.16963E-004	0.00000E+000	-4.00011E-001	0.00000E+000	9	...........	1425.95
	50	4.6	-4.00579E-001	-1.16422E-004	0.00000E+000	-4.00011E-001	0.00000E+000	9	...........	1425.95
	51	4.7	-4.00578E-001	-1.15900E-004	0.00000E+000	-4.00011E-001	0.00000E+000	9	...........	1425.95
	52	4.8	-4.00575E-001	-1.15370E-004	0.00000E+000	-4.00011E-001	0.00000E+000	9	...........	1425.95
	53	4.9	-4.00582E-001	-1.14885E-004	0.00000E+000	-4.00011E-001	0.00000E+000	9	...........	1425.95
	54	5	-4.00576E-001	-1.14382E-004	0.00000E+000	-4.00011E-001	0.00000E+000	9	...........	1425.95
	55	5.1	-4.00596E-001	-1.13912E-004	0.00000E+000	-4.00011E-001	0.00000E+000	9	...........	1425.95
	56	5.2	-4.00600E-001	-1.13446E-004	0.00000E+000	-4.00011E-001	0.00000E+000	9	...........	1425.95
	57	5.3	-4.00585E-001	-1.12978E-004	0.00000E+000	-4.00011E-001	0.00000E+000	9	...........	1425.95
	58	5.4	-4.00577E-001	-1.12518E-004	0.00000E+000	-4.00011E-001	0.00000E+000	9	...........	1425.95
	59	5.5	-4.00582E-001	-1.12120E-004	0.00000E+000	-4.00011E-001	0.00000E+000	9	...........	1425.60
	60	5.6	-4.00580E-001	-1.11648E-004	0.00000E+000	-4.00011E-001	0.00000E+000	9	...........	1425.60
	61	5.7	-4.00586E-001	-1.11209E-004	0.00000E+000	-4.00011E-001	0.00000E+000	9	...........	1425.60
	62	5.8	-4.00587E-001	-1.10837E-004	0.00000E+000	-4.00011E-001	0.00000E+000	9	...........	1425.60
	63	5.9	-4.00573E-001	-1.10385E-004	0.00000E+000	-4.00011E-001	0.00000E+000	9	...........	1425.60
	64	6	-4.00580E-001	-1.10012E-004	0.00000E+000	-4.00011E-001	0.00000E+000	9	...........	1425.60
	65	6.1	-4.00594E-001	-1.09606E-004	0.00000E+000	-4.00011E-001	0.00000E+000	9	...........	1425.60
	66	7.1	-4.00584E-001	-1.06005E-004	0.00000E+000	-4.00011E-001	0.00000E+000	9	...........	1425.60
	67	8.1	-4.00585E-001	-1.02888E-004	0.00000E+000	-4.00011E-001	0.00000E+000	9	...........	1426.04
	68	9.1	-4.00591E-001	-1.00207E-004	0.00000E+000	-4.00011E-001	0.00000E+000	9	...........	1426.04
	69	10.1	-4.00579E-001	-9.77880E-005	0.00000E+000	-4.00011E-001	0.00000E+000	9	...........	1426.04
	70	11.1	-4.00582E-001	-9.56216E-005	0.00000E+000	-4.00011E-001	0.00000E+000	9	...........	1426.13
	71	12.1	-4.00603E-001	-9.37496E-005	0.00000E+000	-4.00011E-001	0.00000E+000	9	...........	1426.13
	72	13.1	-4.00578E-001	-9.19910E-005	0.00000E+000	-4.00011E-001	0.00000E+000	9	...........	1426.13
	73	14.1	-4.00580E-001	-9.03621E-005	0.00000E+000	-4.00011E-001	0.00000E+000	9	...........	1426.13
	74	15.1	-4.00581E-001	-8.88968E-005	0.00000E+000	-4.00011E-001	0.00000E+000	9	...........	1426.13
	75	16.1	-4.00589E-001	-8.75650E-005	0.00000E+000	-4.00011E-001	0.00000E+000	9	...........	1426.13
	76	26.1	-4.00587E-001	-7.76308E-005	0.00000E+000	-4.00011E-001	0.00000E+000	9	...........	1426.13
	77	36.1	-4.00591E-001	-7.19146E-005	0.00000E+000	-4.00011E-001	0.00000E+000	9	...........	1426.13
	78	46.1	-4.00580E-001	-6.80486E-005	0.00000E+000	-4.00011E-001	0.00000E+000	9	...........	1426.13
	79	56.1	-4.00584E-001	-6.50562E-005	0.00000E+000	-4.00011E-001	0.00000E+000	9	...........	1426.22
	80	66.1	-4.00592E-001	-6.27511E-005	0.00000E+000	-4.00011E-001	0.00000E+000	9	...........	1426.13
	81	76.1	-4.00592E-001	-6.07755E-005	0.00000E+000	-4.00011E-001	0.00000E+000	9	...........	1426.22
	82	86.1	-4.00589E-001	-5.88873E-005	0.00000E+000	-4.00011E-001	0.00000E+000	9	...........	1426.22
	83	96.1	-4.00573E-001	-5.76932E-005	0.00000E+000	-4.00011E-001	0.00000E+000	9	...........	1426.13
	84	106.1	-4.00583E-001	-5.65556E-005	0.00000E+000	-4.00011E-001	0.00000E+000	9	...........	1426.22
	85	116.1	-4.00586E-001	-5.57941E-005	0.00000E+000	-4.00011E-001	0.00000E+000	9	...........	1426.22
	86	216.1	-4.00569E-001	-5.09145E-005	0.00000E+000	-4.00011E-001	0.00000E+000	9	...........	1426.22
	87	300	-4.00594E-001	-4.97413E-005	0.00000E+000	-4.00011E-001	0.00000E+000	9	...........	1426.22
	88	300.1	-5.00598E-001	-3.52443E-004	0.00000E+000	-5.00010E-001	0.00000E+000	9	...........	1426.22
	89	300.2	-5.00594E-001	-2.53426E-004	0.00000E+000	-5.00010E-001	0.00000E+000	9	...........	1426.22
	90	300.3	-5.00601E-001	-2.19778E-004	0.00000E+000	-5.00010E-001	0.00000E+000	9	...........	1426.22
	91	300.4	-5.00592E-001	-2.05250E-004	0.00000E+000	-5.00010E-001	0.00000E+000	9	...........	1426.22
	92	300.5	-5.00602E-001	-1.97326E-004	0.00000E+000	-5.00010E-001	0.00000E+000	9	...........	1426.22
	93	300.6	-5.00605E-001	-1.92230E-004	0.00000E+000	-5.00010E-001	0.00000E+000	9	...........	1426.22
	94	300.7	-5.00610E-001	-1.88436E-004	0.00000E+000	-5.00010E-001	0.00000E+000	9	...........	1426.22
	95	300.8	-5.00585E-001	-1.85293E-004	0.00000E+000	-5.00010E-001	0.00000E+000	9	...........	1426.22
	96	300.9	-5.00602E-001	-1.82740E-004	0.00000E+000	-5.00010E-001	0.00000E+000	9	...........	1426.22
	97	301	-5.00598E-001	-1.80428E-004	0.00000E+000	-5.00010E-001	0.00000E+000	9	...........	1426.22
