EXPLAIN
TAG	CHRONOA
TITLE	LABEL	Chronoamperometry Scan	Test Identifier
DATE	LABEL	21/12/2021	Date
TIME	LABEL	11:55:43	Time
NOTES	NOTES	1	Notes...
	
PSTAT	PSTAT	IFC1010-21051	Potentiostat
VPRESTEP	POTEN	-3.00000E-001	F	Pre-step Voltage (V)
TPRESTEP	QUANT	5.00000E-001	Pre-step Delay Time (s)
VSTEP1	POTEN	-4.00000E-001	F	Step 1 Voltage (V)
TSTEP1	QUANT	3.00000E+002	Step 1 Time (s)
VSTEP2	POTEN	-5.00000E-001	F	Step 2 Voltage (V)
TSTEP2	QUANT	1.00000E+000	Step 2 Time (s)
SAMPLETIME	QUANT	1.00000E-001	Sample Period (s)
DECIMATE	TOGGLE	T	Decimate
ILIMIT	QUANT	1.00000E+000	Limit I (mA/cm^2)
IMODE	SELECTOR	1	I/E Range Mode
IRANGE	QUANT	3.00000E-001	Max Current (mA)
EQDELAY	QUANT	5.00000E+000	Equil. Time (s)
SAMPLINGMODE	SELECTOR	1	Sampling Mode
AREA	QUANT	1.00000E+000	Sample Area (cm^2)
IRCOMP	SELECTOR	0	IRComp
PFCOR	QUANT	5.00000E+001	PF Corr. (ohm)
SEQUENCER	TOGGLE	TRUE	Run as Sequence
PSTATMODEL	IQUANT	64	Pstat Model
PSTATSECTION	LABEL	IFC1010-21051	Pstat Section
PSTATSERIALNO	LABEL	21051	Pstat Serial Number
CTRLMODE	IQUANT	1	Control Mode
ELECTROMETER	IQUANT	0	RE=0 or CS=1
IESTAB	IQUANT	0	I/E Stability
CASPEED	IQUANT	4	Control Amp Speed
CONVENTION	IQUANT	1	Current Convention
ICHRANGE	IQUANT	2	Ich Range
ICHRANGEMODE	TOGGLE	T	Ich Auto Range
ICHOFFSETENABLE	TOGGLE	F	Ich Offset Enable
ICHOFFSET	QUANT	0	Ich Offset (V)
ICHFILTER	IQUANT	3	Ich Filter
VCHRANGE	IQUANT	3	Vch Range
VCHRANGEMODE	TOGGLE	T	Vch Auto Range
VCHOFFSETENABLE	TOGGLE	F	Vch Offset Enable
VCHOFFSET	QUANT	0	Vch Offset (V)
VCHFILTER	IQUANT	3	Vch Filter
IERANGELOWERLIMIT	IQUANT	4	I/E Range Lower Limit
IERANGEMODE	TOGGLE	F	I/E AutoRange
IERANGE	IQUANT	9	I/E Range
ACHSELECT	IQUANT	0	Ach Select
ACHRANGE	IQUANT	2	Ach Range
ACHOFFSETENABLE	TOGGLE	F	Ach Offset Enable
ACHOFFSET	QUANT	0	Ach Offset (V)
ACHFILTER	IQUANT	1	Ach Filter
SENSECABLEID	IQUANT	14	Sense Cable ID
PWRCABLEID	IQUANT	14	Power Cable ID
DCCALDATE	LABEL	10/1/2020	DC Calibration Date
ACCALDATE	LABEL	4/2/2018	AC Calibration Date
FRAMEWORKVERSION	QUANT	7.06	Framework Version
INSTRUMENTVERSION	LABEL	4.30	Instrument Version
CURVE	TABLE	98
	Pt	T	Vf	Im	Vu	Sig	Ach	IERange	Over	Temp
	#	s	V vs. Ref.	A	V	V	V	#	bits	deg C
	0	-0.4	-3.00580E-001	-5.08366E-005	0.00000E+000	-3.00011E-001	0.00000E+000	9	...........	1425.78
	1	-0.3	-3.00518E-001	-5.07754E-005	0.00000E+000	-3.00011E-001	0.00000E+000	9	...........	1425.78
	2	-0.2	-3.00530E-001	-5.07087E-005	0.00000E+000	-3.00011E-001	0.00000E+000	9	...........	1425.78
	3	-0.1	-3.00520E-001	-5.06054E-005	0.00000E+000	-3.00011E-001	0.00000E+000	9	...........	1425.78
	4	0	-3.00517E-001	-5.05277E-005	0.00000E+000	-3.00011E-001	0.00000E+000	9	...........	1425.78
	5	0.1	-4.00571E-001	-3.30871E-004	0.00000E+000	-4.00011E-001	0.00000E+000	9	...........	1425.78
	6	0.2	-4.00550E-001	-2.53040E-004	0.00000E+000	-4.00011E-001	0.00000E+000	9	...........	1425.78
	7	0.3	-4.00564E-001	-2.22014E-004	0.00000E+000	-4.00011E-001	0.00000E+000	9	...........	1425.78
	8	0.4	-4.00554E-001	-2.06114E-004	0.00000E+000	-4.00011E-001	0.00000E+000	9	...........	1425.78
	9	0.5	-4.00572E-001	-1.96585E-004	0.00000E+000	-4.00011E-001	0.00000E+000	9	...........	1425.78
	10	0.6	-4.00574E-001	-1.90096E-004	0.00000E+000	-4.00011E-001	0.00000E+000	9	...........	1425.78
	11	0.7	-4.00571E-001	-1.85219E-004	0.00000E+000	-4.00011E-001	0.00000E+000	9	...........	1425.69
	12	0.8	-4.00567E-001	-1.81335E-004	0.00000E+000	-4.00011E-001	0.00000E+000	9	...........	1425.69
	13	0.9	-4.00566E-001	-1.78003E-004	0.00000E+000	-4.00011E-001	0.00000E+000	9	...........	1425.69
	14	1	-4.00565E-001	-1.75162E-004	0.00000E+000	-4.00011E-001	0.00000E+000	9	...........	1425.69
	15	1.1	-4.00552E-001	-1.72564E-004	0.00000E+000	-4.00011E-001	0.00000E+000	9	...........	1425.69
	16	1.2	-4.00565E-001	-1.70247E-004	0.00000E+000	-4.00011E-001	0.00000E+000	9	...........	1425.69
	17	1.3	-4.00564E-001	-1.68082E-004	0.00000E+000	-4.00011E-001	0.00000E+000	9	...........	1425.69
	18	1.4	-4.00560E-001	-1.66085E-004	0.00000E+000	-4.00011E-001	0.00000E+000	9	...........	1425.69
	19	1.5	-4.00568E-001	-1.64226E-004	0.00000E+000	-4.00011E-001	0.00000E+000	9	...........	1425.69
	20	1.6	-4.00568E-001	-1.62476E-004	0.00000E+000	-4.00011E-001	0.00000E+000	9	...........	1425.69
	21	1.7	-4.00566E-001	-1.60835E-004	0.00000E+000	-4.00011E-001	0.00000E+000	9	...........	1425.69
	22	1.8	-4.00571E-001	-1.59269E-004	0.00000E+000	-4.00011E-001	0.00000E+000	9	...........	1425.69
	23	1.9	-4.00576E-001	-1.57796E-004	0.00000E+000	-4.00011E-001	0.00000E+000	9	...........	1425.69
	24	2	-4.00572E-001	-1.56357E-004	0.00000E+000	-4.00011E-001	0.00000E+000	9	...........	1425.69
	25	2.1	-4.00573E-001	-1.55006E-004	0.00000E+000	-4.00011E-001	0.00000E+000	9	...........	1425.69
	26	2.2	-4.00580E-001	-1.53728E-004	0.00000E+000	-4.00011E-001	0.00000E+000	9	...........	1425.69
	27	2.3	-4.00573E-001	-1.52470E-004	0.00000E+000	-4.00011E-001	0.00000E+000	9	...........	1425.69
	28	2.4	-4.00568E-001	-1.51300E-004	0.00000E+000	-4.00011E-001	0.00000E+000	9	...........	1425.69
	29	2.5	-4.00568E-001	-1.50167E-004	0.00000E+000	-4.00011E-001	0.00000E+000	9	...........	1425.69
	30	2.6	-4.00576E-001	-1.49050E-004	0.00000E+000	-4.00011E-001	0.00000E+000	9	...........	1425.69
	31	2.7	-4.00570E-001	-1.47970E-004	0.00000E+000	-4.00011E-001	0.00000E+000	9	...........	1425.69
	32	2.8	-4.00559E-001	-1.46923E-004	0.00000E+000	-4.00011E-001	0.00000E+000	9	...........	1425.69
	33	2.9	-4.00573E-001	-1.45959E-004	0.00000E+000	-4.00011E-001	0.00000E+000	9	...........	1425.69
	34	3	-4.00559E-001	-1.44982E-004	0.00000E+000	-4.00011E-001	0.00000E+000	9	...........	1425.69
	35	3.1	-4.00573E-001	-1.44062E-004	0.00000E+000	-4.00011E-001	0.00000E+000	9	...........	1425.69
	36	3.2	-4.00561E-001	-1.43146E-004	0.00000E+000	-4.00011E-001	0.00000E+000	9	...........	1425.69
	37	3.3	-4.00556E-001	-1.42248E-004	0.00000E+000	-4.00011E-001	0.00000E+000	9	...........	1425.69
	38	3.4	-4.00564E-001	-1.41413E-004	0.00000E+000	-4.00011E-001	0.00000E+000	9	...........	1425.69
	39	3.5	-4.00579E-001	-1.40592E-004	0.00000E+000	-4.00011E-001	0.00000E+000	9	...........	1425.69
	40	3.6	-4.00567E-001	-1.39822E-004	0.00000E+000	-4.00011E-001	0.00000E+000	9	...........	1425.69
	41	3.7	-4.00569E-001	-1.39022E-004	0.00000E+000	-4.00011E-001	0.00000E+000	9	...........	1425.69
	42	3.8	-4.00569E-001	-1.38269E-004	0.00000E+000	-4.00011E-001	0.00000E+000	9	...........	1425.69
	43	3.9	-4.00562E-001	-1.37497E-004	0.00000E+000	-4.00011E-001	0.00000E+000	9	...........	1425.69
	44	4	-4.00586E-001	-1.36797E-004	0.00000E+000	-4.00011E-001	0.00000E+000	9	...........	1425.69
	45	4.1	-4.00568E-001	-1.36101E-004	0.00000E+000	-4.00011E-001	0.00000E+000	9	...........	1425.69
	46	4.2	-4.00555E-001	-1.35393E-004	0.00000E+000	-4.00011E-001	0.00000E+000	9	...........	1425.69
	47	4.3	-4.00549E-001	-1.34715E-004	0.00000E+000	-4.00011E-001	0.00000E+000	9	...........	1425.69
	48	4.4	-4.00561E-001	-1.34084E-004	0.00000E+000	-4.00011E-001	0.00000E+000	9	...........	1425.69
	49	4.5	-4.00567E-001	-1.33426E-004	0.00000E+000	-4.00011E-001	0.00000E+000	9	...........	1425.69
	50	4.6	-4.00556E-001	-1.32800E-004	0.00000E+000	-4.00011E-001	0.00000E+000	9	...........	1425.69
	51	4.7	-4.00569E-001	-1.32211E-004	0.00000E+000	-4.00011E-001	0.00000E+000	9	...........	1425.69
	52	4.8	-4.00563E-001	-1.31588E-004	0.00000E+000	-4.00011E-001	0.00000E+000	9	...........	1425.69
	53	4.9	-4.00570E-001	-1.31017E-004	0.00000E+000	-4.00011E-001	0.00000E+000	9	...........	1425.69
	54	5	-4.00568E-001	-1.30464E-004	0.00000E+000	-4.00011E-001	0.00000E+000	9	...........	1425.69
	55	5.1	-4.00576E-001	-1.29889E-004	0.00000E+000	-4.00011E-001	0.00000E+000	9	...........	1425.69
	56	5.2	-4.00568E-001	-1.29334E-004	0.00000E+000	-4.00011E-001	0.00000E+000	9	...........	1425.69
	57	5.3	-4.00561E-001	-1.28799E-004	0.00000E+000	-4.00011E-001	0.00000E+000	9	...........	1425.69
	58	5.4	-4.00564E-001	-1.28224E-004	0.00000E+000	-4.00011E-001	0.00000E+000	9	...........	1425.69
	59	5.5	-4.00557E-001	-1.27724E-004	0.00000E+000	-4.00011E-001	0.00000E+000	9	...........	1425.69
	60	5.6	-4.00569E-001	-1.27219E-004	0.00000E+000	-4.00011E-001	0.00000E+000	9	...........	1425.69
	61	5.7	-4.00559E-001	-1.26733E-004	0.00000E+000	-4.00011E-001	0.00000E+000	9	...........	1425.34
	62	5.8	-4.00567E-001	-1.26242E-004	0.00000E+000	-4.00011E-001	0.00000E+000	9	...........	1425.34
	63	5.9	-4.00555E-001	-1.25754E-004	0.00000E+000	-4.00011E-001	0.00000E+000	9	...........	1425.34
	64	6	-4.00564E-001	-1.25280E-004	0.00000E+000	-4.00011E-001	0.00000E+000	9	...........	1425.34
	65	6.1	-4.00564E-001	-1.24806E-004	0.00000E+000	-4.00011E-001	0.00000E+000	9	...........	1425.34
	66	7.1	-4.00574E-001	-1.20557E-004	0.00000E+000	-4.00011E-001	0.00000E+000	9	...........	1425.69
	67	8.1	-4.00569E-001	-1.16919E-004	0.00000E+000	-4.00011E-001	0.00000E+000	9	...........	1425.69
	68	9.1	-4.00561E-001	-1.13748E-004	0.00000E+000	-4.00011E-001	0.00000E+000	9	...........	1425.78
	69	10.1	-4.00576E-001	-1.10966E-004	0.00000E+000	-4.00011E-001	0.00000E+000	9	...........	1425.78
	70	11.1	-4.00555E-001	-1.08452E-004	0.00000E+000	-4.00011E-001	0.00000E+000	9	...........	1425.78
	71	12.1	-4.00561E-001	-1.06225E-004	0.00000E+000	-4.00011E-001	0.00000E+000	9	...........	1425.78
	72	13.1	-4.00558E-001	-1.04197E-004	0.00000E+000	-4.00011E-001	0.00000E+000	9	...........	1425.78
	73	14.1	-4.00553E-001	-1.02317E-004	0.00000E+000	-4.00011E-001	0.00000E+000	9	...........	1425.78
	74	15.1	-4.00560E-001	-1.00646E-004	0.00000E+000	-4.00011E-001	0.00000E+000	9	...........	1425.78
	75	16.1	-4.00571E-001	-9.90970E-005	0.00000E+000	-4.00011E-001	0.00000E+000	9	...........	1425.78
	76	26.1	-4.00574E-001	-8.80704E-005	0.00000E+000	-4.00011E-001	0.00000E+000	9	...........	1425.78
	77	36.1	-4.00575E-001	-8.15104E-005	0.00000E+000	-4.00011E-001	0.00000E+000	9	...........	1425.78
	78	46.1	-4.00568E-001	-7.70956E-005	0.00000E+000	-4.00011E-001	0.00000E+000	9	...........	1425.87
	79	56.1	-4.00563E-001	-7.35813E-005	0.00000E+000	-4.00011E-001	0.00000E+000	9	...........	1425.87
	80	66.1	-4.00570E-001	-7.10005E-005	0.00000E+000	-4.00011E-001	0.00000E+000	9	...........	1425.78
	81	76.1	-4.00561E-001	-6.89166E-005	0.00000E+000	-4.00011E-001	0.00000E+000	9	...........	1425.87
	82	86.1	-4.00565E-001	-6.72399E-005	0.00000E+000	-4.00011E-001	0.00000E+000	9	...........	1425.87
	83	96.1	-4.00562E-001	-6.61245E-005	0.00000E+000	-4.00011E-001	0.00000E+000	9	...........	1425.87
	84	106.1	-4.00552E-001	-6.47469E-005	0.00000E+000	-4.00011E-001	0.00000E+000	9	...........	1425.78
	85	116.1	-4.00557E-001	-6.34940E-005	0.00000E+000	-4.00011E-001	0.00000E+000	9	...........	1425.78
	86	216.1	-4.00565E-001	-5.81727E-005	0.00000E+000	-4.00011E-001	0.00000E+000	9	...........	1425.87
	87	300	-4.00565E-001	-5.69437E-005	0.00000E+000	-4.00011E-001	0.00000E+000	9	...........	1425.87
	88	300.1	-5.00563E-001	-3.36844E-004	0.00000E+000	-5.00010E-001	0.00000E+000	9	...........	1425.87
	89	300.2	-5.00558E-001	-2.54032E-004	0.00000E+000	-5.00010E-001	0.00000E+000	9	...........	1425.87
	90	300.3	-5.00565E-001	-2.21637E-004	0.00000E+000	-5.00010E-001	0.00000E+000	9	...........	1425.87
	91	300.4	-5.00561E-001	-2.04915E-004	0.00000E+000	-5.00010E-001	0.00000E+000	9	...........	1425.87
	92	300.5	-5.00574E-001	-1.94652E-004	0.00000E+000	-5.00010E-001	0.00000E+000	9	...........	1425.87
	93	300.6	-5.00562E-001	-1.87448E-004	0.00000E+000	-5.00010E-001	0.00000E+000	9	...........	1425.87
	94	300.7	-5.00565E-001	-1.82009E-004	0.00000E+000	-5.00010E-001	0.00000E+000	9	...........	1425.87
	95	300.8	-5.00569E-001	-1.77580E-004	0.00000E+000	-5.00010E-001	0.00000E+000	9	...........	1425.87
	96	300.9	-5.00577E-001	-1.73974E-004	0.00000E+000	-5.00010E-001	0.00000E+000	9	...........	1425.87
	97	301	-5.00583E-001	-1.70773E-004	0.00000E+000	-5.00010E-001	0.00000E+000	9	...........	1425.87
