EXPLAIN
TAG	CHRONOA
TITLE	LABEL	Chronoamperometry Scan	Test Identifier
DATE	LABEL	21/12/2021	Date
TIME	LABEL	12:24:32	Time
NOTES	NOTES	1	Notes...
	
PSTAT	PSTAT	IFC1010-21051	Potentiostat
VPRESTEP	POTEN	3.00000E-001	F	Pre-step Voltage (V)
TPRESTEP	QUANT	5.00000E-001	Pre-step Delay Time (s)
VSTEP1	POTEN	4.00000E-001	F	Step 1 Voltage (V)
TSTEP1	QUANT	3.00000E+002	Step 1 Time (s)
VSTEP2	POTEN	3.00000E-001	F	Step 2 Voltage (V)
TSTEP2	QUANT	1.00000E+000	Step 2 Time (s)
SAMPLETIME	QUANT	1.00000E-001	Sample Period (s)
DECIMATE	TOGGLE	T	Decimate
ILIMIT	QUANT	1.00000E+000	Limit I (mA/cm^2)
IMODE	SELECTOR	1	I/E Range Mode
IRANGE	QUANT	3.00000E-001	Max Current (mA)
EQDELAY	QUANT	5.00000E+000	Equil. Time (s)
SAMPLINGMODE	SELECTOR	1	Sampling Mode
AREA	QUANT	1.00000E+000	Sample Area (cm^2)
IRCOMP	SELECTOR	0	IRComp
PFCOR	QUANT	5.00000E+001	PF Corr. (ohm)
SEQUENCER	TOGGLE	TRUE	Run as Sequence
PSTATMODEL	IQUANT	64	Pstat Model
PSTATSECTION	LABEL	IFC1010-21051	Pstat Section
PSTATSERIALNO	LABEL	21051	Pstat Serial Number
CTRLMODE	IQUANT	1	Control Mode
ELECTROMETER	IQUANT	0	RE=0 or CS=1
IESTAB	IQUANT	0	I/E Stability
CASPEED	IQUANT	4	Control Amp Speed
CONVENTION	IQUANT	1	Current Convention
ICHRANGE	IQUANT	2	Ich Range
ICHRANGEMODE	TOGGLE	T	Ich Auto Range
ICHOFFSETENABLE	TOGGLE	F	Ich Offset Enable
ICHOFFSET	QUANT	0	Ich Offset (V)
ICHFILTER	IQUANT	3	Ich Filter
VCHRANGE	IQUANT	3	Vch Range
VCHRANGEMODE	TOGGLE	T	Vch Auto Range
VCHOFFSETENABLE	TOGGLE	F	Vch Offset Enable
VCHOFFSET	QUANT	0	Vch Offset (V)
VCHFILTER	IQUANT	3	Vch Filter
IERANGELOWERLIMIT	IQUANT	4	I/E Range Lower Limit
IERANGEMODE	TOGGLE	F	I/E AutoRange
IERANGE	IQUANT	9	I/E Range
ACHSELECT	IQUANT	0	Ach Select
ACHRANGE	IQUANT	2	Ach Range
ACHOFFSETENABLE	TOGGLE	F	Ach Offset Enable
ACHOFFSET	QUANT	0	Ach Offset (V)
ACHFILTER	IQUANT	1	Ach Filter
SENSECABLEID	IQUANT	14	Sense Cable ID
PWRCABLEID	IQUANT	14	Power Cable ID
DCCALDATE	LABEL	10/1/2020	DC Calibration Date
ACCALDATE	LABEL	4/2/2018	AC Calibration Date
FRAMEWORKVERSION	QUANT	7.06	Framework Version
INSTRUMENTVERSION	LABEL	4.30	Instrument Version
CURVE	TABLE	98
	Pt	T	Vf	Im	Vu	Sig	Ach	IERange	Over	Temp
	#	s	V vs. Ref.	A	V	V	V	#	bits	deg C
	0	-0.4	3.00167E-001	5.49186E-006	0.00000E+000	3.00072E-001	0.00000E+000	9	...........	1425.87
	1	-0.3	3.00458E-001	5.42620E-006	0.00000E+000	3.00072E-001	0.00000E+000	9	...........	1425.87
	2	-0.2	3.00452E-001	5.41108E-006	0.00000E+000	3.00072E-001	0.00000E+000	9	...........	1425.87
	3	-0.1	3.00465E-001	5.35906E-006	0.00000E+000	3.00072E-001	0.00000E+000	9	...........	1425.87
	4	0	3.00457E-001	5.33690E-006	0.00000E+000	3.00072E-001	0.00000E+000	9	...........	1425.87
	5	0.1	4.00506E-001	3.78572E-004	0.00000E+000	4.00072E-001	0.00000E+000	9	...........	1425.87
	6	0.2	4.00502E-001	3.10770E-004	0.00000E+000	4.00072E-001	0.00000E+000	9	...........	1425.87
	7	0.3	4.00498E-001	2.69502E-004	0.00000E+000	4.00072E-001	0.00000E+000	9	...........	1425.87
	8	0.4	4.00494E-001	2.40122E-004	0.00000E+000	4.00072E-001	0.00000E+000	9	...........	1425.87
	9	0.5	4.00496E-001	2.17929E-004	0.00000E+000	4.00072E-001	0.00000E+000	9	...........	1425.87
	10	0.6	4.00488E-001	2.00449E-004	0.00000E+000	4.00072E-001	0.00000E+000	9	...........	1425.87
	11	0.7	4.00513E-001	1.86213E-004	0.00000E+000	4.00072E-001	0.00000E+000	9	...........	1425.78
	12	0.8	4.00512E-001	1.74340E-004	0.00000E+000	4.00072E-001	0.00000E+000	9	...........	1425.78
	13	0.9	4.00500E-001	1.64288E-004	0.00000E+000	4.00072E-001	0.00000E+000	9	...........	1425.78
	14	1	4.00511E-001	1.55641E-004	0.00000E+000	4.00072E-001	0.00000E+000	9	...........	1425.78
	15	1.1	4.00507E-001	1.48054E-004	0.00000E+000	4.00072E-001	0.00000E+000	9	...........	1425.78
	16	1.2	4.00511E-001	1.41368E-004	0.00000E+000	4.00072E-001	0.00000E+000	9	...........	1425.78
	17	1.3	4.00502E-001	1.35418E-004	0.00000E+000	4.00072E-001	0.00000E+000	9	...........	1425.78
	18	1.4	4.00506E-001	1.30031E-004	0.00000E+000	4.00072E-001	0.00000E+000	9	...........	1425.78
	19	1.5	4.00504E-001	1.25129E-004	0.00000E+000	4.00072E-001	0.00000E+000	9	...........	1425.78
	20	1.6	4.00505E-001	1.20692E-004	0.00000E+000	4.00072E-001	0.00000E+000	9	...........	1425.78
	21	1.7	4.00509E-001	1.16580E-004	0.00000E+000	4.00072E-001	0.00000E+000	9	...........	1425.78
	22	1.8	4.00513E-001	1.12798E-004	0.00000E+000	4.00072E-001	0.00000E+000	9	...........	1425.78
	23	1.9	4.00507E-001	1.09323E-004	0.00000E+000	4.00072E-001	0.00000E+000	9	...........	1425.78
	24	2	4.00507E-001	1.06054E-004	0.00000E+000	4.00072E-001	0.00000E+000	9	...........	1425.78
	25	2.1	4.00510E-001	1.02991E-004	0.00000E+000	4.00072E-001	0.00000E+000	9	...........	1425.78
	26	2.2	4.00504E-001	1.00119E-004	0.00000E+000	4.00072E-001	0.00000E+000	9	...........	1425.78
	27	2.3	4.00502E-001	9.74067E-005	0.00000E+000	4.00072E-001	0.00000E+000	9	...........	1425.78
	28	2.4	4.00502E-001	9.48881E-005	0.00000E+000	4.00072E-001	0.00000E+000	9	...........	1425.78
	29	2.5	4.00513E-001	9.24500E-005	0.00000E+000	4.00072E-001	0.00000E+000	9	...........	1425.78
	30	2.6	4.00506E-001	9.02129E-005	0.00000E+000	4.00072E-001	0.00000E+000	9	...........	1425.78
	31	2.7	4.00511E-001	8.80277E-005	0.00000E+000	4.00072E-001	0.00000E+000	9	...........	1425.78
	32	2.8	4.00497E-001	8.59571E-005	0.00000E+000	4.00072E-001	0.00000E+000	9	...........	1425.78
	33	2.9	4.00501E-001	8.39857E-005	0.00000E+000	4.00072E-001	0.00000E+000	9	...........	1425.78
	34	3	4.00506E-001	8.21262E-005	0.00000E+000	4.00072E-001	0.00000E+000	9	...........	1425.78
	35	3.1	4.00514E-001	8.03227E-005	0.00000E+000	4.00072E-001	0.00000E+000	9	...........	1425.78
	36	3.2	4.00513E-001	7.86240E-005	0.00000E+000	4.00072E-001	0.00000E+000	9	...........	1425.78
	37	3.3	4.00517E-001	7.69634E-005	0.00000E+000	4.00072E-001	0.00000E+000	9	...........	1425.78
	38	3.4	4.00508E-001	7.54498E-005	0.00000E+000	4.00072E-001	0.00000E+000	9	...........	1425.78
	39	3.5	4.00507E-001	7.39531E-005	0.00000E+000	4.00072E-001	0.00000E+000	9	...........	1425.78
	40	3.6	4.00496E-001	7.25254E-005	0.00000E+000	4.00072E-001	0.00000E+000	9	...........	1425.78
	41	3.7	4.00497E-001	7.11259E-005	0.00000E+000	4.00072E-001	0.00000E+000	9	...........	1425.78
	42	3.8	4.00505E-001	6.98026E-005	0.00000E+000	4.00072E-001	0.00000E+000	9	...........	1425.78
	43	3.9	4.00497E-001	6.85034E-005	0.00000E+000	4.00072E-001	0.00000E+000	9	...........	1425.78
	44	4	4.00509E-001	6.72673E-005	0.00000E+000	4.00072E-001	0.00000E+000	9	...........	1425.78
	45	4.1	4.00507E-001	6.60595E-005	0.00000E+000	4.00072E-001	0.00000E+000	9	...........	1425.78
	46	4.2	4.00512E-001	6.49516E-005	0.00000E+000	4.00072E-001	0.00000E+000	9	...........	1425.78
	47	4.3	4.00513E-001	6.38455E-005	0.00000E+000	4.00072E-001	0.00000E+000	9	...........	1425.78
	48	4.4	4.00512E-001	6.27729E-005	0.00000E+000	4.00072E-001	0.00000E+000	9	...........	1425.78
	49	4.5	4.00513E-001	6.17368E-005	0.00000E+000	4.00072E-001	0.00000E+000	9	...........	1425.78
	50	4.6	4.00507E-001	6.07406E-005	0.00000E+000	4.00072E-001	0.00000E+000	9	...........	1425.78
	51	4.7	4.00499E-001	5.97938E-005	0.00000E+000	4.00072E-001	0.00000E+000	9	...........	1425.78
	52	4.8	4.00503E-001	5.88627E-005	0.00000E+000	4.00072E-001	0.00000E+000	9	...........	1425.78
	53	4.9	4.00502E-001	5.79707E-005	0.00000E+000	4.00072E-001	0.00000E+000	9	...........	1425.78
	54	5	4.00517E-001	5.70618E-005	0.00000E+000	4.00072E-001	0.00000E+000	9	...........	1425.78
	55	5.1	4.00504E-001	5.62167E-005	0.00000E+000	4.00072E-001	0.00000E+000	9	...........	1425.78
	56	5.2	4.00496E-001	5.54007E-005	0.00000E+000	4.00072E-001	0.00000E+000	9	...........	1425.78
	57	5.3	4.00506E-001	5.46357E-005	0.00000E+000	4.00072E-001	0.00000E+000	9	...........	1425.78
	58	5.4	4.00496E-001	5.38643E-005	0.00000E+000	4.00072E-001	0.00000E+000	9	...........	1425.78
	59	5.5	4.00517E-001	5.30999E-005	0.00000E+000	4.00072E-001	0.00000E+000	9	...........	1425.78
	60	5.6	4.00492E-001	5.23719E-005	0.00000E+000	4.00072E-001	0.00000E+000	9	...........	1425.78
	61	5.7	4.00494E-001	5.17007E-005	0.00000E+000	4.00072E-001	0.00000E+000	9	...........	1425.78
	62	5.8	4.00507E-001	5.10216E-005	0.00000E+000	4.00072E-001	0.00000E+000	9	...........	1425.78
	63	5.9	4.00510E-001	5.03534E-005	0.00000E+000	4.00072E-001	0.00000E+000	9	...........	1425.78
	64	6	4.00508E-001	4.97089E-005	0.00000E+000	4.00072E-001	0.00000E+000	9	...........	1425.78
	65	6.1	4.00507E-001	4.90411E-005	0.00000E+000	4.00072E-001	0.00000E+000	9	...........	1425.78
	66	7.1	4.00502E-001	4.34429E-005	0.00000E+000	4.00072E-001	0.00000E+000	9	...........	1425.78
	67	8.1	4.00510E-001	3.88487E-005	0.00000E+000	4.00072E-001	0.00000E+000	9	...........	1425.78
	68	9.1	4.00511E-001	3.51761E-005	0.00000E+000	4.00072E-001	0.00000E+000	9	...........	1425.78
	69	10.1	4.00503E-001	3.23725E-005	0.00000E+000	4.00072E-001	0.00000E+000	9	...........	1425.78
	70	11.1	4.00497E-001	3.01278E-005	0.00000E+000	4.00072E-001	0.00000E+000	9	...........	1425.78
	71	12.1	4.00497E-001	2.82500E-005	0.00000E+000	4.00072E-001	0.00000E+000	9	...........	1425.78
	72	13.1	4.00495E-001	2.68127E-005	0.00000E+000	4.00072E-001	0.00000E+000	9	...........	1425.87
	73	14.1	4.00509E-001	2.54760E-005	0.00000E+000	4.00072E-001	0.00000E+000	9	...........	1425.78
	74	15.1	4.00500E-001	2.42239E-005	0.00000E+000	4.00072E-001	0.00000E+000	9	...........	1425.78
	75	16.1	4.00513E-001	2.31922E-005	0.00000E+000	4.00072E-001	0.00000E+000	9	...........	1425.87
	76	26.1	4.00498E-001	1.75689E-005	0.00000E+000	4.00072E-001	0.00000E+000	9	...........	1425.78
	77	36.1	4.00509E-001	1.52145E-005	0.00000E+000	4.00072E-001	0.00000E+000	9	...........	1425.87
	78	46.1	4.00512E-001	1.36561E-005	0.00000E+000	4.00072E-001	0.00000E+000	9	...........	1425.87
	79	56.1	4.00509E-001	1.24586E-005	0.00000E+000	4.00072E-001	0.00000E+000	9	...........	1425.78
	80	66.1	4.00513E-001	1.18921E-005	0.00000E+000	4.00072E-001	0.00000E+000	9	...........	1425.87
	81	76.1	4.00510E-001	1.16113E-005	0.00000E+000	4.00072E-001	0.00000E+000	9	...........	1425.78
	82	86.1	4.00511E-001	1.10703E-005	0.00000E+000	4.00072E-001	0.00000E+000	9	...........	1425.87
	83	96.1	4.00500E-001	1.08170E-005	0.00000E+000	4.00072E-001	0.00000E+000	9	...........	1425.87
	84	106.1	4.00507E-001	1.08128E-005	0.00000E+000	4.00072E-001	0.00000E+000	9	...........	1425.78
	85	116.1	4.00513E-001	1.06210E-005	0.00000E+000	4.00072E-001	0.00000E+000	9	...........	1425.78
	86	216.1	4.00500E-001	9.82620E-006	0.00000E+000	4.00072E-001	0.00000E+000	9	...........	1425.87
	87	300	4.00491E-001	9.34367E-006	0.00000E+000	4.00072E-001	0.00000E+000	9	...........	1425.87
	88	300.1	3.00450E-001	-3.36635E-004	0.00000E+000	3.00072E-001	0.00000E+000	9	...........	1425.87
	89	300.2	3.00458E-001	-2.38954E-004	0.00000E+000	3.00072E-001	0.00000E+000	9	...........	1425.87
	90	300.3	3.00458E-001	-1.79499E-004	0.00000E+000	3.00072E-001	0.00000E+000	9	...........	1425.87
	91	300.4	3.00458E-001	-1.41000E-004	0.00000E+000	3.00072E-001	0.00000E+000	9	...........	1425.87
	92	300.5	3.00467E-001	-1.15230E-004	0.00000E+000	3.00072E-001	0.00000E+000	9	...........	1425.87
	93	300.6	3.00453E-001	-9.73231E-005	0.00000E+000	3.00072E-001	0.00000E+000	9	...........	1425.87
	94	300.7	3.00460E-001	-8.44946E-005	0.00000E+000	3.00072E-001	0.00000E+000	9	...........	1425.87
	95	300.8	3.00455E-001	-7.49147E-005	0.00000E+000	3.00072E-001	0.00000E+000	9	...........	1425.87
	96	300.9	3.00459E-001	-6.75777E-005	0.00000E+000	3.00072E-001	0.00000E+000	9	...........	1425.87
	97	301	3.00463E-001	-6.17603E-005	0.00000E+000	3.00072E-001	0.00000E+000	9	...........	1425.87
