EXPLAIN
TAG	CHRONOA
TITLE	LABEL	Chronoamperometry Scan	Test Identifier
DATE	LABEL	21/12/2021	Date
TIME	LABEL	14:25:19	Time
NOTES	NOTES	1	Notes...
	
PSTAT	PSTAT	IFC1010-21051	Potentiostat
VPRESTEP	POTEN	3.00000E-001	F	Pre-step Voltage (V)
TPRESTEP	QUANT	5.00000E-001	Pre-step Delay Time (s)
VSTEP1	POTEN	4.00000E-001	F	Step 1 Voltage (V)
TSTEP1	QUANT	3.00000E+002	Step 1 Time (s)
VSTEP2	POTEN	3.00000E-001	F	Step 2 Voltage (V)
TSTEP2	QUANT	1.00000E+000	Step 2 Time (s)
SAMPLETIME	QUANT	1.00000E-001	Sample Period (s)
DECIMATE	TOGGLE	T	Decimate
ILIMIT	QUANT	1.00000E+000	Limit I (mA/cm^2)
IMODE	SELECTOR	1	I/E Range Mode
IRANGE	QUANT	3.00000E-001	Max Current (mA)
EQDELAY	QUANT	5.00000E+000	Equil. Time (s)
SAMPLINGMODE	SELECTOR	1	Sampling Mode
AREA	QUANT	1.00000E+000	Sample Area (cm^2)
IRCOMP	SELECTOR	0	IRComp
PFCOR	QUANT	5.00000E+001	PF Corr. (ohm)
SEQUENCER	TOGGLE	TRUE	Run as Sequence
PSTATMODEL	IQUANT	64	Pstat Model
PSTATSECTION	LABEL	IFC1010-21051	Pstat Section
PSTATSERIALNO	LABEL	21051	Pstat Serial Number
CTRLMODE	IQUANT	1	Control Mode
ELECTROMETER	IQUANT	0	RE=0 or CS=1
IESTAB	IQUANT	0	I/E Stability
CASPEED	IQUANT	4	Control Amp Speed
CONVENTION	IQUANT	1	Current Convention
ICHRANGE	IQUANT	2	Ich Range
ICHRANGEMODE	TOGGLE	T	Ich Auto Range
ICHOFFSETENABLE	TOGGLE	F	Ich Offset Enable
ICHOFFSET	QUANT	0	Ich Offset (V)
ICHFILTER	IQUANT	3	Ich Filter
VCHRANGE	IQUANT	3	Vch Range
VCHRANGEMODE	TOGGLE	T	Vch Auto Range
VCHOFFSETENABLE	TOGGLE	F	Vch Offset Enable
VCHOFFSET	QUANT	0	Vch Offset (V)
VCHFILTER	IQUANT	3	Vch Filter
IERANGELOWERLIMIT	IQUANT	4	I/E Range Lower Limit
IERANGEMODE	TOGGLE	F	I/E AutoRange
IERANGE	IQUANT	9	I/E Range
ACHSELECT	IQUANT	0	Ach Select
ACHRANGE	IQUANT	2	Ach Range
ACHOFFSETENABLE	TOGGLE	F	Ach Offset Enable
ACHOFFSET	QUANT	0	Ach Offset (V)
ACHFILTER	IQUANT	1	Ach Filter
SENSECABLEID	IQUANT	14	Sense Cable ID
PWRCABLEID	IQUANT	14	Power Cable ID
DCCALDATE	LABEL	10/1/2020	DC Calibration Date
ACCALDATE	LABEL	4/2/2018	AC Calibration Date
FRAMEWORKVERSION	QUANT	7.06	Framework Version
INSTRUMENTVERSION	LABEL	4.30	Instrument Version
CURVE	TABLE	98
	Pt	T	Vf	Im	Vu	Sig	Ach	IERange	Over	Temp
	#	s	V vs. Ref.	A	V	V	V	#	bits	deg C
	0	-0.4	3.00146E-001	8.35602E-006	0.00000E+000	3.00072E-001	0.00000E+000	9	...........	1426.04
	1	-0.3	3.00449E-001	8.25949E-006	0.00000E+000	3.00072E-001	0.00000E+000	9	...........	1426.04
	2	-0.2	3.00452E-001	8.22001E-006	0.00000E+000	3.00072E-001	0.00000E+000	9	...........	1426.04
	3	-0.1	3.00440E-001	8.17283E-006	0.00000E+000	3.00072E-001	0.00000E+000	9	...........	1426.04
	4	0	3.00447E-001	8.16375E-006	0.00000E+000	3.00072E-001	0.00000E+000	9	...........	1426.04
	5	0.1	4.00495E-001	3.95673E-004	0.00000E+000	4.00072E-001	0.00000E+000	9	...........	1426.04
	6	0.2	4.00483E-001	3.41588E-004	0.00000E+000	4.00072E-001	0.00000E+000	9	...........	1426.04
	7	0.3	4.00492E-001	3.01803E-004	0.00000E+000	4.00072E-001	0.00000E+000	9	...........	1426.04
	8	0.4	4.00497E-001	2.70972E-004	0.00000E+000	4.00072E-001	0.00000E+000	9	...........	1426.04
	9	0.5	4.00488E-001	2.47322E-004	0.00000E+000	4.00072E-001	0.00000E+000	9	...........	1426.04
	10	0.6	4.00500E-001	2.28598E-004	0.00000E+000	4.00072E-001	0.00000E+000	9	...........	1426.04
	11	0.7	4.00494E-001	2.13372E-004	0.00000E+000	4.00072E-001	0.00000E+000	9	...........	1426.04
	12	0.8	4.00491E-001	2.00612E-004	0.00000E+000	4.00072E-001	0.00000E+000	9	...........	1426.04
	13	0.9	4.00499E-001	1.89629E-004	0.00000E+000	4.00072E-001	0.00000E+000	9	...........	1426.04
	14	1	4.00484E-001	1.80144E-004	0.00000E+000	4.00072E-001	0.00000E+000	9	...........	1426.04
	15	1.1	4.00489E-001	1.71687E-004	0.00000E+000	4.00072E-001	0.00000E+000	9	...........	1426.04
	16	1.2	4.00497E-001	1.64236E-004	0.00000E+000	4.00072E-001	0.00000E+000	9	...........	1426.04
	17	1.3	4.00482E-001	1.57535E-004	0.00000E+000	4.00072E-001	0.00000E+000	9	...........	1426.04
	18	1.4	4.00488E-001	1.51474E-004	0.00000E+000	4.00072E-001	0.00000E+000	9	...........	1426.04
	19	1.5	4.00491E-001	1.45920E-004	0.00000E+000	4.00072E-001	0.00000E+000	9	...........	1426.04
	20	1.6	4.00502E-001	1.40876E-004	0.00000E+000	4.00072E-001	0.00000E+000	9	...........	1426.04
	21	1.7	4.00492E-001	1.36223E-004	0.00000E+000	4.00072E-001	0.00000E+000	9	...........	1426.04
	22	1.8	4.00507E-001	1.31895E-004	0.00000E+000	4.00072E-001	0.00000E+000	9	...........	1426.04
	23	1.9	4.00485E-001	1.27980E-004	0.00000E+000	4.00072E-001	0.00000E+000	9	...........	1426.04
	24	2	4.00485E-001	1.24249E-004	0.00000E+000	4.00072E-001	0.00000E+000	9	...........	1426.04
	25	2.1	4.00512E-001	1.20822E-004	0.00000E+000	4.00072E-001	0.00000E+000	9	...........	1426.04
	26	2.2	4.00495E-001	1.17663E-004	0.00000E+000	4.00072E-001	0.00000E+000	9	...........	1426.04
	27	2.3	4.00510E-001	1.14645E-004	0.00000E+000	4.00072E-001	0.00000E+000	9	...........	1425.78
	28	2.4	4.00505E-001	1.11712E-004	0.00000E+000	4.00072E-001	0.00000E+000	9	...........	1425.78
	29	2.5	4.00501E-001	1.09095E-004	0.00000E+000	4.00072E-001	0.00000E+000	9	...........	1425.78
	30	2.6	4.00494E-001	1.06559E-004	0.00000E+000	4.00072E-001	0.00000E+000	9	...........	1425.78
	31	2.7	4.00490E-001	1.04186E-004	0.00000E+000	4.00072E-001	0.00000E+000	9	...........	1425.78
	32	2.8	4.00488E-001	1.01871E-004	0.00000E+000	4.00072E-001	0.00000E+000	9	...........	1425.78
	33	2.9	4.00504E-001	9.97046E-005	0.00000E+000	4.00072E-001	0.00000E+000	9	...........	1425.78
	34	3	4.00493E-001	9.76563E-005	0.00000E+000	4.00072E-001	0.00000E+000	9	...........	1425.78
	35	3.1	4.00496E-001	9.56889E-005	0.00000E+000	4.00072E-001	0.00000E+000	9	...........	1425.78
	36	3.2	4.00487E-001	9.37386E-005	0.00000E+000	4.00072E-001	0.00000E+000	9	...........	1425.78
	37	3.3	4.00480E-001	9.19333E-005	0.00000E+000	4.00072E-001	0.00000E+000	9	...........	1425.60
	38	3.4	4.00491E-001	9.01610E-005	0.00000E+000	4.00072E-001	0.00000E+000	9	...........	1425.60
	39	3.5	4.00490E-001	8.84862E-005	0.00000E+000	4.00072E-001	0.00000E+000	9	...........	1425.60
	40	3.6	4.00502E-001	8.69163E-005	0.00000E+000	4.00072E-001	0.00000E+000	9	...........	1425.60
	41	3.7	4.00489E-001	8.53439E-005	0.00000E+000	4.00072E-001	0.00000E+000	9	...........	1425.60
	42	3.8	4.00492E-001	8.38193E-005	0.00000E+000	4.00072E-001	0.00000E+000	9	...........	1425.60
	43	3.9	4.00486E-001	8.24346E-005	0.00000E+000	4.00072E-001	0.00000E+000	9	...........	1425.60
	44	4	4.00493E-001	8.10455E-005	0.00000E+000	4.00072E-001	0.00000E+000	9	...........	1425.60
	45	4.1	4.00498E-001	7.97200E-005	0.00000E+000	4.00072E-001	0.00000E+000	9	...........	1425.60
	46	4.2	4.00516E-001	7.84303E-005	0.00000E+000	4.00072E-001	0.00000E+000	9	...........	1425.60
	47	4.3	4.00493E-001	7.72104E-005	0.00000E+000	4.00072E-001	0.00000E+000	9	...........	1425.60
	48	4.4	4.00489E-001	7.59914E-005	0.00000E+000	4.00072E-001	0.00000E+000	9	...........	1425.60
	49	4.5	4.00500E-001	7.48580E-005	0.00000E+000	4.00072E-001	0.00000E+000	9	...........	1425.60
	50	4.6	4.00494E-001	7.37946E-005	0.00000E+000	4.00072E-001	0.00000E+000	9	...........	1425.60
	51	4.7	4.00494E-001	7.26887E-005	0.00000E+000	4.00072E-001	0.00000E+000	9	...........	1425.60
	52	4.8	4.00506E-001	7.16375E-005	0.00000E+000	4.00072E-001	0.00000E+000	9	...........	1425.60
	53	4.9	4.00495E-001	7.06929E-005	0.00000E+000	4.00072E-001	0.00000E+000	9	...........	1425.60
	54	5	4.00493E-001	6.97149E-005	0.00000E+000	4.00072E-001	0.00000E+000	9	...........	1425.60
	55	5.1	4.00500E-001	6.87735E-005	0.00000E+000	4.00072E-001	0.00000E+000	9	...........	1425.60
	56	5.2	4.00490E-001	6.78892E-005	0.00000E+000	4.00072E-001	0.00000E+000	9	...........	1425.60
	57	5.3	4.00489E-001	6.69872E-005	0.00000E+000	4.00072E-001	0.00000E+000	9	...........	1425.78
	58	5.4	4.00502E-001	6.60672E-005	0.00000E+000	4.00072E-001	0.00000E+000	9	...........	1425.78
	59	5.5	4.00497E-001	6.52177E-005	0.00000E+000	4.00072E-001	0.00000E+000	9	...........	1425.78
	60	5.6	4.00495E-001	6.44586E-005	0.00000E+000	4.00072E-001	0.00000E+000	9	...........	1425.78
	61	5.7	4.00503E-001	6.36712E-005	0.00000E+000	4.00072E-001	0.00000E+000	9	...........	1425.78
	62	5.8	4.00494E-001	6.29083E-005	0.00000E+000	4.00072E-001	0.00000E+000	9	...........	1425.78
	63	5.9	4.00495E-001	6.21833E-005	0.00000E+000	4.00072E-001	0.00000E+000	9	...........	1425.78
	64	6	4.00508E-001	6.14408E-005	0.00000E+000	4.00072E-001	0.00000E+000	9	...........	1425.78
	65	6.1	4.00497E-001	6.07782E-005	0.00000E+000	4.00072E-001	0.00000E+000	9	...........	1425.78
	66	7.1	4.00499E-001	5.50143E-005	0.00000E+000	4.00072E-001	0.00000E+000	9	...........	1425.95
	67	8.1	4.00487E-001	5.04303E-005	0.00000E+000	4.00072E-001	0.00000E+000	9	...........	1426.04
	68	9.1	4.00478E-001	4.67960E-005	0.00000E+000	4.00072E-001	0.00000E+000	9	...........	1426.04
	69	10.1	4.00506E-001	4.34963E-005	0.00000E+000	4.00072E-001	0.00000E+000	9	...........	1426.04
	70	11.1	4.00497E-001	4.08083E-005	0.00000E+000	4.00072E-001	0.00000E+000	9	...........	1426.04
	71	12.1	4.00500E-001	3.84297E-005	0.00000E+000	4.00072E-001	0.00000E+000	9	...........	1426.04
	72	13.1	4.00491E-001	3.66312E-005	0.00000E+000	4.00072E-001	0.00000E+000	9	...........	1426.04
	73	14.1	4.00496E-001	3.49547E-005	0.00000E+000	4.00072E-001	0.00000E+000	9	...........	1426.04
	74	15.1	4.00495E-001	3.34575E-005	0.00000E+000	4.00072E-001	0.00000E+000	9	...........	1426.04
	75	16.1	4.00495E-001	3.18720E-005	0.00000E+000	4.00072E-001	0.00000E+000	9	...........	1426.04
	76	26.1	4.00492E-001	2.35622E-005	0.00000E+000	4.00072E-001	0.00000E+000	9	...........	1426.04
	77	36.1	4.00502E-001	1.97042E-005	0.00000E+000	4.00072E-001	0.00000E+000	9	...........	1426.04
	78	46.1	4.00486E-001	1.77861E-005	0.00000E+000	4.00072E-001	0.00000E+000	9	...........	1426.04
	79	56.1	4.00497E-001	1.67446E-005	0.00000E+000	4.00072E-001	0.00000E+000	9	...........	1426.04
	80	66.1	4.00502E-001	1.57595E-005	0.00000E+000	4.00072E-001	0.00000E+000	9	...........	1426.04
	81	76.1	4.00501E-001	1.49639E-005	0.00000E+000	4.00072E-001	0.00000E+000	9	...........	1426.04
	82	86.1	4.00499E-001	1.44508E-005	0.00000E+000	4.00072E-001	0.00000E+000	9	...........	1426.04
	83	96.1	4.00490E-001	1.41337E-005	0.00000E+000	4.00072E-001	0.00000E+000	9	...........	1426.04
	84	106.1	4.00505E-001	1.40180E-005	0.00000E+000	4.00072E-001	0.00000E+000	9	...........	1426.04
	85	116.1	4.00502E-001	1.35914E-005	0.00000E+000	4.00072E-001	0.00000E+000	9	...........	1426.04
	86	216.1	4.00497E-001	1.26164E-005	0.00000E+000	4.00072E-001	0.00000E+000	9	...........	1426.04
	87	300	4.00500E-001	1.22557E-005	0.00000E+000	4.00072E-001	0.00000E+000	9	...........	1426.04
	88	300.1	3.00457E-001	-3.54933E-004	0.00000E+000	3.00072E-001	0.00000E+000	9	...........	1426.04
	89	300.2	3.00456E-001	-2.59394E-004	0.00000E+000	3.00072E-001	0.00000E+000	9	...........	1426.04
	90	300.3	3.00446E-001	-1.99589E-004	0.00000E+000	3.00072E-001	0.00000E+000	9	...........	1426.04
	91	300.4	3.00443E-001	-1.60025E-004	0.00000E+000	3.00072E-001	0.00000E+000	9	...........	1426.04
	92	300.5	3.00451E-001	-1.32971E-004	0.00000E+000	3.00072E-001	0.00000E+000	9	...........	1426.04
	93	300.6	3.00461E-001	-1.13795E-004	0.00000E+000	3.00072E-001	0.00000E+000	9	...........	1426.04
	94	300.7	3.00443E-001	-9.97538E-005	0.00000E+000	3.00072E-001	0.00000E+000	9	...........	1426.04
	95	300.8	3.00449E-001	-8.91600E-005	0.00000E+000	3.00072E-001	0.00000E+000	9	...........	1426.04
	96	300.9	3.00460E-001	-8.09325E-005	0.00000E+000	3.00072E-001	0.00000E+000	9	...........	1426.04
	97	301	3.00454E-001	-7.42832E-005	0.00000E+000	3.00072E-001	0.00000E+000	9	...........	1426.04
