EXPLAIN
TAG	CHRONOA
TITLE	LABEL	Chronoamperometry Scan	Test Identifier
DATE	LABEL	21/12/2021	Date
TIME	LABEL	15:02:52	Time
NOTES	NOTES	1	Notes...
	
PSTAT	PSTAT	IFC1010-21051	Potentiostat
VPRESTEP	POTEN	1.00000E-002	F	Pre-step Voltage (V)
TPRESTEP	QUANT	5.00000E-001	Pre-step Delay Time (s)
VSTEP1	POTEN	0.00000E+000	F	Step 1 Voltage (V)
TSTEP1	QUANT	3.00000E+002	Step 1 Time (s)
VSTEP2	POTEN	-1.00000E-001	T	Step 2 Voltage (V)
TSTEP2	QUANT	1.00000E+000	Step 2 Time (s)
SAMPLETIME	QUANT	1.00000E-001	Sample Period (s)
DECIMATE	TOGGLE	T	Decimate
ILIMIT	QUANT	1.00000E+000	Limit I (mA/cm^2)
IMODE	SELECTOR	1	I/E Range Mode
IRANGE	QUANT	3.00000E-001	Max Current (mA)
EQDELAY	QUANT	5.00000E+000	Equil. Time (s)
SAMPLINGMODE	SELECTOR	1	Sampling Mode
AREA	QUANT	1.00000E+000	Sample Area (cm^2)
IRCOMP	SELECTOR	0	IRComp
PFCOR	QUANT	5.00000E+001	PF Corr. (ohm)
SEQUENCER	TOGGLE	TRUE	Run as Sequence
PSTATMODEL	IQUANT	64	Pstat Model
PSTATSECTION	LABEL	IFC1010-21051	Pstat Section
PSTATSERIALNO	LABEL	21051	Pstat Serial Number
CTRLMODE	IQUANT	1	Control Mode
ELECTROMETER	IQUANT	0	RE=0 or CS=1
IESTAB	IQUANT	0	I/E Stability
CASPEED	IQUANT	4	Control Amp Speed
CONVENTION	IQUANT	1	Current Convention
ICHRANGE	IQUANT	2	Ich Range
ICHRANGEMODE	TOGGLE	T	Ich Auto Range
ICHOFFSETENABLE	TOGGLE	F	Ich Offset Enable
ICHOFFSET	QUANT	0	Ich Offset (V)
ICHFILTER	IQUANT	3	Ich Filter
VCHRANGE	IQUANT	3	Vch Range
VCHRANGEMODE	TOGGLE	T	Vch Auto Range
VCHOFFSETENABLE	TOGGLE	F	Vch Offset Enable
VCHOFFSET	QUANT	0	Vch Offset (V)
VCHFILTER	IQUANT	3	Vch Filter
IERANGELOWERLIMIT	IQUANT	4	I/E Range Lower Limit
IERANGEMODE	TOGGLE	F	I/E AutoRange
IERANGE	IQUANT	9	I/E Range
ACHSELECT	IQUANT	0	Ach Select
ACHRANGE	IQUANT	2	Ach Range
ACHOFFSETENABLE	TOGGLE	F	Ach Offset Enable
ACHOFFSET	QUANT	0	Ach Offset (V)
ACHFILTER	IQUANT	1	Ach Filter
SENSECABLEID	IQUANT	14	Sense Cable ID
PWRCABLEID	IQUANT	14	Power Cable ID
DCCALDATE	LABEL	10/1/2020	DC Calibration Date
ACCALDATE	LABEL	4/2/2018	AC Calibration Date
FRAMEWORKVERSION	QUANT	7.06	Framework Version
INSTRUMENTVERSION	LABEL	4.30	Instrument Version
CURVE	TABLE	98
	Pt	T	Vf	Im	Vu	Sig	Ach	IERange	Over	Temp
	#	s	V vs. Ref.	A	V	V	V	#	bits	deg C
	0	-0.4	9.68188E-003	-7.29173E-006	0.00000E+000	1.00559E-002	0.00000E+000	9	...........	1426.04
	1	-0.3	1.00169E-002	-7.23287E-006	0.00000E+000	1.00559E-002	0.00000E+000	9	...........	1426.04
	2	-0.2	1.00789E-002	-7.16449E-006	0.00000E+000	1.00559E-002	0.00000E+000	9	...........	1426.04
	3	-0.1	1.00852E-002	-7.10920E-006	0.00000E+000	1.00559E-002	0.00000E+000	9	...........	1426.04
	4	0	1.00846E-002	-7.04958E-006	0.00000E+000	1.00559E-002	0.00000E+000	9	...........	1426.04
	5	0.1	7.89662E-005	-2.74603E-005	0.00000E+000	5.34840E-005	0.00000E+000	9	...........	1426.04
	6	0.2	7.71550E-005	-1.66526E-005	0.00000E+000	5.34840E-005	0.00000E+000	9	...........	1426.04
	7	0.3	7.67805E-005	-1.26407E-005	0.00000E+000	5.34840E-005	0.00000E+000	9	...........	1426.04
	8	0.4	7.56521E-005	-1.08532E-005	0.00000E+000	5.34840E-005	0.00000E+000	9	...........	1426.04
	9	0.5	7.58173E-005	-9.94927E-006	0.00000E+000	5.34840E-005	0.00000E+000	9	...........	1426.04
	10	0.6	7.67004E-005	-9.43631E-006	0.00000E+000	5.34840E-005	0.00000E+000	9	...........	1425.96
	11	0.7	7.56802E-005	-9.09923E-006	0.00000E+000	5.34840E-005	0.00000E+000	9	...........	1425.78
	12	0.8	7.62569E-005	-8.84763E-006	0.00000E+000	5.34840E-005	0.00000E+000	9	...........	1425.78
	13	0.9	7.55320E-005	-8.65817E-006	0.00000E+000	5.34840E-005	0.00000E+000	9	...........	1425.78
	14	1	7.49923E-005	-8.49584E-006	0.00000E+000	5.34840E-005	0.00000E+000	9	...........	1425.78
	15	1.1	7.55260E-005	-8.36230E-006	0.00000E+000	5.34840E-005	0.00000E+000	9	...........	1425.78
	16	1.2	7.47370E-005	-8.24975E-006	0.00000E+000	5.34840E-005	0.00000E+000	9	...........	1425.78
	17	1.3	7.53017E-005	-8.14637E-006	0.00000E+000	5.34840E-005	0.00000E+000	9	...........	1425.78
	18	1.4	7.48081E-005	-8.04527E-006	0.00000E+000	5.34840E-005	0.00000E+000	9	...........	1425.78
	19	1.5	7.48982E-005	-7.96532E-006	0.00000E+000	5.34840E-005	0.00000E+000	9	...........	1425.78
	20	1.6	7.65673E-005	-7.88043E-006	0.00000E+000	5.34840E-005	0.00000E+000	9	...........	1425.89
	21	1.7	7.56141E-005	-7.80786E-006	0.00000E+000	5.34840E-005	0.00000E+000	9	...........	1426.13
	22	1.8	7.60376E-005	-7.72984E-006	0.00000E+000	5.34840E-005	0.00000E+000	9	...........	1426.13
	23	1.9	7.59095E-005	-7.65784E-006	0.00000E+000	5.34840E-005	0.00000E+000	9	...........	1426.13
	24	2	7.50174E-005	-7.60368E-006	0.00000E+000	5.34840E-005	0.00000E+000	9	...........	1426.13
	25	2.1	7.45968E-005	-7.54632E-006	0.00000E+000	5.34840E-005	0.00000E+000	9	...........	1426.13
	26	2.2	7.50764E-005	-7.47999E-006	0.00000E+000	5.34840E-005	0.00000E+000	9	...........	1426.13
	27	2.3	7.37508E-005	-7.42833E-006	0.00000E+000	5.34840E-005	0.00000E+000	9	...........	1426.13
	28	2.4	7.43485E-005	-7.37545E-006	0.00000E+000	5.34840E-005	0.00000E+000	9	...........	1426.13
	29	2.5	7.63360E-005	-7.31949E-006	0.00000E+000	5.34840E-005	0.00000E+000	9	...........	1426.13
	30	2.6	7.45047E-005	-7.26800E-006	0.00000E+000	5.34840E-005	0.00000E+000	9	...........	1426.13
	31	2.7	7.50374E-005	-7.21545E-006	0.00000E+000	5.34840E-005	0.00000E+000	9	...........	1426.13
	32	2.8	7.44066E-005	-7.17504E-006	0.00000E+000	5.34840E-005	0.00000E+000	9	...........	1426.13
	33	2.9	7.43796E-005	-7.12756E-006	0.00000E+000	5.34840E-005	0.00000E+000	9	...........	1426.13
	34	3	7.33193E-005	-7.08121E-006	0.00000E+000	5.34840E-005	0.00000E+000	9	...........	1426.13
	35	3.1	7.55240E-005	-7.04077E-006	0.00000E+000	5.34840E-005	0.00000E+000	9	...........	1426.13
	36	3.2	7.47500E-005	-6.99906E-006	0.00000E+000	5.34840E-005	0.00000E+000	9	...........	1426.13
	37	3.3	7.41303E-005	-6.96435E-006	0.00000E+000	5.34840E-005	0.00000E+000	9	...........	1426.13
	38	3.4	7.45167E-005	-6.92325E-006	0.00000E+000	5.34840E-005	0.00000E+000	9	...........	1426.13
	39	3.5	7.50184E-005	-6.88524E-006	0.00000E+000	5.34840E-005	0.00000E+000	9	...........	1426.13
	40	3.6	7.58133E-005	-6.85224E-006	0.00000E+000	5.34840E-005	0.00000E+000	9	...........	1426.19
	41	3.7	7.48702E-005	-6.81767E-006	0.00000E+000	5.34840E-005	0.00000E+000	9	...........	1426.31
	42	3.8	7.50694E-005	-6.77983E-006	0.00000E+000	5.34840E-005	0.00000E+000	9	...........	1426.31
	43	3.9	7.44447E-005	-6.75037E-006	0.00000E+000	5.34840E-005	0.00000E+000	9	...........	1426.31
	44	4	7.54189E-005	-6.71543E-006	0.00000E+000	5.34840E-005	0.00000E+000	9	...........	1426.31
	45	4.1	7.55770E-005	-6.68023E-006	0.00000E+000	5.34840E-005	0.00000E+000	9	...........	1426.31
	46	4.2	7.60236E-005	-6.64923E-006	0.00000E+000	5.34840E-005	0.00000E+000	9	...........	1426.31
	47	4.3	7.46209E-005	-6.62868E-006	0.00000E+000	5.34840E-005	0.00000E+000	9	...........	1426.31
	48	4.4	7.45298E-005	-6.59624E-006	0.00000E+000	5.34840E-005	0.00000E+000	9	...........	1426.31
	49	4.5	7.64761E-005	-6.56094E-006	0.00000E+000	5.34840E-005	0.00000E+000	9	...........	1426.31
	50	4.6	7.40041E-005	-6.53458E-006	0.00000E+000	5.34840E-005	0.00000E+000	9	...........	1426.22
	51	4.7	7.48291E-005	-6.50141E-006	0.00000E+000	5.34840E-005	0.00000E+000	9	...........	1426.04
	52	4.8	7.60226E-005	-6.47722E-006	0.00000E+000	5.34840E-005	0.00000E+000	9	...........	1426.04
	53	4.9	7.61568E-005	-6.44729E-006	0.00000E+000	5.34840E-005	0.00000E+000	9	...........	1426.04
	54	5	7.61628E-005	-6.41826E-006	0.00000E+000	5.34840E-005	0.00000E+000	9	...........	1426.04
	55	5.1	7.48391E-005	-6.39797E-006	0.00000E+000	5.34840E-005	0.00000E+000	9	...........	1426.04
	56	5.2	7.52116E-005	-6.36684E-006	0.00000E+000	5.34840E-005	0.00000E+000	9	...........	1426.04
	57	5.3	7.55140E-005	-6.33507E-006	0.00000E+000	5.34840E-005	0.00000E+000	9	...........	1426.04
	58	5.4	7.38049E-005	-6.31282E-006	0.00000E+000	5.34840E-005	0.00000E+000	9	...........	1426.04
	59	5.5	7.60456E-005	-6.27781E-006	0.00000E+000	5.34840E-005	0.00000E+000	9	...........	1426.04
	60	5.6	7.46840E-005	-6.24228E-006	0.00000E+000	5.34840E-005	0.00000E+000	9	...........	1426.04
	61	5.7	7.57653E-005	-6.21615E-006	0.00000E+000	5.34840E-005	0.00000E+000	9	...........	1426.04
	62	5.8	7.51615E-005	-6.18702E-006	0.00000E+000	5.34840E-005	0.00000E+000	9	...........	1426.04
	63	5.9	7.56912E-005	-6.14985E-006	0.00000E+000	5.34840E-005	0.00000E+000	9	...........	1426.04
	64	6	7.59185E-005	-6.12062E-006	0.00000E+000	5.34840E-005	0.00000E+000	9	...........	1426.04
	65	6.1	7.56331E-005	-6.09306E-006	0.00000E+000	5.34840E-005	0.00000E+000	9	...........	1426.04
	66	7.1	7.60917E-005	-5.82171E-006	0.00000E+000	5.34840E-005	0.00000E+000	9	...........	1426.04
	67	8.1	7.67515E-005	-5.59624E-006	0.00000E+000	5.34840E-005	0.00000E+000	9	...........	1426.31
	68	9.1	7.56341E-005	-5.34749E-006	0.00000E+000	5.34840E-005	0.00000E+000	9	...........	1426.31
	69	10.1	7.48722E-005	-5.23027E-006	0.00000E+000	5.34840E-005	0.00000E+000	9	...........	1426.40
	70	11.1	7.43575E-005	-5.12442E-006	0.00000E+000	5.34840E-005	0.00000E+000	9	...........	1426.40
	71	12.1	7.42044E-005	-5.02372E-006	0.00000E+000	5.34840E-005	0.00000E+000	9	...........	1426.40
	72	13.1	7.37848E-005	-4.97951E-006	0.00000E+000	5.34840E-005	0.00000E+000	9	...........	1426.40
	73	14.1	7.50724E-005	-4.92772E-006	0.00000E+000	5.34840E-005	0.00000E+000	9	...........	1426.40
	74	15.1	7.34795E-005	-4.84814E-006	0.00000E+000	5.34840E-005	0.00000E+000	9	...........	1426.40
	75	16.1	7.50474E-005	-4.76896E-006	0.00000E+000	5.34840E-005	0.00000E+000	9	...........	1426.31
	76	26.1	7.50324E-005	-4.24999E-006	0.00000E+000	5.34840E-005	0.00000E+000	9	...........	1426.40
	77	36.1	7.64381E-005	-3.94571E-006	0.00000E+000	5.34840E-005	0.00000E+000	9	...........	1426.40
	78	46.1	7.58003E-005	-3.74066E-006	0.00000E+000	5.34840E-005	0.00000E+000	9	...........	1426.31
	79	56.1	7.57533E-005	-3.61276E-006	0.00000E+000	5.34840E-005	0.00000E+000	9	...........	1426.31
	80	66.1	7.48962E-005	-3.69932E-006	0.00000E+000	5.34840E-005	0.00000E+000	9	...........	1426.40
	81	76.1	7.53678E-005	-3.72218E-006	0.00000E+000	5.34840E-005	0.00000E+000	9	...........	1426.31
	82	86.1	7.43676E-005	-3.46418E-006	0.00000E+000	5.34840E-005	0.00000E+000	9	...........	1426.40
	83	96.1	7.37037E-005	-3.19053E-006	0.00000E+000	5.34840E-005	0.00000E+000	9	...........	1426.40
	84	106.1	7.51015E-005	-3.47622E-006	0.00000E+000	5.34840E-005	0.00000E+000	9	...........	1426.31
	85	116.1	7.66123E-005	-3.14992E-006	0.00000E+000	5.34840E-005	0.00000E+000	9	...........	1426.31
	86	216.1	7.61507E-005	-3.19834E-006	0.00000E+000	5.34840E-005	0.00000E+000	9	...........	1426.40
	87	300	7.56371E-005	-2.95462E-006	0.00000E+000	5.34840E-005	0.00000E+000	9	...........	1426.40
	88	300.1	-3.29021E-002	-2.04111E-004	0.00000E+000	-9.99460E-002	0.00000E+000	9	.........v.	1426.40
	89	300.2	-9.99443E-002	-9.40512E-005	0.00000E+000	-9.99460E-002	0.00000E+000	9	...........	1426.40
	90	300.3	-9.99410E-002	-5.70653E-005	0.00000E+000	-9.99460E-002	0.00000E+000	9	...........	1426.40
	91	300.4	-9.99415E-002	-4.25442E-005	0.00000E+000	-9.99460E-002	0.00000E+000	9	...........	1426.40
	92	300.5	-9.99422E-002	-3.60858E-005	0.00000E+000	-9.99460E-002	0.00000E+000	9	...........	1426.40
	93	300.6	-9.99417E-002	-3.27979E-005	0.00000E+000	-9.99460E-002	0.00000E+000	9	...........	1426.40
	94	300.7	-9.99416E-002	-3.09273E-005	0.00000E+000	-9.99460E-002	0.00000E+000	9	...........	1426.40
	95	300.8	-9.99427E-002	-2.97154E-005	0.00000E+000	-9.99460E-002	0.00000E+000	9	...........	1426.40
	96	300.9	-9.99438E-002	-2.88474E-005	0.00000E+000	-9.99460E-002	0.00000E+000	9	...........	1426.40
	97	301	-9.99418E-002	-2.81793E-005	0.00000E+000	-9.99460E-002	0.00000E+000	9	...........	1426.40
