EXPLAIN
TAG	CHRONOA
TITLE	LABEL	Chronoamperometry Scan	Test Identifier
DATE	LABEL	21/12/2021	Date
TIME	LABEL	15:54:47	Time
NOTES	NOTES	1	Notes...
	
PSTAT	PSTAT	IFC1010-21051	Potentiostat
VPRESTEP	POTEN	3.00000E-001	F	Pre-step Voltage (V)
TPRESTEP	QUANT	5.00000E-001	Pre-step Delay Time (s)
VSTEP1	POTEN	4.00000E-001	F	Step 1 Voltage (V)
TSTEP1	QUANT	3.00000E+002	Step 1 Time (s)
VSTEP2	POTEN	3.00000E-001	F	Step 2 Voltage (V)
TSTEP2	QUANT	1.00000E+000	Step 2 Time (s)
SAMPLETIME	QUANT	1.00000E-001	Sample Period (s)
DECIMATE	TOGGLE	T	Decimate
ILIMIT	QUANT	1.00000E+000	Limit I (mA/cm^2)
IMODE	SELECTOR	1	I/E Range Mode
IRANGE	QUANT	3.00000E-001	Max Current (mA)
EQDELAY	QUANT	5.00000E+000	Equil. Time (s)
SAMPLINGMODE	SELECTOR	1	Sampling Mode
AREA	QUANT	1.00000E+000	Sample Area (cm^2)
IRCOMP	SELECTOR	0	IRComp
PFCOR	QUANT	5.00000E+001	PF Corr. (ohm)
SEQUENCER	TOGGLE	TRUE	Run as Sequence
PSTATMODEL	IQUANT	64	Pstat Model
PSTATSECTION	LABEL	IFC1010-21051	Pstat Section
PSTATSERIALNO	LABEL	21051	Pstat Serial Number
CTRLMODE	IQUANT	1	Control Mode
ELECTROMETER	IQUANT	0	RE=0 or CS=1
IESTAB	IQUANT	0	I/E Stability
CASPEED	IQUANT	4	Control Amp Speed
CONVENTION	IQUANT	1	Current Convention
ICHRANGE	IQUANT	2	Ich Range
ICHRANGEMODE	TOGGLE	T	Ich Auto Range
ICHOFFSETENABLE	TOGGLE	F	Ich Offset Enable
ICHOFFSET	QUANT	0	Ich Offset (V)
ICHFILTER	IQUANT	3	Ich Filter
VCHRANGE	IQUANT	3	Vch Range
VCHRANGEMODE	TOGGLE	T	Vch Auto Range
VCHOFFSETENABLE	TOGGLE	F	Vch Offset Enable
VCHOFFSET	QUANT	0	Vch Offset (V)
VCHFILTER	IQUANT	3	Vch Filter
IERANGELOWERLIMIT	IQUANT	4	I/E Range Lower Limit
IERANGEMODE	TOGGLE	F	I/E AutoRange
IERANGE	IQUANT	9	I/E Range
ACHSELECT	IQUANT	0	Ach Select
ACHRANGE	IQUANT	2	Ach Range
ACHOFFSETENABLE	TOGGLE	F	Ach Offset Enable
ACHOFFSET	QUANT	0	Ach Offset (V)
ACHFILTER	IQUANT	1	Ach Filter
SENSECABLEID	IQUANT	14	Sense Cable ID
PWRCABLEID	IQUANT	14	Power Cable ID
DCCALDATE	LABEL	10/1/2020	DC Calibration Date
ACCALDATE	LABEL	4/2/2018	AC Calibration Date
FRAMEWORKVERSION	QUANT	7.06	Framework Version
INSTRUMENTVERSION	LABEL	4.30	Instrument Version
CURVE	TABLE	98
	Pt	T	Vf	Im	Vu	Sig	Ach	IERange	Over	Temp
	#	s	V vs. Ref.	A	V	V	V	#	bits	deg C
	0	-0.4	3.00094E-001	2.00357E-005	0.00000E+000	3.00072E-001	0.00000E+000	9	...........	1426.13
	1	-0.3	3.00436E-001	1.98631E-005	0.00000E+000	3.00072E-001	0.00000E+000	9	...........	1426.13
	2	-0.2	3.00440E-001	1.97280E-005	0.00000E+000	3.00072E-001	0.00000E+000	9	...........	1426.13
	3	-0.1	3.00452E-001	1.95897E-005	0.00000E+000	3.00072E-001	0.00000E+000	9	...........	1426.13
	4	0	3.00443E-001	1.94395E-005	0.00000E+000	3.00072E-001	0.00000E+000	9	...........	1426.13
	5	0.1	4.00487E-001	4.74635E-004	0.00000E+000	4.00072E-001	0.00000E+000	9	...........	1426.13
	6	0.2	4.00485E-001	4.34269E-004	0.00000E+000	4.00072E-001	0.00000E+000	9	...........	1426.13
	7	0.3	4.00487E-001	4.01529E-004	0.00000E+000	4.00072E-001	0.00000E+000	9	...........	1426.13
	8	0.4	4.00485E-001	3.68808E-004	0.00000E+000	4.00072E-001	0.00000E+000	9	...........	1426.13
	9	0.5	4.00486E-001	3.40027E-004	0.00000E+000	4.00072E-001	0.00000E+000	9	...........	1426.13
	10	0.6	4.00496E-001	3.16027E-004	0.00000E+000	4.00072E-001	0.00000E+000	9	...........	1426.13
	11	0.7	4.00499E-001	2.96078E-004	0.00000E+000	4.00072E-001	0.00000E+000	9	...........	1426.13
	12	0.8	4.00491E-001	2.79321E-004	0.00000E+000	4.00072E-001	0.00000E+000	9	...........	1426.13
	13	0.9	4.00493E-001	2.64861E-004	0.00000E+000	4.00072E-001	0.00000E+000	9	...........	1426.13
	14	1	4.00494E-001	2.52253E-004	0.00000E+000	4.00072E-001	0.00000E+000	9	...........	1425.69
	15	1.1	4.00485E-001	2.41044E-004	0.00000E+000	4.00072E-001	0.00000E+000	9	...........	1425.69
	16	1.2	4.00493E-001	2.30969E-004	0.00000E+000	4.00072E-001	0.00000E+000	9	...........	1425.69
	17	1.3	4.00479E-001	2.21957E-004	0.00000E+000	4.00072E-001	0.00000E+000	9	...........	1425.69
	18	1.4	4.00488E-001	2.13709E-004	0.00000E+000	4.00072E-001	0.00000E+000	9	...........	1425.69
	19	1.5	4.00495E-001	2.06207E-004	0.00000E+000	4.00072E-001	0.00000E+000	9	...........	1425.69
	20	1.6	4.00491E-001	1.99226E-004	0.00000E+000	4.00072E-001	0.00000E+000	9	...........	1425.69
	21	1.7	4.00484E-001	1.92842E-004	0.00000E+000	4.00072E-001	0.00000E+000	9	...........	1425.69
	22	1.8	4.00490E-001	1.86898E-004	0.00000E+000	4.00072E-001	0.00000E+000	9	...........	1425.69
	23	1.9	4.00490E-001	1.81350E-004	0.00000E+000	4.00072E-001	0.00000E+000	9	...........	1425.69
	24	2	4.00487E-001	1.76167E-004	0.00000E+000	4.00072E-001	0.00000E+000	9	...........	1425.69
	25	2.1	4.00486E-001	1.71311E-004	0.00000E+000	4.00072E-001	0.00000E+000	9	...........	1425.69
	26	2.2	4.00475E-001	1.66705E-004	0.00000E+000	4.00072E-001	0.00000E+000	9	...........	1425.69
	27	2.3	4.00488E-001	1.62372E-004	0.00000E+000	4.00072E-001	0.00000E+000	9	...........	1425.69
	28	2.4	4.00483E-001	1.58269E-004	0.00000E+000	4.00072E-001	0.00000E+000	9	...........	1425.69
	29	2.5	4.00489E-001	1.54410E-004	0.00000E+000	4.00072E-001	0.00000E+000	9	...........	1425.69
	30	2.6	4.00498E-001	1.50758E-004	0.00000E+000	4.00072E-001	0.00000E+000	9	...........	1425.69
	31	2.7	4.00501E-001	1.47284E-004	0.00000E+000	4.00072E-001	0.00000E+000	9	...........	1425.69
	32	2.8	4.00498E-001	1.44034E-004	0.00000E+000	4.00072E-001	0.00000E+000	9	...........	1425.69
	33	2.9	4.00499E-001	1.40957E-004	0.00000E+000	4.00072E-001	0.00000E+000	9	...........	1425.69
	34	3	4.00493E-001	1.38101E-004	0.00000E+000	4.00072E-001	0.00000E+000	9	...........	1425.69
	35	3.1	4.00498E-001	1.35336E-004	0.00000E+000	4.00072E-001	0.00000E+000	9	...........	1425.69
	36	3.2	4.00483E-001	1.32772E-004	0.00000E+000	4.00072E-001	0.00000E+000	9	...........	1425.69
	37	3.3	4.00482E-001	1.30293E-004	0.00000E+000	4.00072E-001	0.00000E+000	9	...........	1425.69
	38	3.4	4.00490E-001	1.27986E-004	0.00000E+000	4.00072E-001	0.00000E+000	9	...........	1425.69
	39	3.5	4.00491E-001	1.25740E-004	0.00000E+000	4.00072E-001	0.00000E+000	9	...........	1425.69
	40	3.6	4.00494E-001	1.23693E-004	0.00000E+000	4.00072E-001	0.00000E+000	9	...........	1425.69
	41	3.7	4.00492E-001	1.21689E-004	0.00000E+000	4.00072E-001	0.00000E+000	9	...........	1425.69
	42	3.8	4.00501E-001	1.19748E-004	0.00000E+000	4.00072E-001	0.00000E+000	9	...........	1425.69
	43	3.9	4.00495E-001	1.17972E-004	0.00000E+000	4.00072E-001	0.00000E+000	9	...........	1425.69
	44	4	4.00495E-001	1.16196E-004	0.00000E+000	4.00072E-001	0.00000E+000	9	...........	1425.60
	45	4.1	4.00501E-001	1.14564E-004	0.00000E+000	4.00072E-001	0.00000E+000	9	...........	1425.60
	46	4.2	4.00497E-001	1.12903E-004	0.00000E+000	4.00072E-001	0.00000E+000	9	...........	1425.60
	47	4.3	4.00486E-001	1.11328E-004	0.00000E+000	4.00072E-001	0.00000E+000	9	...........	1425.60
	48	4.4	4.00494E-001	1.09812E-004	0.00000E+000	4.00072E-001	0.00000E+000	9	...........	1425.60
	49	4.5	4.00486E-001	1.08358E-004	0.00000E+000	4.00072E-001	0.00000E+000	9	...........	1425.60
	50	4.6	4.00490E-001	1.06920E-004	0.00000E+000	4.00072E-001	0.00000E+000	9	...........	1425.60
	51	4.7	4.00493E-001	1.05589E-004	0.00000E+000	4.00072E-001	0.00000E+000	9	...........	1425.60
	52	4.8	4.00514E-001	1.04232E-004	0.00000E+000	4.00072E-001	0.00000E+000	9	...........	1425.60
	53	4.9	4.00490E-001	1.02941E-004	0.00000E+000	4.00072E-001	0.00000E+000	9	...........	1425.60
	54	5	4.00488E-001	1.01743E-004	0.00000E+000	4.00072E-001	0.00000E+000	9	...........	1425.60
	55	5.1	4.00480E-001	1.00551E-004	0.00000E+000	4.00072E-001	0.00000E+000	9	...........	1425.60
	56	5.2	4.00494E-001	9.93711E-005	0.00000E+000	4.00072E-001	0.00000E+000	9	...........	1425.60
	57	5.3	4.00497E-001	9.82094E-005	0.00000E+000	4.00072E-001	0.00000E+000	9	...........	1425.60
	58	5.4	4.00507E-001	9.70635E-005	0.00000E+000	4.00072E-001	0.00000E+000	9	...........	1425.60
	59	5.5	4.00501E-001	9.60336E-005	0.00000E+000	4.00072E-001	0.00000E+000	9	...........	1425.60
	60	5.6	4.00487E-001	9.49931E-005	0.00000E+000	4.00072E-001	0.00000E+000	9	...........	1425.60
	61	5.7	4.00496E-001	9.40125E-005	0.00000E+000	4.00072E-001	0.00000E+000	9	...........	1425.60
	62	5.8	4.00493E-001	9.30480E-005	0.00000E+000	4.00072E-001	0.00000E+000	9	...........	1425.60
	63	5.9	4.00493E-001	9.20969E-005	0.00000E+000	4.00072E-001	0.00000E+000	9	...........	1425.60
	64	6	4.00478E-001	9.12322E-005	0.00000E+000	4.00072E-001	0.00000E+000	9	...........	1425.60
	65	6.1	4.00489E-001	9.03370E-005	0.00000E+000	4.00072E-001	0.00000E+000	9	...........	1425.60
	66	7.1	4.00493E-001	8.24378E-005	0.00000E+000	4.00072E-001	0.00000E+000	9	...........	1425.78
	67	8.1	4.00478E-001	7.60575E-005	0.00000E+000	4.00072E-001	0.00000E+000	9	...........	1426.13
	68	9.1	4.00495E-001	7.10342E-005	0.00000E+000	4.00072E-001	0.00000E+000	9	...........	1426.13
	69	10.1	4.00497E-001	6.66792E-005	0.00000E+000	4.00072E-001	0.00000E+000	9	...........	1426.13
	70	11.1	4.00495E-001	6.29100E-005	0.00000E+000	4.00072E-001	0.00000E+000	9	...........	1426.13
	71	12.1	4.00495E-001	5.95918E-005	0.00000E+000	4.00072E-001	0.00000E+000	9	...........	1426.13
	72	13.1	4.00500E-001	5.63511E-005	0.00000E+000	4.00072E-001	0.00000E+000	9	...........	1426.13
	73	14.1	4.00495E-001	5.36243E-005	0.00000E+000	4.00072E-001	0.00000E+000	9	...........	1426.13
	74	15.1	4.00493E-001	5.12690E-005	0.00000E+000	4.00072E-001	0.00000E+000	9	...........	1426.13
	75	16.1	4.00487E-001	4.90933E-005	0.00000E+000	4.00072E-001	0.00000E+000	9	...........	1426.13
	76	26.1	4.00499E-001	3.70098E-005	0.00000E+000	4.00072E-001	0.00000E+000	9	...........	1426.13
	77	36.1	4.00487E-001	3.11691E-005	0.00000E+000	4.00072E-001	0.00000E+000	9	...........	1426.13
	78	46.1	4.00491E-001	2.81039E-005	0.00000E+000	4.00072E-001	0.00000E+000	9	...........	1426.13
	79	56.1	4.00475E-001	2.57778E-005	0.00000E+000	4.00072E-001	0.00000E+000	9	...........	1426.13
	80	66.1	4.00482E-001	2.44580E-005	0.00000E+000	4.00072E-001	0.00000E+000	9	...........	1426.13
	81	76.1	4.00496E-001	2.32353E-005	0.00000E+000	4.00072E-001	0.00000E+000	9	...........	1426.13
	82	86.1	4.00482E-001	2.25853E-005	0.00000E+000	4.00072E-001	0.00000E+000	9	...........	1426.13
	83	96.1	4.00491E-001	2.17891E-005	0.00000E+000	4.00072E-001	0.00000E+000	9	...........	1426.13
	84	106.1	4.00495E-001	2.14627E-005	0.00000E+000	4.00072E-001	0.00000E+000	9	...........	1426.13
	85	116.1	4.00495E-001	2.10561E-005	0.00000E+000	4.00072E-001	0.00000E+000	9	...........	1426.13
	86	216.1	4.00475E-001	1.85804E-005	0.00000E+000	4.00072E-001	0.00000E+000	9	...........	1426.13
	87	300	4.00498E-001	1.75357E-005	0.00000E+000	4.00072E-001	0.00000E+000	9	...........	1426.13
	88	300.1	3.00455E-001	-4.06647E-004	0.00000E+000	3.00072E-001	0.00000E+000	9	...........	1426.13
	89	300.2	3.00446E-001	-3.24317E-004	0.00000E+000	3.00072E-001	0.00000E+000	9	...........	1426.13
	90	300.3	3.00447E-001	-2.69262E-004	0.00000E+000	3.00072E-001	0.00000E+000	9	...........	1426.13
	91	300.4	3.00450E-001	-2.29006E-004	0.00000E+000	3.00072E-001	0.00000E+000	9	...........	1426.13
	92	300.5	3.00445E-001	-1.98421E-004	0.00000E+000	3.00072E-001	0.00000E+000	9	...........	1426.13
	93	300.6	3.00456E-001	-1.74777E-004	0.00000E+000	3.00072E-001	0.00000E+000	9	...........	1426.13
	94	300.7	3.00442E-001	-1.56070E-004	0.00000E+000	3.00072E-001	0.00000E+000	9	...........	1426.13
	95	300.8	3.00451E-001	-1.41021E-004	0.00000E+000	3.00072E-001	0.00000E+000	9	...........	1426.13
	96	300.9	3.00452E-001	-1.28772E-004	0.00000E+000	3.00072E-001	0.00000E+000	9	...........	1426.13
	97	301	3.00441E-001	-1.18637E-004	0.00000E+000	3.00072E-001	0.00000E+000	9	...........	1426.13
