EXPLAIN
TAG	CHRONOA
TITLE	LABEL	Chronoamperometry Scan	Test Identifier
DATE	LABEL	21/12/2021	Date
TIME	LABEL	11:00:24	Time
NOTES	NOTES	1	Notes...
	
PSTAT	PSTAT	IFC1010-21051	Potentiostat
VPRESTEP	POTEN	3.00000E-001	F	Pre-step Voltage (V)
TPRESTEP	QUANT	5.00000E-001	Pre-step Delay Time (s)
VSTEP1	POTEN	4.00000E-001	F	Step 1 Voltage (V)
TSTEP1	QUANT	3.00000E+002	Step 1 Time (s)
VSTEP2	POTEN	3.00000E-001	F	Step 2 Voltage (V)
TSTEP2	QUANT	1.00000E+000	Step 2 Time (s)
SAMPLETIME	QUANT	1.00000E-001	Sample Period (s)
DECIMATE	TOGGLE	T	Decimate
ILIMIT	QUANT	1.00000E+000	Limit I (mA/cm^2)
IMODE	SELECTOR	1	I/E Range Mode
IRANGE	QUANT	3.00000E-001	Max Current (mA)
EQDELAY	QUANT	5.00000E+000	Equil. Time (s)
SAMPLINGMODE	SELECTOR	1	Sampling Mode
AREA	QUANT	1.00000E+000	Sample Area (cm^2)
IRCOMP	SELECTOR	0	IRComp
PFCOR	QUANT	5.00000E+001	PF Corr. (ohm)
SEQUENCER	TOGGLE	TRUE	Run as Sequence
PSTATMODEL	IQUANT	64	Pstat Model
PSTATSECTION	LABEL	IFC1010-21051	Pstat Section
PSTATSERIALNO	LABEL	21051	Pstat Serial Number
CTRLMODE	IQUANT	1	Control Mode
ELECTROMETER	IQUANT	0	RE=0 or CS=1
IESTAB	IQUANT	0	I/E Stability
CASPEED	IQUANT	4	Control Amp Speed
CONVENTION	IQUANT	1	Current Convention
ICHRANGE	IQUANT	2	Ich Range
ICHRANGEMODE	TOGGLE	T	Ich Auto Range
ICHOFFSETENABLE	TOGGLE	F	Ich Offset Enable
ICHOFFSET	QUANT	0	Ich Offset (V)
ICHFILTER	IQUANT	3	Ich Filter
VCHRANGE	IQUANT	3	Vch Range
VCHRANGEMODE	TOGGLE	T	Vch Auto Range
VCHOFFSETENABLE	TOGGLE	F	Vch Offset Enable
VCHOFFSET	QUANT	0	Vch Offset (V)
VCHFILTER	IQUANT	3	Vch Filter
IERANGELOWERLIMIT	IQUANT	4	I/E Range Lower Limit
IERANGEMODE	TOGGLE	F	I/E AutoRange
IERANGE	IQUANT	9	I/E Range
ACHSELECT	IQUANT	0	Ach Select
ACHRANGE	IQUANT	2	Ach Range
ACHOFFSETENABLE	TOGGLE	F	Ach Offset Enable
ACHOFFSET	QUANT	0	Ach Offset (V)
ACHFILTER	IQUANT	1	Ach Filter
SENSECABLEID	IQUANT	14	Sense Cable ID
PWRCABLEID	IQUANT	14	Power Cable ID
DCCALDATE	LABEL	10/1/2020	DC Calibration Date
ACCALDATE	LABEL	4/2/2018	AC Calibration Date
FRAMEWORKVERSION	QUANT	7.06	Framework Version
INSTRUMENTVERSION	LABEL	4.30	Instrument Version
CURVE	TABLE	98
	Pt	T	Vf	Im	Vu	Sig	Ach	IERange	Over	Temp
	#	s	V vs. Ref.	A	V	V	V	#	bits	deg C
	0	-0.4	3.00251E-001	3.65644E-006	0.00000E+000	3.00072E-001	0.00000E+000	9	...........	1425.34
	1	-0.3	3.00486E-001	3.62470E-006	0.00000E+000	3.00072E-001	0.00000E+000	9	...........	1425.34
	2	-0.2	3.00475E-001	3.57812E-006	0.00000E+000	3.00072E-001	0.00000E+000	9	...........	1425.34
	3	-0.1	3.00466E-001	3.55143E-006	0.00000E+000	3.00072E-001	0.00000E+000	9	...........	1425.34
	4	0	3.00462E-001	3.49847E-006	0.00000E+000	3.00072E-001	0.00000E+000	9	...........	1425.16
	5	0.1	4.00523E-001	2.98667E-004	0.00000E+000	4.00072E-001	0.00000E+000	9	...........	1425.16
	6	0.2	4.00517E-001	2.10076E-004	0.00000E+000	4.00072E-001	0.00000E+000	9	...........	1425.16
	7	0.3	4.00528E-001	1.65353E-004	0.00000E+000	4.00072E-001	0.00000E+000	9	...........	1425.16
	8	0.4	4.00517E-001	1.38192E-004	0.00000E+000	4.00072E-001	0.00000E+000	9	...........	1425.16
	9	0.5	4.00518E-001	1.19942E-004	0.00000E+000	4.00072E-001	0.00000E+000	9	...........	1425.16
	10	0.6	4.00518E-001	1.06808E-004	0.00000E+000	4.00072E-001	0.00000E+000	9	...........	1425.16
	11	0.7	4.00517E-001	9.68347E-005	0.00000E+000	4.00072E-001	0.00000E+000	9	...........	1425.16
	12	0.8	4.00514E-001	8.90411E-005	0.00000E+000	4.00072E-001	0.00000E+000	9	...........	1425.16
	13	0.9	4.00525E-001	8.27467E-005	0.00000E+000	4.00072E-001	0.00000E+000	9	...........	1425.16
	14	1	4.00521E-001	7.75754E-005	0.00000E+000	4.00072E-001	0.00000E+000	9	...........	1424.80
	15	1.1	4.00536E-001	7.31529E-005	0.00000E+000	4.00072E-001	0.00000E+000	9	...........	1424.80
	16	1.2	4.00531E-001	6.94153E-005	0.00000E+000	4.00072E-001	0.00000E+000	9	...........	1424.80
	17	1.3	4.00518E-001	6.61724E-005	0.00000E+000	4.00072E-001	0.00000E+000	9	...........	1424.80
	18	1.4	4.00527E-001	6.33167E-005	0.00000E+000	4.00072E-001	0.00000E+000	9	...........	1424.80
	19	1.5	4.00513E-001	6.07914E-005	0.00000E+000	4.00072E-001	0.00000E+000	9	...........	1424.80
	20	1.6	4.00520E-001	5.85387E-005	0.00000E+000	4.00072E-001	0.00000E+000	9	...........	1424.80
	21	1.7	4.00518E-001	5.64886E-005	0.00000E+000	4.00072E-001	0.00000E+000	9	...........	1424.80
	22	1.8	4.00513E-001	5.46295E-005	0.00000E+000	4.00072E-001	0.00000E+000	9	...........	1424.80
	23	1.9	4.00516E-001	5.29484E-005	0.00000E+000	4.00072E-001	0.00000E+000	9	...........	1424.80
	24	2	4.00522E-001	5.13669E-005	0.00000E+000	4.00072E-001	0.00000E+000	9	...........	1425.25
	25	2.1	4.00514E-001	4.99665E-005	0.00000E+000	4.00072E-001	0.00000E+000	9	...........	1425.25
	26	2.2	4.00523E-001	4.86336E-005	0.00000E+000	4.00072E-001	0.00000E+000	9	...........	1425.25
	27	2.3	4.00525E-001	4.74067E-005	0.00000E+000	4.00072E-001	0.00000E+000	9	...........	1425.25
	28	2.4	4.00528E-001	4.62324E-005	0.00000E+000	4.00072E-001	0.00000E+000	9	...........	1425.25
	29	2.5	4.00529E-001	4.51799E-005	0.00000E+000	4.00072E-001	0.00000E+000	9	...........	1425.25
	30	2.6	4.00523E-001	4.41177E-005	0.00000E+000	4.00072E-001	0.00000E+000	9	...........	1425.25
	31	2.7	4.00519E-001	4.32304E-005	0.00000E+000	4.00072E-001	0.00000E+000	9	...........	1425.25
	32	2.8	4.00519E-001	4.23533E-005	0.00000E+000	4.00072E-001	0.00000E+000	9	...........	1425.25
	33	2.9	4.00523E-001	4.15253E-005	0.00000E+000	4.00072E-001	0.00000E+000	9	...........	1425.25
	34	3	4.00518E-001	4.07381E-005	0.00000E+000	4.00072E-001	0.00000E+000	9	...........	1425.25
	35	3.1	4.00516E-001	3.99967E-005	0.00000E+000	4.00072E-001	0.00000E+000	9	...........	1425.25
	36	3.2	4.00529E-001	3.92760E-005	0.00000E+000	4.00072E-001	0.00000E+000	9	...........	1425.25
	37	3.3	4.00517E-001	3.86300E-005	0.00000E+000	4.00072E-001	0.00000E+000	9	...........	1425.25
	38	3.4	4.00514E-001	3.80113E-005	0.00000E+000	4.00072E-001	0.00000E+000	9	...........	1425.25
	39	3.5	4.00513E-001	3.73672E-005	0.00000E+000	4.00072E-001	0.00000E+000	9	...........	1425.25
	40	3.6	4.00510E-001	3.68269E-005	0.00000E+000	4.00072E-001	0.00000E+000	9	...........	1425.25
	41	3.7	4.00524E-001	3.62634E-005	0.00000E+000	4.00072E-001	0.00000E+000	9	...........	1425.25
	42	3.8	4.00515E-001	3.57253E-005	0.00000E+000	4.00072E-001	0.00000E+000	9	...........	1425.25
	43	3.9	4.00520E-001	3.52550E-005	0.00000E+000	4.00072E-001	0.00000E+000	9	...........	1425.25
	44	4	4.00523E-001	3.47667E-005	0.00000E+000	4.00072E-001	0.00000E+000	9	...........	1424.98
	45	4.1	4.00529E-001	3.43435E-005	0.00000E+000	4.00072E-001	0.00000E+000	9	...........	1424.98
	46	4.2	4.00517E-001	3.38873E-005	0.00000E+000	4.00072E-001	0.00000E+000	9	...........	1424.98
	47	4.3	4.00516E-001	3.34306E-005	0.00000E+000	4.00072E-001	0.00000E+000	9	...........	1424.98
	48	4.4	4.00507E-001	3.30166E-005	0.00000E+000	4.00072E-001	0.00000E+000	9	...........	1424.98
	49	4.5	4.00517E-001	3.26077E-005	0.00000E+000	4.00072E-001	0.00000E+000	9	...........	1424.98
	50	4.6	4.00522E-001	3.22405E-005	0.00000E+000	4.00072E-001	0.00000E+000	9	...........	1424.98
	51	4.7	4.00523E-001	3.18309E-005	0.00000E+000	4.00072E-001	0.00000E+000	9	...........	1424.98
	52	4.8	4.00530E-001	3.15064E-005	0.00000E+000	4.00072E-001	0.00000E+000	9	...........	1424.98
	53	4.9	4.00526E-001	3.11496E-005	0.00000E+000	4.00072E-001	0.00000E+000	9	...........	1424.98
	54	5	4.00528E-001	3.08181E-005	0.00000E+000	4.00072E-001	0.00000E+000	9	...........	1425.16
	55	5.1	4.00515E-001	3.04928E-005	0.00000E+000	4.00072E-001	0.00000E+000	9	...........	1425.16
	56	5.2	4.00524E-001	3.01855E-005	0.00000E+000	4.00072E-001	0.00000E+000	9	...........	1425.16
	57	5.3	4.00517E-001	2.98769E-005	0.00000E+000	4.00072E-001	0.00000E+000	9	...........	1425.16
	58	5.4	4.00521E-001	2.95952E-005	0.00000E+000	4.00072E-001	0.00000E+000	9	...........	1425.16
	59	5.5	4.00523E-001	2.92931E-005	0.00000E+000	4.00072E-001	0.00000E+000	9	...........	1425.16
	60	5.6	4.00523E-001	2.90294E-005	0.00000E+000	4.00072E-001	0.00000E+000	9	...........	1425.16
	61	5.7	4.00519E-001	2.87650E-005	0.00000E+000	4.00072E-001	0.00000E+000	9	...........	1425.16
	62	5.8	4.00528E-001	2.85093E-005	0.00000E+000	4.00072E-001	0.00000E+000	9	...........	1425.16
	63	5.9	4.00532E-001	2.82739E-005	0.00000E+000	4.00072E-001	0.00000E+000	9	...........	1425.16
	64	6	4.00524E-001	2.80053E-005	0.00000E+000	4.00072E-001	0.00000E+000	9	...........	1425.25
	65	6.1	4.00523E-001	2.78072E-005	0.00000E+000	4.00072E-001	0.00000E+000	9	...........	1425.25
	66	7.1	4.00522E-001	2.58860E-005	0.00000E+000	4.00072E-001	0.00000E+000	9	...........	1425.16
	67	8.1	4.00519E-001	2.41897E-005	0.00000E+000	4.00072E-001	0.00000E+000	9	...........	1425.25
	68	9.1	4.00519E-001	2.27341E-005	0.00000E+000	4.00072E-001	0.00000E+000	9	...........	1425.25
	69	10.1	4.00529E-001	2.15844E-005	0.00000E+000	4.00072E-001	0.00000E+000	9	...........	1425.25
	70	11.1	4.00525E-001	2.04888E-005	0.00000E+000	4.00072E-001	0.00000E+000	9	...........	1425.25
	71	12.1	4.00516E-001	1.95236E-005	0.00000E+000	4.00072E-001	0.00000E+000	9	...........	1425.34
	72	13.1	4.00508E-001	1.88325E-005	0.00000E+000	4.00072E-001	0.00000E+000	9	...........	1425.34
	73	14.1	4.00515E-001	1.82395E-005	0.00000E+000	4.00072E-001	0.00000E+000	9	...........	1425.25
	74	15.1	4.00524E-001	1.76922E-005	0.00000E+000	4.00072E-001	0.00000E+000	9	...........	1425.34
	75	16.1	4.00519E-001	1.73141E-005	0.00000E+000	4.00072E-001	0.00000E+000	9	...........	1425.25
	76	26.1	4.00512E-001	1.40811E-005	0.00000E+000	4.00072E-001	0.00000E+000	9	...........	1425.34
	77	36.1	4.00523E-001	1.24121E-005	0.00000E+000	4.00072E-001	0.00000E+000	9	...........	1425.34
	78	46.1	4.00523E-001	1.13270E-005	0.00000E+000	4.00072E-001	0.00000E+000	9	...........	1425.34
	79	56.1	4.00539E-001	1.05686E-005	0.00000E+000	4.00072E-001	0.00000E+000	9	...........	1425.34
	80	66.1	4.00519E-001	1.00386E-005	0.00000E+000	4.00072E-001	0.00000E+000	9	...........	1425.34
	81	76.1	4.00527E-001	9.68122E-006	0.00000E+000	4.00072E-001	0.00000E+000	9	...........	1425.34
	82	86.1	4.00513E-001	9.49436E-006	0.00000E+000	4.00072E-001	0.00000E+000	9	...........	1425.34
	83	96.1	4.00527E-001	9.36189E-006	0.00000E+000	4.00072E-001	0.00000E+000	9	...........	1425.34
	84	106.1	4.00520E-001	9.07029E-006	0.00000E+000	4.00072E-001	0.00000E+000	9	...........	1425.34
	85	116.1	4.00515E-001	8.66020E-006	0.00000E+000	4.00072E-001	0.00000E+000	9	...........	1425.34
	86	216.1	4.00520E-001	7.99945E-006	0.00000E+000	4.00072E-001	0.00000E+000	9	...........	1425.34
	87	300	4.00518E-001	8.23917E-006	0.00000E+000	4.00072E-001	0.00000E+000	9	...........	1425.42
	88	300.1	3.00473E-001	-3.41479E-004	0.00000E+000	3.00072E-001	0.00000E+000	9	...........	1425.42
	89	300.2	3.00477E-001	-2.50106E-004	0.00000E+000	3.00072E-001	0.00000E+000	9	...........	1425.42
	90	300.3	3.00476E-001	-1.92622E-004	0.00000E+000	3.00072E-001	0.00000E+000	9	...........	1425.42
	91	300.4	3.00469E-001	-1.53413E-004	0.00000E+000	3.00072E-001	0.00000E+000	9	...........	1425.42
	92	300.5	3.00473E-001	-1.25654E-004	0.00000E+000	3.00072E-001	0.00000E+000	9	...........	1425.42
	93	300.6	3.00482E-001	-1.05500E-004	0.00000E+000	3.00072E-001	0.00000E+000	9	...........	1425.42
	94	300.7	3.00470E-001	-9.04328E-005	0.00000E+000	3.00072E-001	0.00000E+000	9	...........	1425.42
	95	300.8	3.00478E-001	-7.90176E-005	0.00000E+000	3.00072E-001	0.00000E+000	9	...........	1425.42
	96	300.9	3.00470E-001	-7.01726E-005	0.00000E+000	3.00072E-001	0.00000E+000	9	...........	1425.42
	97	301	3.00484E-001	-6.31770E-005	0.00000E+000	3.00072E-001	0.00000E+000	9	...........	1425.34
