Data from AgNPs_FTO_APTES_UA_5uM_R6G_10uM_NaF_0.1M_Addition_RamanShift__20__12-48-57-271.txt Node

Date: Fri Dec 17 12:48:57 GMT 2021
User: TCL
Spectrometer: QEP01345
Trigger mode: 4
Integration Time (sec): 7.000000E0
Scans to average: 10
Electric dark correction enabled: true
Nonlinearity correction enabled: false
Boxcar width: 0
XAxis mode: Raman Shifts
Number of Pixels in Spectrum: 1044
>>>>>Begin Spectral Data<<<<<
46.04893	-0.7375
50.45542	-0.6375
54.85868	-1.2375
59.25871	-1.1375
63.6555	119.3625
68.04907	126.7625
72.43941	131.0625
76.82654	142.1625
81.21044	141.1625
85.59113	147.5625
89.96862	156.3625
94.34289	159.8625
98.71396	165.3625
103.08183	167.4625
107.4465	175.3625
111.80798	179.4625
116.16626	182.5625
120.52136	188.4625
124.87327	199.0625
129.222	206.9625
133.56755	219.3625
137.90993	230.7625
142.24913	257.9625
146.58517	284.5625
150.91804	333.3625
155.24774	386.5625
159.57429	485.6625
163.89768	616.4625
168.21792	808.0625
172.53501	1102.4625
176.84895	1524.4625
181.15975	2132.7625
185.46741	2986.2625
189.77193	4111.5625
194.07331	5510.3625
198.37157	7097.6625
202.6667	8763.9625
206.9587	10392.8625
211.24758	12009.0625
215.53334	13626.1625
219.81599	15320.5625
224.09553	17236.2625
228.37195	19359.3625
232.64527	21730.6625
236.91549	24233.7625
241.18261	26730.1625
245.44663	29038.8625
249.70755	31025.0625
253.96539	32853.6625
258.22014	34346.1625
262.4718	35620.4625
266.72039	36585.4625
270.96589	37069.2625
275.20832	37189.7625
279.44768	37024.2625
283.68397	36640.0625
287.91719	36262.4625
292.14735	36040.7625
296.37445	36055.5625
300.59849	36180.9625
304.81948	36426.0625
309.03742	36528.1625
313.25231	36244.8625
317.46415	35412.1625
321.67296	34310.4625
325.87872	33396.2625
330.08145	32936.0625
334.28114	32940.2625
338.47781	33280.3625
342.67145	33787.4625
346.86207	34471.5625
351.04966	35360.8625
355.23424	36339.7625
359.4158	37164.0625
363.59435	37735.0625
367.76989	38124.3625
371.94243	38350.5625
376.11196	38488.2625
380.27849	38608.7625
384.44203	38770.6625
388.60257	38917.1625
392.76012	39199.9625
396.91468	39617.5625
401.06626	40309.7625
405.21485	40881.8625
409.36047	40731.1625
413.50311	40011.9625
417.64277	39476.6625
421.77947	39171.9625
425.9132	39263.3625
430.04396	39461.1625
434.17176	39702.5625
438.2966	40064.5625
442.41849	40613.9625
446.53742	41495.8625
450.6534	42540.9625
454.76644	43392.9625
458.87653	43812.2625
462.98368	43753.4625
467.08789	43247.1625
471.18916	42577.4625
475.2875	41758.9625
479.38291	41078.1625
483.4754	40578.8625
487.56496	40135.5625
491.6516	39690.0625
495.73531	39453.0625
499.81612	39451.6625
503.89401	39705.7625
507.96899	39875.0625
512.04106	39972.2625
516.11023	39960.4625
520.1765	39913.8625
524.23987	39757.0625
528.30034	39343.7625
532.35792	38943.4625
536.41261	38482.6625
540.46441	38039.1625
544.51333	38018.4625
548.55936	38324.5625
552.60252	38876.8625
556.64279	39562.4625
560.6802	39918.7625
564.71473	40096.2625
568.7464	40613.8625
572.7752	41361.5625
576.80114	41694.8625
580.82422	42016.0625
584.84444	42310.7625
588.86181	42524.9625
592.87633	42853.6625
596.888	43391.1625
600.89682	44092.9625
604.9028	46391.1625
608.90594	51738.0625
612.90624	57117.7625
616.90371	54171.5625
620.89834	45143.8625
624.89015	40991.9625
628.87913	40398.8625
632.86528	40264.3625
636.84862	40091.9625
640.82913	39498.8625
644.80683	38549.9625
648.78172	37757.2625
652.75379	37706.5625
656.72306	38289.2625
660.68952	39151.6625
664.65319	39010.4625
668.61405	38212.7625
672.57211	37927.4625
676.52738	38012.5625
680.47986	37950.2625
684.42955	37887.2625
688.37646	37792.5625
692.32058	37993.8625
696.26192	38351.7625
700.20048	38751.2625
704.13626	38993.9625
708.06928	38787.0625
711.99952	38463.2625
715.927	38360.0625
719.85171	38336.1625
723.77365	38216.2625
727.69284	37852.9625
731.60928	37508.2625
735.52295	37437.2625
739.43388	37508.9625
743.34206	37661.4625
747.24749	37899.2625
751.15017	38177.0625
755.05012	38796.9625
758.94733	39864.9625
762.8418	41883.1625
766.73354	45107.0625
770.62254	48407.1625
774.50882	49519.9625
778.39237	47439.9625
782.27321	43790.1625
786.15132	40755.8625
790.02671	38974.7625
793.89938	38174.7625
797.76935	37830.3625
801.6366	37692.4625
805.50115	37581.7625
809.36299	37351.8625
813.22213	37114.5625
817.07857	36995.5625
820.93231	36823.0625
824.78336	36848.5625
828.63172	36869.1625
832.47738	36944.6625
836.32036	37048.9625
840.16066	37138.7625
843.99827	37261.4625
847.8332	37192.9625
851.66546	37029.5625
855.49504	36901.9625
859.32195	36919.1625
863.1462	36815.2625
866.96777	36648.5625
870.78668	36535.4625
874.60293	36560.0625
878.41652	36615.9625
882.22745	36663.6625
886.03573	36819.4625
889.84136	36802.0625
893.64433	36627.2625
897.44466	36497.9625
901.24235	36366.6625
905.0374	36264.9625
908.8298	36189.5625
912.61957	36308.9625
916.40671	36519.5625
920.19121	37007.5625
923.97308	37435.0625
927.75233	37683.4625
931.52895	37681.4625
935.30295	37276.7625
939.07433	36614.4625
942.84309	36178.0625
946.60924	36005.8625
950.37278	35830.2625
954.13371	35635.4625
957.89203	35409.4625
961.64774	35248.0625
965.40086	35162.7625
969.15137	35084.8625
972.89929	35037.3625
976.64461	34968.7625
980.38733	35084.0625
984.12747	35294.7625
987.86502	35658.0625
991.59999	36243.9625
995.33237	36914.4625
999.06217	38122.5625
1002.78939	39513.1625
1006.51404	40382.1625
1010.23611	40878.1625
1013.95561	41170.6625
1017.67255	41095.1625
1021.38692	40642.7625
1025.09872	40334.4625
1028.80796	40859.5625
1032.51465	42074.7625
1036.21877	43219.6625
1039.92035	43388.4625
1043.61937	42755.8625
1047.31584	41462.0625
1051.00976	40073.4625
1054.70114	39307.0625
1058.38998	39104.6625
1062.07627	39254.3625
1065.76003	39466.7625
1069.44126	39689.5625
1073.11995	40193.3625
1076.79611	40695.7625
1080.46974	41030.5625
1084.14085	41330.4625
1087.80943	41680.0625
1091.47549	41785.5625
1095.13903	41446.1625
1098.80005	40701.6625
1102.45857	40010.6625
1106.11456	39598.1625
1109.76805	39575.9625
1113.41903	39817.7625
1117.06751	40172.2625
1120.71348	40587.9625
1124.35696	40987.8625
1127.99793	41454.9625
1131.63641	41673.5625
1135.2724	41265.0625
1138.90589	40840.7625
1142.5369	40485.7625
1146.16542	40271.6625
1149.79145	40177.8625
1153.415	40318.4625
1157.03607	40728.7625
1160.65467	41496.2625
1164.27079	42807.3625
1167.88443	44640.9625
1171.49561	47241.2625
1175.10432	50797.0625
1178.71056	55288.2625
1182.31434	59642.7625
1185.91565	62237.2625
1189.51451	62499.0625
1193.11091	60576.2625
1196.70485	57482.5625
1200.29634	54523.2625
1203.88538	52243.2625
1207.47197	50337.3625
1211.05612	48915.3625
1214.63782	48009.8625
1218.21708	47721.1625
1221.79391	47958.8625
1225.36829	48232.6625
1228.94024	48122.5625
1232.50976	47866.3625
1236.07685	47579.6625
1239.6415	47263.2625
1243.20374	47108.3625
1246.76355	47257.4625
1250.32093	47820.9625
1253.8759	48889.1625
1257.42845	50202.0625
1260.97859	51556.1625
1264.52631	52747.3625
1268.07163	53961.6625
1271.61453	55485.3625
1275.15503	57170.7625
1278.69312	58760.6625
1282.22882	59946.4625
1285.76211	60814.3625
1289.29301	61539.9625
1292.82151	62537.0625
1296.34761	64029.7625
1299.87133	66392.9625
1303.39266	69912.3625
1306.9116	74565.0625
1310.42815	79487.0625
1313.94233	82900.1625
1317.45412	83331.8625
1320.96354	81672.1625
1324.47058	79420.7625
1327.97525	77323.7625
1331.47754	75846.7625
1334.97747	75446.8625
1338.47502	75912.0625
1341.97022	76529.2625
1345.46305	76438.3625
1348.95352	75822.8625
1352.44163	75526.0625
1355.92738	76866.7625
1359.41078	80588.4625
1362.89183	84370.4625
1366.37053	82726.0625
1369.84688	75532.5625
1373.32088	67595.2625
1376.79254	61990.0625
1380.26186	59403.9625
1383.72883	58429.9625
1387.19347	57555.8625
1390.65578	56531.2625
1394.11575	56061.1625
1397.57339	56258.7625
1401.0287	57197.8625
1404.48168	58398.9625
1407.93234	59563.4625
1411.38068	60281.4625
1414.82669	60017.7625
1418.27039	58617.7625
1421.71177	56765.1625
1425.15083	55153.0625
1428.58758	54155.0625
1432.02203	54054.0625
1435.45416	54464.2625
1438.88399	55193.5625
1442.31151	55732.2625
1445.73673	56267.5625
1449.15965	56706.6625
1452.58027	57018.5625
1455.9986	56921.0625
1459.41463	57112.5625
1462.82837	57887.9625
1466.23982	58996.2625
1469.64898	60198.7625
1473.05586	61066.7625
1476.46045	61391.0625
1479.86276	61498.6625
1483.26279	61487.8625
1486.66054	61746.3625
1490.05602	62262.9625
1493.44922	62946.7625
1496.84016	63603.1625
1500.22882	64730.9625
1503.61521	66525.0625
1506.99934	68943.9625
1510.38121	71487.2625
1513.76081	72558.4625
1517.13816	71010.8625
1520.51324	67599.7625
1523.88607	64001.5625
1527.25665	61528.6625
1530.62498	60087.5625
1533.99105	59278.5625
1537.35488	58800.7625
1540.71647	58386.1625
1544.07581	57845.8625
1547.4329	57344.6625
1550.78776	56854.3625
1554.14038	56547.9625
1557.49077	56453.8625
1560.83892	56528.4625
1564.18484	56435.3625
1567.52853	56385.2625
1570.86999	56469.3625
1574.20922	56762.2625
1577.54624	57135.5625
1580.88103	57061.4625
1584.2136	56815.6625
1587.54395	57662.4625
1590.87208	59854.7625
1594.19801	63285.3625
1597.52172	66816.1625
1600.84321	68242.1625
1604.16251	66180.4625
1607.47959	62009.9625
1610.79447	57411.0625
1614.10715	53140.9625
1617.41763	49588.5625
1620.7259	47107.9625
1624.03199	45858.7625
1627.33587	45882.7625
1630.63757	47088.2625
1633.93707	49573.3625
1637.23439	53066.8625
1640.52951	57431.2625
1643.82246	61897.0625
1647.11321	64866.7625
1650.40179	65090.1625
1653.68819	61540.4625
1656.97241	55079.0625
1660.25446	48456.2625
1663.53433	43583.1625
1666.81203	40465.5625
1670.08756	38487.7625
1673.36092	37208.3625
1676.63211	36360.3625
1679.90115	35791.2625
1683.16801	35294.8625
1686.43272	34968.0625
1689.69527	34730.3625
1692.95567	34515.0625
1696.2139	34411.2625
1699.46999	34305.5625
1702.72392	34215.6625
1705.97571	34160.4625
1709.22535	34124.2625
1712.47284	34080.7625
1715.71819	34049.1625
1718.96139	33969.2625
1722.20246	33874.7625
1725.44139	33754.7625
1728.67818	33597.6625
1731.91284	33433.6625
1735.14537	33263.2625
1738.37576	33130.6625
1741.60403	33010.5625
1744.83017	32934.8625
1748.05418	32857.9625
1751.27607	32809.7625
1754.49584	32730.3625
1757.71349	32673.3625
1760.92903	32686.6625
1764.14244	32672.2625
1767.35375	32690.0625
1770.56294	32668.9625
1773.77002	32613.4625
1776.97499	32571.6625
1780.17785	32433.5625
1783.37861	32454.5625
1786.57727	32400.4625
1789.77382	32344.1625
1792.96828	32310.8625
1796.16064	32339.4625
1799.3509	32320.0625
1802.53907	32253.3625
1805.72514	32213.3625
1808.90913	32097.0625
1812.09102	32071.6625
1815.27083	31979.0625
1818.44856	31962.3625
1821.6242	31937.9625
1824.79776	31911.4625
1827.96924	31959.0625
1831.13864	31899.5625
1834.30597	31954.8625
1837.47122	31963.9625
1840.6344	32001.3625
1843.7955	32001.9625
1846.95454	32018.3625
1850.11151	32007.3625
1853.26642	32003.3625
1856.41926	32029.2625
1859.57004	32038.9625
1862.71876	32047.7625
1865.86542	32047.0625
1869.01003	32041.8625
1872.15258	32054.2625
1875.29308	32081.1625
1878.43152	32103.8625
1881.56792	32164.4625
1884.70227	32121.5625
1887.83457	32141.5625
1890.96482	32171.0625
1894.09304	32180.6625
1897.21921	32123.7625
1900.34335	32193.6625
1903.46544	32149.3625
1906.58551	32145.6625
1909.70353	32143.4625
1912.81953	32082.6625
1915.93349	32027.8625
1919.04543	32018.5625
1922.15534	31877.1625
1925.26322	31794.8625
1928.36908	31739.8625
1931.47292	31624.3625
1934.57473	31485.2625
1937.67453	31335.5625
1940.77232	31227.6625
1943.86808	31128.4625
1946.96184	30995.0625
1950.05358	30906.3625
1953.14331	30772.9625
1956.23103	30633.2625
1959.31675	30580.9625
1962.40046	30473.0625
1965.48217	30409.7625
1968.56188	30328.5625
1971.63959	30227.0625
1974.7153	30098.0625
1977.78901	30037.5625
1980.86073	29920.9625
1983.93046	29850.5625
1986.99819	29733.0625
1990.06394	29682.9625
1993.1277	29637.8625
1996.18947	29487.2625
1999.24925	29403.0625
2002.30706	29331.3625
2005.36288	29269.4625
2008.41672	29180.4625
2011.46859	29123.1625
2014.51848	29068.9625
2017.56639	28988.6625
2020.61233	28935.7625
2023.6563	28882.2625
2026.6983	28780.2625
2029.73833	28767.8625
2032.7764	28728.4625
2035.8125	28705.3625
2038.84664	28626.4625
2041.87881	28589.9625
2044.90903	28575.3625
2047.93729	28487.7625
2050.96359	28478.6625
2053.98794	28477.7625
2057.01034	28385.5625
2060.03078	28403.9625
2063.04927	28391.4625
2066.06582	28349.1625
2069.08042	28370.7625
2072.09307	28317.7625
2075.10378	28224.0625
2078.11255	28234.2625
2081.11938	28200.8625
2084.12426	28172.6625
2087.12722	28209.2625
2090.12824	28203.8625
2093.12732	28149.3625
2096.12447	28203.4625
2099.11969	28190.0625
2102.11299	28194.1625
2105.10435	28171.0625
2108.09379	28244.2625
2111.08131	28244.7625
2114.0669	28252.9625
2117.05057	28270.6625
2120.03233	28305.7625
2123.01216	28341.2625
2125.99008	28353.0625
2128.96609	28365.9625
2131.94018	28344.4625
2134.91236	28388.1625
2137.88263	28412.1625
2140.851	28407.5625
2143.81746	28462.8625
2146.78201	28499.2625
2149.74466	28490.1625
2152.7054	28538.5625
2155.66425	28473.9625
2158.6212	28497.9625
2161.57625	28483.7625
2164.52941	28482.2625
2167.48067	28482.4625
2170.43004	28464.8625
2173.37752	28463.7625
2176.32311	28459.0625
2179.26681	28455.6625
2182.20863	28444.6625
2185.14856	28496.7625
2188.08661	28475.1625
2191.02278	28483.9625
2193.95707	28492.7625
2196.88948	28492.3625
2199.82001	28516.3625
2202.74867	28482.4625
2205.67545	28494.2625
2208.60037	28456.5625
2211.52341	28450.4625
2214.44458	28427.9625
2217.36388	28394.2625
2220.28132	28361.2625
2223.1969	28310.8625
2226.11061	28283.4625
2229.02246	28256.1625
2231.93245	28178.4625
2234.84058	28113.7625
2237.74686	28092.4625
2240.65128	28067.5625
2243.55385	27986.2625
2246.45456	27979.8625
2249.35343	27924.1625
2252.25044	27934.8625
2255.14561	27854.1625
2258.03893	27861.5625
2260.93041	27789.2625
2263.82004	27762.9625
2266.70783	27699.3625
2269.59378	27611.7625
2272.4779	27575.3625
2275.36017	27475.3625
2278.24061	27445.0625
2281.11922	27379.4625
2283.996	27364.3625
2286.87094	27326.9625
2289.74405	27319.1625
2292.61534	27308.0625
2295.4848	27321.2625
2298.35243	27288.8625
2301.21824	27298.4625
2304.08223	27299.2625
2306.94439	27367.3625
2309.80474	27368.9625
2312.66327	27405.2625
2315.51999	27387.4625
2318.37489	27426.0625
2321.22797	27352.0625
2324.07925	27355.4625
2326.92871	27330.5625
2329.77637	27295.5625
2332.62222	27335.6625
2335.46626	27322.6625
2338.3085	27262.1625
2341.14893	27280.6625
2343.98756	27327.0625
2346.8244	27333.5625
2349.65943	27294.5625
2352.49267	27359.0625
2355.32411	27293.5625
2358.15376	27252.8625
2360.98161	27242.7625
2363.80768	27176.6625
2366.63195	27147.4625
2369.45444	27115.6625
2372.27514	27066.7625
2375.09405	26999.1625
2377.91118	26955.1625
2380.72652	26837.8625
2383.54009	26835.4625
2386.35187	26754.5625
2389.16188	26764.0625
2391.97011	26745.7625
2394.77657	26689.7625
2397.58125	26653.5625
2400.38416	26575.0625
2403.18529	26525.6625
2405.98466	26504.8625
2408.78226	26445.0625
2411.57809	26399.3625
2414.37216	26387.8625
2417.16446	26351.7625
2419.955	26319.5625
2422.74378	26277.9625
2425.5308	26261.9625
2428.31606	26276.8625
2431.09956	26264.4625
2433.88131	26164.8625
2436.6613	26224.1625
2439.43954	26175.7625
2442.21603	26160.7625
2444.99077	26159.7625
2447.76377	26204.3625
2450.53501	26163.9625
2453.30451	26143.9625
2456.07226	26138.5625
2458.83827	26110.5625
2461.60254	26086.5625
2464.36507	26142.7625
2467.12586	26123.1625
2469.88492	26165.1625
2472.64224	26164.6625
2475.39782	26150.9625
2478.15167	26201.7625
2480.90379	26158.0625
2483.65417	26186.0625
2486.40283	26175.9625
2489.14976	26220.3625
2491.89497	26157.0625
2494.63845	26251.3625
2497.3802	26208.8625
2500.12024	26203.7625
2502.85855	26188.8625
2505.59514	26183.2625
2508.33002	26202.3625
2511.06318	26139.8625
2513.79462	26111.4625
2516.52435	26113.1625
2519.25237	26094.9625
2521.97867	26061.4625
2524.70327	26034.5625
2527.42616	26024.0625
2530.14734	26046.0625
2532.86681	25962.1625
2535.58458	25974.9625
2538.30065	25966.3625
2541.01501	25944.8625
2543.72768	25878.8625
2546.43864	25916.0625
2549.14791	25859.4625
2551.85548	25858.4625
2554.56136	25817.6625
2557.26554	25815.4625
2559.96803	25831.9625
2562.66883	25753.9625
2565.36794	25714.5625
2568.06536	25734.1625
2570.7611	25734.3625
2573.45514	25665.3625
2576.14751	25696.6625
2578.83819	25666.9625
2581.52719	25683.6625
2584.21451	25696.4625
2586.90015	25681.0625
2589.58411	25667.9625
2592.2664	25682.7625
2594.94701	25620.1625
2597.62594	25624.9625
2600.30321	25550.7625
2602.9788	25580.3625
2605.65273	25562.7625
2608.32498	25539.1625
2610.99557	25551.8625
2613.66449	25573.5625
2616.33175	25542.7625
2618.99734	25533.3625
2621.66128	25555.3625
2624.32355	25569.9625
2626.98416	25569.8625
2629.64311	25601.0625
2632.30041	25591.4625
2634.95605	25547.7625
2637.61004	25519.7625
2640.26238	25516.0625
2642.91306	25466.6625
2645.56209	25451.3625
2648.20948	25430.6625
2650.85521	25396.0625
2653.4993	25370.9625
2656.14175	25376.5625
2658.78255	25406.3625
2661.42171	25403.9625
2664.05923	25446.9625
2666.6951	25471.8625
2669.32934	25500.2625
2671.96194	25484.3625
2674.59291	25486.5625
2677.22224	25452.6625
2679.84993	25540.6625
2682.476	25462.1625
2685.10043	25512.9625
2687.72324	25436.0625
2690.34441	25407.1625
2692.96396	25427.8625
2695.58188	25375.3625
2698.19818	25346.6625
2700.81285	25385.5625
2703.4259	25363.8625
2706.03733	25390.7625
2708.64714	25370.6625
2711.25533	25406.9625
2713.86191	25387.7625
2716.46687	25450.2625
2719.07021	25429.0625
2721.67194	25403.8625
2724.27206	25355.5625
2726.87057	25439.7625
2729.46747	25436.3625
2732.06276	25461.3625
2734.65644	25464.1625
2737.24852	25437.1625
2739.83899	25419.4625
2742.42786	25482.0625
2745.01513	25438.2625
2747.60079	25393.4625
2750.18486	25424.1625
2752.76733	25404.1625
2755.3482	25391.6625
2757.92747	25432.7625
2760.50515	25395.8625
2763.08123	25380.6625
2765.65573	25326.0625
2768.22863	25331.0625
2770.79994	25336.1625
2773.36967	25307.0625
2775.9378	25289.7625
2778.50435	25279.9625
2781.06932	25230.5625
2783.6327	25258.7625
2786.1945	25205.2625
2788.75471	25227.1625
2791.31335	25127.1625
2793.87041	25103.9625
2796.42589	25037.6625
2798.97979	25065.5625
2801.53212	24958.0625
2804.08288	24950.7625
2806.63206	24900.8625
2809.17967	24853.0625
2811.72571	24859.0625
2814.27018	24869.1625
2816.81308	24812.0625
2819.35442	24802.9625
2821.89419	24758.4625
2824.43239	24790.4625
2826.96904	24731.4625
2829.50412	24755.7625
2832.03763	24704.6625
2834.56959	24694.4625
2837.1	24616.4625
2839.62884	24632.2625
2842.15613	24610.9625
2844.68186	24610.0625
2847.20604	24592.8625
2849.72867	24553.5625
2852.24974	24550.9625
2854.76927	24559.4625
2857.28724	24505.3625
2859.80367	24472.3625
2862.31855	24479.8625
2864.83189	24480.5625
2867.34368	24450.0625
2869.85393	24453.7625
2872.36264	24438.4625
2874.8698	24468.4625
2877.37543	24465.3625
2879.87952	24466.3625
2882.38207	24463.0625
2884.88308	24501.6625
2887.38256	24478.4625
2889.88051	24493.1625
2892.37692	24500.8625
2894.8718	24501.2625
2897.36515	24504.1625
2899.85698	24537.9625
2902.34727	24572.7625
2904.83604	24564.5625
2907.32328	24657.2625
2909.809	24636.1625
2912.29319	24617.7625
2914.77587	24587.5625
2917.25702	24609.6625
2919.73665	24569.4625
2922.21476	24611.6625
2924.69136	24562.5625
2927.16644	24541.0625
2929.64	24484.1625
2932.11205	24470.5625
2934.58258	24362.7625
2937.05161	24402.7625
2939.51912	24456.3625
2941.98513	24390.6625
2944.44962	24370.6625
2946.91261	24305.0625
2949.37409	24330.9625
2951.83407	24310.1625
2954.29254	24300.8625
2956.74951	24266.8625
2959.20498	24229.7625
2961.65895	24237.5625
2964.11142	24184.5625
2966.56239	24165.5625
2969.01186	24126.2625
2971.45984	24030.9625
2973.90632	24039.6625
2976.35131	23987.9625
2978.7948	23946.0625
2981.23681	23889.2625
2983.67732	23805.8625
2986.11635	23786.9625
2988.55388	23708.0625
2990.98993	23718.9625
2993.4245	23673.4625
2995.85758	23602.2625
2998.28917	23542.6625
3000.71928	23526.6625
3003.14791	23486.0625
3005.57506	23467.8625
3008.00073	23423.1625
3010.42493	23414.3625
3012.84764	23373.5625
3015.26888	23342.8625
3017.68865	23350.1625
3020.10694	23296.4625
3022.52376	23219.2625
3024.9391	23207.4625
3027.35298	23178.8625
3029.76539	23137.6625
3032.17632	23103.2625
3034.5858	23033.9625
3036.9938	23033.5625
3039.40034	22988.0625
3041.80542	22974.1625
3044.20903	22944.5625
3046.61118	22947.9625
3049.01187	22861.8625
3051.4111	22875.3625
3053.80888	22827.4625
3056.20519	22796.7625
3058.60005	22740.5625
3060.99345	22720.3625
3063.3854	22641.5625
3065.7759	22566.2625
3068.16494	22486.2625
3070.55254	22385.3625
3072.93868	22379.0625
3075.32338	22304.9625
3077.70662	22311.4625
3080.08842	22262.1625
3082.46878	22256.9625
3084.84769	22195.1625
3087.22515	22204.0625
3089.60118	22178.8625
3091.97576	22129.4625
3094.3489	22124.5625
3096.72061	22103.6625
3099.09087	22110.6625
3101.4597	22104.5625
3103.82709	22047.0625
3106.19305	22019.6625
3108.55757	22000.0625
3110.92066	21919.4625
3113.28232	21921.6625
3115.64255	21832.9625
3118.00134	21809.5625
3120.35871	21787.2625
3122.71466	21720.8625
3125.06917	21681.1625
3127.42226	21651.6625
3129.77393	21635.2625
3132.12417	21599.4625
3134.47299	21643.3625
3136.82039	21600.9625
3139.16636	21633.3625
3141.51092	21618.1625
3143.85406	21612.6625
3146.19579	21628.5625
3148.53609	21608.3625
3150.87499	21609.7625
3153.21246	21615.7625
3155.54853	21619.1625
3157.88318	21596.8625
3160.21642	21595.3625
3162.54826	21534.7625
3164.87868	21524.9625
3167.2077	21495.3625
3169.5353	21555.5625
3171.86151	21501.8625
3174.18631	21453.5625
3176.5097	21468.8625
3178.83169	21462.3625
3181.15228	21458.4625
3183.47147	21396.7625
3185.78926	21381.4625
3188.10565	21392.1625
3190.42065	21401.9625
3192.73424	21412.9625
3195.04645	21383.7625
3197.35725	21400.8625
3199.66667	21369.7625
3201.97469	21391.8625
3204.28132	21358.4625
3206.58656	21412.3625
3208.8904	21380.2625
3211.19287	21409.6625
3213.49394	21400.1625
3215.79363	21361.9625
3218.09193	21396.5625
3220.38884	21354.5625
3222.68438	21334.2625
3224.97853	21315.6625
3227.2713	21289.7625
3229.56269	21242.3625
3231.8527	21237.3625
3234.14133	21203.0625
3236.42858	21141.9625
3238.71446	21137.2625
3240.99896	21114.2625
3243.28209	21081.4625
3245.56384	21107.4625
3247.84423	21125.4625
3250.12324	21077.6625
3252.40088	21077.8625
3254.67715	21023.7625
3256.95205	21013.6625
3259.22558	21002.9625
3261.49775	20936.4625
3263.76855	20948.8625
3266.03799	20862.5625
3268.30606	20889.7625
3270.57277	20862.6625
3272.83812	20817.0625
3275.10211	20769.9625
3277.36474	20788.2625
3279.62601	20777.9625
3281.88593	20781.0625
3284.14448	20774.4625
3286.40168	20738.8625
3288.65753	20685.5625
3290.91202	20678.2625
3293.16516	20624.8625
3295.41695	20602.4625
3297.66738	20465.3625
3299.91647	20388.7625
3302.16421	20283.3625
3304.4106	20200.8625
3306.65564	20105.0625
3308.89933	19986.0625
3311.14169	19853.1625
3313.38269	19697.8625
3315.62236	19596.0625
3317.86068	19464.7625
3320.09766	19259.1625
3322.3333	19089.6625
3324.5676	19092.4625
3326.80056	18793.2625
3329.03219	18726.8625
3331.26248	4.2625
3333.49143	0.7625
3335.71905	0.6625
