Data from AgNPs_FTO_APTES_UA_50uM_R6G_10uM_NaF_0.1M_Addition_RamanShift__5__14-42-07-401.txt Node

Date: Fri Dec 17 14:42:07 GMT 2021
User: TCL
Spectrometer: QEP01345
Trigger mode: 4
Integration Time (sec): 7.000000E0
Scans to average: 10
Electric dark correction enabled: true
Nonlinearity correction enabled: false
Boxcar width: 0
XAxis mode: Raman Shifts
Number of Pixels in Spectrum: 1044
>>>>>Begin Spectral Data<<<<<
46.04893	-1.1375
50.45542	-0.5375
54.85868	-1.3375
59.25871	-0.4375
63.6555	95.0625
68.04907	100.8625
72.43941	99.4625
76.82654	108.4625
81.21044	111.2625
85.59113	114.1625
89.96862	116.3625
94.34289	121.4625
98.71396	127.6625
103.08183	131.8625
107.4465	132.7625
111.80798	135.1625
116.16626	142.3625
120.52136	143.0625
124.87327	156.4625
129.222	160.8625
133.56755	169.6625
137.90993	182.4625
142.24913	203.6625
146.58517	229.2625
150.91804	261.5625
155.24774	310.4625
159.57429	386.9625
163.89768	493.5625
168.21792	645.5625
172.53501	874.0625
176.84895	1215.9625
181.15975	1706.6625
185.46741	2375.5625
189.77193	3296.0625
194.07331	4409.1625
198.37157	5674.5625
202.6667	7033.6625
206.9587	8368.6625
211.24758	9673.5625
215.53334	10991.3625
219.81599	12329.5625
224.09553	13837.8625
228.37195	15518.9625
232.64527	17341.9625
236.91549	19346.9625
241.18261	21317.8625
245.44663	23190.8625
249.70755	24907.9625
253.96539	26423.9625
258.22014	27650.9625
262.4718	28687.7625
266.72039	29340.7625
270.96589	29668.3625
275.20832	29689.1625
279.44768	29544.3625
283.68397	29216.0625
287.91719	28864.7625
292.14735	28666.1625
296.37445	28530.2625
300.59849	28639.9625
304.81948	28738.7625
309.03742	28780.5625
313.25231	28580.5625
317.46415	28196.5625
321.67296	27640.9625
325.87872	27190.8625
330.08145	26946.4625
334.28114	26946.9625
338.47781	27150.9625
342.67145	27443.1625
346.86207	27841.8625
351.04966	28309.9625
355.23424	28833.0625
359.4158	29326.1625
363.59435	29739.0625
367.76989	30011.9625
371.94243	30219.5625
376.11196	30376.1625
380.27849	30543.6625
384.44203	30692.5625
388.60257	30914.4625
392.76012	31230.5625
396.91468	31650.4625
401.06626	32102.5625
405.21485	32461.3625
409.36047	32467.8625
413.50311	32141.6625
417.64277	31956.8625
421.77947	31946.3625
425.9132	32036.8625
430.04396	32160.2625
434.17176	32270.2625
438.2966	32403.2625
442.41849	32712.1625
446.53742	33242.9625
450.6534	33876.2625
454.76644	34427.7625
458.87653	34672.1625
462.98368	34681.5625
467.08789	34411.7625
471.18916	34030.4625
475.2875	33544.8625
479.38291	33229.0625
483.4754	32876.9625
487.56496	32587.3625
491.6516	32331.2625
495.73531	32183.9625
499.81612	32250.1625
503.89401	32538.9625
507.96899	32693.8625
512.04106	32752.6625
516.11023	32692.9625
520.1765	32531.7625
524.23987	32243.5625
528.30034	31995.2625
532.35792	31738.6625
536.41261	31449.9625
540.46441	31227.4625
544.51333	31183.5625
548.55936	31422.5625
552.60252	31805.3625
556.64279	32288.8625
560.6802	32677.3625
564.71473	32815.9625
568.7464	33102.8625
572.7752	33679.9625
576.80114	34376.7625
580.82422	35178.1625
584.84444	36115.7625
588.86181	37049.4625
592.87633	37599.5625
596.888	37303.0625
600.89682	36809.4625
604.9028	37338.4625
608.90594	39717.9625
612.90624	42076.7625
616.90371	40030.0625
620.89834	35045.8625
624.89015	32766.8625
628.87913	32475.8625
632.86528	32577.6625
636.84862	32653.9625
640.82913	32305.6625
644.80683	31769.8625
648.78172	31357.2625
652.75379	31341.4625
656.72306	31635.6625
660.68952	32060.2625
664.65319	31966.5625
668.61405	31547.2625
672.57211	31555.9625
676.52738	31703.9625
680.47986	31664.8625
684.42955	31477.7625
688.37646	31400.5625
692.32058	31539.3625
696.26192	31918.2625
700.20048	32225.5625
704.13626	32384.6625
708.06928	32355.2625
711.99952	32156.9625
715.927	32074.5625
719.85171	32213.8625
723.77365	32114.6625
727.69284	31784.6625
731.60928	31443.6625
735.52295	31312.5625
739.43388	31249.7625
743.34206	31315.6625
747.24749	31468.7625
751.15017	31661.0625
755.05012	32022.9625
758.94733	32678.9625
762.8418	33830.5625
766.73354	35601.3625
770.62254	37269.2625
774.50882	37749.5625
778.39237	36652.8625
782.27321	34770.0625
786.15132	33186.7625
790.02671	32180.8625
793.89938	31674.7625
797.76935	31485.0625
801.6366	31437.2625
805.50115	31395.8625
809.36299	31232.4625
813.22213	31109.1625
817.07857	30934.4625
820.93231	30777.7625
824.78336	30695.0625
828.63172	30643.1625
832.47738	30655.8625
836.32036	30646.5625
840.16066	30695.7625
843.99827	30686.3625
847.8332	30684.9625
851.66546	30634.8625
855.49504	30673.3625
859.32195	30699.0625
863.1462	30634.0625
866.96777	30617.3625
870.78668	30603.4625
874.60293	30598.5625
878.41652	30666.3625
882.22745	30780.8625
886.03573	30883.5625
889.84136	30859.7625
893.64433	30778.6625
897.44466	30657.5625
901.24235	30510.7625
905.0374	30469.0625
908.8298	30380.5625
912.61957	30400.4625
916.40671	30603.4625
920.19121	30815.8625
923.97308	31072.6625
927.75233	31136.2625
931.52895	31027.7625
935.30295	30764.3625
939.07433	30358.9625
942.84309	30090.2625
946.60924	29965.2625
950.37278	29924.1625
954.13371	29928.8625
957.89203	29862.8625
961.64774	29809.6625
965.40086	29782.1625
969.15137	29763.1625
972.89929	29717.5625
976.64461	29709.8625
980.38733	29751.4625
984.12747	29835.7625
987.86502	30011.8625
991.59999	30197.0625
995.33237	30489.9625
999.06217	30964.3625
1002.78939	31563.4625
1006.51404	32166.9625
1010.23611	32588.6625
1013.95561	32819.9625
1017.67255	32779.9625
1021.38692	32492.9625
1025.09872	32193.5625
1028.80796	32018.6625
1032.51465	32244.6625
1036.21877	32597.1625
1039.92035	32733.1625
1043.61937	32685.4625
1047.31584	32396.4625
1051.00976	32094.7625
1054.70114	31967.2625
1058.38998	32025.8625
1062.07627	32204.2625
1065.76003	32499.7625
1069.44126	32941.4625
1073.11995	33412.5625
1076.79611	33892.3625
1080.46974	34147.8625
1084.14085	34190.1625
1087.80943	34399.7625
1091.47549	34557.8625
1095.13903	34564.8625
1098.80005	34273.5625
1102.45857	33688.1625
1106.11456	33254.9625
1109.76805	32970.4625
1113.41903	32884.7625
1117.06751	32897.8625
1120.71348	33081.5625
1124.35696	33354.4625
1127.99793	33587.8625
1131.63641	33744.4625
1135.2724	33745.9625
1138.90589	33622.1625
1142.5369	33578.6625
1146.16542	33620.5625
1149.79145	33750.9625
1153.415	33855.4625
1157.03607	34093.8625
1160.65467	34759.5625
1164.27079	35901.6625
1167.88443	37259.6625
1171.49561	38791.5625
1175.10432	40531.8625
1178.71056	42879.2625
1182.31434	45156.7625
1185.91565	46607.9625
1189.51451	47063.6625
1193.11091	46430.2625
1196.70485	45156.3625
1200.29634	43622.5625
1203.88538	42533.0625
1207.47197	41716.4625
1211.05612	41094.2625
1214.63782	40450.0625
1218.21708	39669.2625
1221.79391	38877.3625
1225.36829	38291.9625
1228.94024	37937.9625
1232.50976	37659.7625
1236.07685	37467.2625
1239.6415	37385.7625
1243.20374	37470.7625
1246.76355	37785.1625
1250.32093	38290.9625
1253.8759	38965.4625
1257.42845	39805.2625
1260.97859	40759.8625
1264.52631	41739.9625
1268.07163	42768.8625
1271.61453	43689.8625
1275.15503	44571.8625
1278.69312	45364.6625
1282.22882	46087.8625
1285.76211	46817.2625
1289.29301	47636.1625
1292.82151	48918.1625
1296.34761	50481.5625
1299.87133	52445.7625
1303.39266	54761.3625
1306.9116	57041.4625
1310.42815	58956.2625
1313.94233	59886.9625
1317.45412	59639.4625
1320.96354	58862.2625
1324.47058	58266.2625
1327.97525	57808.8625
1331.47754	57616.1625
1334.97747	57812.6625
1338.47502	57895.8625
1341.97022	57879.0625
1345.46305	57654.6625
1348.95352	57300.7625
1352.44163	57157.8625
1355.92738	57698.1625
1359.41078	59103.6625
1362.89183	60409.3625
1366.37053	59526.3625
1369.84688	55665.3625
1373.32088	51004.1625
1376.79254	47379.4625
1380.26186	45852.1625
1383.72883	45449.9625
1387.19347	45277.1625
1390.65578	44649.6625
1394.11575	44212.1625
1397.57339	44220.4625
1401.0287	44589.6625
1404.48168	45141.1625
1407.93234	45511.7625
1411.38068	45345.9625
1414.82669	44603.0625
1418.27039	43512.7625
1421.71177	42301.6625
1425.15083	41305.2625
1428.58758	40919.3625
1432.02203	41247.6625
1435.45416	42050.9625
1438.88399	43023.5625
1442.31151	43702.2625
1445.73673	44070.1625
1449.15965	44176.7625
1452.58027	44099.6625
1455.9986	44009.6625
1459.41463	44246.0625
1462.82837	44879.3625
1466.23982	45687.2625
1469.64898	46407.5625
1473.05586	46833.0625
1476.46045	46999.2625
1479.86276	46857.0625
1483.26279	46592.0625
1486.66054	46564.6625
1490.05602	46732.8625
1493.44922	47177.9625
1496.84016	47724.4625
1500.22882	48586.2625
1503.61521	49822.7625
1506.99934	51191.2625
1510.38121	52238.1625
1513.76081	52284.6625
1517.13816	51252.6625
1520.51324	49501.4625
1523.88607	47986.6625
1527.25665	47072.7625
1530.62498	46678.3625
1533.99105	46440.5625
1537.35488	46024.6625
1540.71647	45504.9625
1544.07581	44754.3625
1547.4329	44038.1625
1550.78776	43441.9625
1554.14038	42970.2625
1557.49077	42740.8625
1560.83892	42577.0625
1564.18484	42506.0625
1567.52853	42442.0625
1570.86999	42760.5625
1574.20922	43244.3625
1577.54624	43705.0625
1580.88103	43744.6625
1584.2136	43898.0625
1587.54395	44736.9625
1590.87208	46407.2625
1594.19801	48721.7625
1597.52172	50955.1625
1600.84321	51628.7625
1604.16251	49983.7625
1607.47959	47178.6625
1610.79447	44065.5625
1614.10715	41194.0625
1617.41763	38635.6625
1620.7259	36877.3625
1624.03199	35967.6625
1627.33587	35812.3625
1630.63757	36446.4625
1633.93707	38140.6625
1637.23439	40855.3625
1640.52951	44776.1625
1643.82246	49206.3625
1647.11321	52556.1625
1650.40179	52845.2625
1653.68819	49689.3625
1656.97241	44491.0625
1660.25446	39396.3625
1663.53433	35671.3625
1666.81203	33264.1625
1670.08756	31738.2625
1673.36092	30824.2625
1676.63211	30108.6625
1679.90115	29638.1625
1683.16801	29292.2625
1686.43272	28997.1625
1689.69527	28785.6625
1692.95567	28611.4625
1696.2139	28506.4625
1699.46999	28467.5625
1702.72392	28374.2625
1705.97571	28358.5625
1709.22535	28242.9625
1712.47284	28216.0625
1715.71819	28163.2625
1718.96139	28126.2625
1722.20246	28040.7625
1725.44139	27945.6625
1728.67818	27825.6625
1731.91284	27725.4625
1735.14537	27624.4625
1738.37576	27488.1625
1741.60403	27410.4625
1744.83017	27338.8625
1748.05418	27254.1625
1751.27607	27234.5625
1754.49584	27209.8625
1757.71349	27166.9625
1760.92903	27120.5625
1764.14244	27071.0625
1767.35375	27104.2625
1770.56294	27123.6625
1773.77002	27051.9625
1776.97499	27008.4625
1780.17785	26994.0625
1783.37861	26903.5625
1786.57727	26947.8625
1789.77382	26890.1625
1792.96828	26839.0625
1796.16064	26785.2625
1799.3509	26709.1625
1802.53907	26707.4625
1805.72514	26645.5625
1808.90913	26570.8625
1812.09102	26517.6625
1815.27083	26485.7625
1818.44856	26445.8625
1821.6242	26387.0625
1824.79776	26426.6625
1827.96924	26379.1625
1831.13864	26339.6625
1834.30597	26387.5625
1837.47122	26406.8625
1840.6344	26410.9625
1843.7955	26407.3625
1846.95454	26378.8625
1850.11151	26372.9625
1853.26642	26335.3625
1856.41926	26322.7625
1859.57004	26293.8625
1862.71876	26313.8625
1865.86542	26265.9625
1869.01003	26253.3625
1872.15258	26268.9625
1875.29308	26188.2625
1878.43152	26136.5625
1881.56792	26114.0625
1884.70227	26099.5625
1887.83457	26102.8625
1890.96482	26076.6625
1894.09304	26012.5625
1897.21921	26014.2625
1900.34335	25990.0625
1903.46544	25986.8625
1906.58551	25927.1625
1909.70353	25884.2625
1912.81953	25890.5625
1915.93349	25856.5625
1919.04543	25778.0625
1922.15534	25721.6625
1925.26322	25666.9625
1928.36908	25621.3625
1931.47292	25550.0625
1934.57473	25504.4625
1937.67453	25433.8625
1940.77232	25392.6625
1943.86808	25290.5625
1946.96184	25294.3625
1950.05358	25244.8625
1953.14331	25186.0625
1956.23103	25138.3625
1959.31675	25034.9625
1962.40046	24999.7625
1965.48217	24910.8625
1968.56188	24855.1625
1971.63959	24790.7625
1974.7153	24697.6625
1977.78901	24603.8625
1980.86073	24588.3625
1983.93046	24522.3625
1986.99819	24436.6625
1990.06394	24324.5625
1993.1277	24297.9625
1996.18947	24226.2625
1999.24925	24230.3625
2002.30706	24096.3625
2005.36288	24012.1625
2008.41672	23943.3625
2011.46859	23936.6625
2014.51848	23879.7625
2017.56639	23841.6625
2020.61233	23732.9625
2023.6563	23693.1625
2026.6983	23609.2625
2029.73833	23588.3625
2032.7764	23556.7625
2035.8125	23536.7625
2038.84664	23461.5625
2041.87881	23467.5625
2044.90903	23423.7625
2047.93729	23370.5625
2050.96359	23369.8625
2053.98794	23328.3625
2057.01034	23277.0625
2060.03078	23293.8625
2063.04927	23233.9625
2066.06582	23240.0625
2069.08042	23215.0625
2072.09307	23213.5625
2075.10378	23217.8625
2078.11255	23183.5625
2081.11938	23224.8625
2084.12426	23201.0625
2087.12722	23152.5625
2090.12824	23152.6625
2093.12732	23123.6625
2096.12447	23183.2625
2099.11969	23155.5625
2102.11299	23171.8625
2105.10435	23226.0625
2108.09379	23204.7625
2111.08131	23217.3625
2114.0669	23262.0625
2117.05057	23278.6625
2120.03233	23297.8625
2123.01216	23303.8625
2125.99008	23329.2625
2128.96609	23339.7625
2131.94018	23387.1625
2134.91236	23375.0625
2137.88263	23395.0625
2140.851	23425.7625
2143.81746	23436.2625
2146.78201	23470.4625
2149.74466	23480.7625
2152.7054	23488.7625
2155.66425	23450.1625
2158.6212	23454.8625
2161.57625	23463.4625
2164.52941	23440.1625
2167.48067	23447.4625
2170.43004	23449.6625
2173.37752	23478.8625
2176.32311	23458.9625
2179.26681	23432.5625
2182.20863	23430.1625
2185.14856	23443.5625
2188.08661	23426.4625
2191.02278	23463.0625
2193.95707	23418.8625
2196.88948	23446.6625
2199.82001	23429.4625
2202.74867	23372.7625
2205.67545	23399.9625
2208.60037	23372.4625
2211.52341	23331.8625
2214.44458	23265.5625
2217.36388	23228.3625
2220.28132	23207.8625
2223.1969	23184.5625
2226.11061	23197.8625
2229.02246	23110.8625
2231.93245	23057.3625
2234.84058	23006.9625
2237.74686	22983.2625
2240.65128	23020.7625
2243.55385	22972.9625
2246.45456	22920.7625
2249.35343	22894.9625
2252.25044	22901.7625
2255.14561	22846.3625
2258.03893	22845.9625
2260.93041	22803.7625
2263.82004	22691.5625
2266.70783	22683.7625
2269.59378	22649.7625
2272.4779	22553.8625
2275.36017	22530.7625
2278.24061	22532.0625
2281.11922	22478.7625
2283.996	22446.0625
2286.87094	22425.4625
2289.74405	22359.4625
2292.61534	22367.6625
2295.4848	22322.5625
2298.35243	22366.6625
2301.21824	22311.5625
2304.08223	22315.8625
2306.94439	22307.0625
2309.80474	22373.6625
2312.66327	22321.0625
2315.51999	22296.5625
2318.37489	22286.4625
2321.22797	22273.7625
2324.07925	22270.6625
2326.92871	22212.4625
2329.77637	22202.5625
2332.62222	22156.9625
2335.46626	22176.3625
2338.3085	22102.4625
2341.14893	22118.4625
2343.98756	22118.2625
2346.8244	22110.5625
2349.65943	22096.1625
2352.49267	22027.1625
2355.32411	22072.6625
2358.15376	22046.8625
2360.98161	22015.1625
2363.80768	22021.3625
2366.63195	22011.2625
2369.45444	21994.2625
2372.27514	21963.7625
2375.09405	21923.7625
2377.91118	21929.8625
2380.72652	21824.6625
2383.54009	21840.9625
2386.35187	21806.3625
2389.16188	21762.9625
2391.97011	21709.4625
2394.77657	21717.4625
2397.58125	21649.2625
2400.38416	21620.8625
2403.18529	21613.6625
2405.98466	21557.9625
2408.78226	21517.8625
2411.57809	21539.7625
2414.37216	21527.4625
2417.16446	21513.3625
2419.955	21481.0625
2422.74378	21436.4625
2425.5308	21445.5625
2428.31606	21440.0625
2431.09956	21445.9625
2433.88131	21381.4625
2436.6613	21398.0625
2439.43954	21380.6625
2442.21603	21359.8625
2444.99077	21355.7625
2447.76377	21392.2625
2450.53501	21324.8625
2453.30451	21326.8625
2456.07226	21338.0625
2458.83827	21308.6625
2461.60254	21273.9625
2464.36507	21287.2625
2467.12586	21253.3625
2469.88492	21216.8625
2472.64224	21259.0625
2475.39782	21253.2625
2478.15167	21258.9625
2480.90379	21247.2625
2483.65417	21229.1625
2486.40283	21201.9625
2489.14976	21239.7625
2491.89497	21230.5625
2494.63845	21224.0625
2497.3802	21229.9625
2500.12024	21196.8625
2502.85855	21225.7625
2505.59514	21183.4625
2508.33002	21209.6625
2511.06318	21152.0625
2513.79462	21143.1625
2516.52435	21153.5625
2519.25237	21116.9625
2521.97867	21110.1625
2524.70327	21106.1625
2527.42616	21054.6625
2530.14734	21063.7625
2532.86681	21025.5625
2535.58458	21014.9625
2538.30065	21000.3625
2541.01501	20993.8625
2543.72768	20953.2625
2546.43864	20964.6625
2549.14791	20903.5625
2551.85548	20871.2625
2554.56136	20863.3625
2557.26554	20845.4625
2559.96803	20815.0625
2562.66883	20858.0625
2565.36794	20810.0625
2568.06536	20802.7625
2570.7611	20768.9625
2573.45514	20731.3625
2576.14751	20752.2625
2578.83819	20711.1625
2581.52719	20699.4625
2584.21451	20688.0625
2586.90015	20687.9625
2589.58411	20636.8625
2592.2664	20612.3625
2594.94701	20552.8625
2597.62594	20578.6625
2600.30321	20534.9625
2602.9788	20519.0625
2605.65273	20467.2625
2608.32498	20483.3625
2610.99557	20459.6625
2613.66449	20453.9625
2616.33175	20437.9625
2618.99734	20469.9625
2621.66128	20409.2625
2624.32355	20405.7625
2626.98416	20381.9625
2629.64311	20355.9625
2632.30041	20370.8625
2634.95605	20346.3625
2637.61004	20324.6625
2640.26238	20289.8625
2642.91306	20328.3625
2645.56209	20279.3625
2648.20948	20276.4625
2650.85521	20275.8625
2653.4993	20276.1625
2656.14175	20261.6625
2658.78255	20299.0625
2661.42171	20293.5625
2664.05923	20287.3625
2666.6951	20303.0625
2669.32934	20312.7625
2671.96194	20301.7625
2674.59291	20355.0625
2677.22224	20272.2625
2679.84993	20324.2625
2682.476	20302.5625
2685.10043	20318.1625
2687.72324	20298.7625
2690.34441	20311.8625
2692.96396	20297.4625
2695.58188	20296.9625
2698.19818	20286.5625
2700.81285	20293.3625
2703.4259	20284.8625
2706.03733	20312.0625
2708.64714	20326.5625
2711.25533	20283.3625
2713.86191	20323.7625
2716.46687	20354.8625
2719.07021	20301.5625
2721.67194	20340.3625
2724.27206	20300.7625
2726.87057	20326.4625
2729.46747	20271.6625
2732.06276	20296.5625
2734.65644	20315.4625
2737.24852	20303.0625
2739.83899	20312.8625
2742.42786	20339.6625
2745.01513	20302.7625
2747.60079	20282.1625
2750.18486	20285.6625
2752.76733	20298.6625
2755.3482	20239.9625
2757.92747	20256.1625
2760.50515	20251.0625
2763.08123	20213.8625
2765.65573	20178.5625
2768.22863	20170.8625
2770.79994	20142.0625
2773.36967	20186.6625
2775.9378	20123.6625
2778.50435	20122.9625
2781.06932	20091.3625
2783.6327	20132.4625
2786.1945	20095.7625
2788.75471	20024.0625
2791.31335	20000.3625
2793.87041	20001.7625
2796.42589	19916.3625
2798.97979	19928.5625
2801.53212	19842.3625
2804.08288	19857.1625
2806.63206	19794.8625
2809.17967	19758.5625
2811.72571	19756.0625
2814.27018	19767.5625
2816.81308	19683.3625
2819.35442	19634.2625
2821.89419	19627.2625
2824.43239	19611.5625
2826.96904	19593.2625
2829.50412	19593.1625
2832.03763	19553.9625
2834.56959	19545.1625
2837.1	19506.1625
2839.62884	19495.1625
2842.15613	19473.6625
2844.68186	19482.8625
2847.20604	19435.9625
2849.72867	19480.2625
2852.24974	19425.9625
2854.76927	19432.8625
2857.28724	19358.6625
2859.80367	19365.3625
2862.31855	19358.2625
2864.83189	19321.0625
2867.34368	19307.3625
2869.85393	19314.2625
2872.36264	19350.4625
2874.8698	19318.5625
2877.37543	19278.4625
2879.87952	19319.1625
2882.38207	19278.7625
2884.88308	19259.9625
2887.38256	19287.8625
2889.88051	19300.4625
2892.37692	19280.0625
2894.8718	19281.0625
2897.36515	19287.8625
2899.85698	19319.6625
2902.34727	19339.3625
2904.83604	19338.7625
2907.32328	19347.9625
2909.809	19328.3625
2912.29319	19395.2625
2914.77587	19359.4625
2917.25702	19367.3625
2919.73665	19317.6625
2922.21476	19324.8625
2924.69136	19283.5625
2927.16644	19287.2625
2929.64	19284.3625
2932.11205	19271.3625
2934.58258	19196.4625
2937.05161	19281.7625
2939.51912	19253.7625
2941.98513	19217.3625
2944.44962	19199.4625
2946.91261	19138.9625
2949.37409	19160.1625
2951.83407	19136.4625
2954.29254	19152.5625
2956.74951	19103.6625
2959.20498	19163.0625
2961.65895	19071.4625
2964.11142	19060.9625
2966.56239	19059.8625
2969.01186	19022.7625
2971.45984	18993.0625
2973.90632	18988.1625
2976.35131	18926.1625
2978.7948	18893.5625
2981.23681	18857.5625
2983.67732	18847.8625
2986.11635	18805.4625
2988.55388	18716.4625
2990.98993	18717.1625
2993.4245	18707.2625
2995.85758	18671.2625
2998.28917	18593.8625
3000.71928	18575.4625
3003.14791	18542.6625
3005.57506	18529.9625
3008.00073	18493.4625
3010.42493	18474.4625
3012.84764	18457.4625
3015.26888	18431.2625
3017.68865	18370.5625
3020.10694	18361.0625
3022.52376	18318.1625
3024.9391	18307.4625
3027.35298	18268.8625
3029.76539	18239.5625
3032.17632	18204.9625
3034.5858	18199.7625
3036.9938	18200.9625
3039.40034	18171.3625
3041.80542	18172.8625
3044.20903	18165.1625
3046.61118	18143.4625
3049.01187	18068.2625
3051.4111	18031.3625
3053.80888	18037.0625
3056.20519	17999.0625
3058.60005	17954.6625
3060.99345	17904.7625
3063.3854	17899.2625
3065.7759	17855.9625
3068.16494	17835.4625
3070.55254	17798.5625
3072.93868	17751.5625
3075.32338	17717.6625
3077.70662	17689.6625
3080.08842	17657.0625
3082.46878	17658.4625
3084.84769	17609.9625
3087.22515	17613.5625
3089.60118	17612.1625
3091.97576	17604.4625
3094.3489	17573.2625
3096.72061	17576.7625
3099.09087	17575.3625
3101.4597	17532.8625
3103.82709	17516.2625
3106.19305	17464.9625
3108.55757	17474.9625
3110.92066	17418.6625
3113.28232	17362.1625
3115.64255	17339.3625
3118.00134	17309.0625
3120.35871	17290.6625
3122.71466	17281.6625
3125.06917	17238.9625
3127.42226	17174.0625
3129.77393	17193.3625
3132.12417	17179.0625
3134.47299	17199.4625
3136.82039	17188.3625
3139.16636	17168.2625
3141.51092	17143.8625
3143.85406	17182.4625
3146.19579	17146.3625
3148.53609	17133.6625
3150.87499	17152.0625
3153.21246	17153.7625
3155.54853	17180.5625
3157.88318	17152.1625
3160.21642	17129.2625
3162.54826	17165.5625
3164.87868	17105.0625
3167.2077	17144.8625
3169.5353	17119.3625
3171.86151	17106.8625
3174.18631	17064.3625
3176.5097	17050.4625
3178.83169	17018.2625
3181.15228	16993.2625
3183.47147	16994.2625
3185.78926	16979.6625
3188.10565	16935.2625
3190.42065	16940.7625
3192.73424	16934.9625
3195.04645	16924.7625
3197.35725	16882.6625
3199.66667	16912.4625
3201.97469	16906.5625
3204.28132	16941.9625
3206.58656	16947.0625
3208.8904	16936.6625
3211.19287	16919.0625
3213.49394	16918.4625
3215.79363	16895.0625
3218.09193	16923.7625
3220.38884	16908.4625
3222.68438	16890.3625
3224.97853	16849.5625
3227.2713	16860.0625
3229.56269	16813.0625
3231.8527	16826.7625
3234.14133	16793.6625
3236.42858	16802.1625
3238.71446	16737.8625
3240.99896	16738.6625
3243.28209	16740.9625
3245.56384	16695.3625
3247.84423	16716.9625
3250.12324	16667.7625
3252.40088	16702.9625
3254.67715	16674.1625
3256.95205	16630.0625
3259.22558	16633.9625
3261.49775	16583.2625
3263.76855	16572.1625
3266.03799	16533.2625
3268.30606	16525.0625
3270.57277	16473.1625
3272.83812	16459.1625
3275.10211	16410.1625
3277.36474	16412.7625
3279.62601	16430.2625
3281.88593	16389.3625
3284.14448	16373.7625
3286.40168	16403.5625
3288.65753	16369.1625
3290.91202	16326.9625
3293.16516	16274.1625
3295.41695	16250.3625
3297.66738	16156.3625
3299.91647	16062.1625
3302.16421	15956.7625
3304.4106	15913.8625
3306.65564	15800.6625
3308.89933	15729.7625
3311.14169	15628.6625
3313.38269	15486.8625
3315.62236	15430.8625
3317.86068	15319.5625
3320.09766	15159.5625
3322.3333	15039.9625
3324.5676	15049.0625
3326.80056	14797.1625
3329.03219	14692.3625
3331.26248	3.5625
3333.49143	1.6625
3335.71905	0.1625
