Data from AgNPs_FTO_APTES_UA_5uM_R6G_10uM_NaF_0.1M_Addition_RamanShift__35__13-06-27-292.txt Node

Date: Fri Dec 17 13:06:27 GMT 2021
User: TCL
Spectrometer: QEP01345
Trigger mode: 4
Integration Time (sec): 7.000000E0
Scans to average: 10
Electric dark correction enabled: true
Nonlinearity correction enabled: false
Boxcar width: 0
XAxis mode: Raman Shifts
Number of Pixels in Spectrum: 1044
>>>>>Begin Spectral Data<<<<<
46.04893	-0.0375
50.45542	-0.9375
54.85868	-1.7375
59.25871	-1.2375
63.6555	151.0625
68.04907	155.7625
72.43941	160.8625
76.82654	175.4625
81.21044	178.4625
85.59113	181.3625
89.96862	190.0625
94.34289	193.4625
98.71396	201.1625
103.08183	205.8625
107.4465	216.5625
111.80798	216.9625
116.16626	222.4625
120.52136	230.3625
124.87327	245.6625
129.222	257.1625
133.56755	270.3625
137.90993	291.8625
142.24913	322.6625
146.58517	360.8625
150.91804	419.7625
155.24774	494.9625
159.57429	614.5625
163.89768	784.7625
168.21792	1036.6625
172.53501	1405.8625
176.84895	1955.4625
181.15975	2750.7625
185.46741	3845.0625
189.77193	5318.3625
194.07331	7102.1625
198.37157	9182.5625
202.6667	11325.7625
206.9587	13471.4625
211.24758	15554.8625
215.53334	17652.4625
219.81599	19850.1625
224.09553	22248.2625
228.37195	24911.0625
232.64527	27869.2625
236.91549	30987.4625
241.18261	34175.5625
245.44663	37236.5625
249.70755	39991.1625
253.96539	42397.3625
258.22014	44416.9625
262.4718	46056.8625
266.72039	47129.1625
270.96589	47759.0625
275.20832	47780.2625
279.44768	47389.2625
283.68397	46928.4625
287.91719	46325.4625
292.14735	45973.4625
296.37445	45711.3625
300.59849	45646.2625
304.81948	45670.1625
309.03742	45700.9625
313.25231	45629.4625
317.46415	45243.8625
321.67296	44858.9625
325.87872	44435.0625
330.08145	44186.5625
334.28114	44286.8625
338.47781	44536.1625
342.67145	45068.9625
346.86207	45646.3625
351.04966	46483.4625
355.23424	47320.3625
359.4158	48034.5625
363.59435	48706.5625
367.76989	49143.2625
371.94243	49503.4625
376.11196	49765.2625
380.27849	50023.5625
384.44203	50364.8625
388.60257	50847.2625
392.76012	51368.7625
396.91468	51952.7625
401.06626	52607.2625
405.21485	53223.8625
409.36047	53269.9625
413.50311	53178.7625
417.64277	53242.9625
421.77947	53597.8625
425.9132	53975.4625
430.04396	54227.8625
434.17176	54400.1625
438.2966	54671.0625
442.41849	55297.7625
446.53742	56456.8625
450.6534	57819.6625
454.76644	58781.0625
458.87653	59021.4625
462.98368	58626.9625
467.08789	57769.2625
471.18916	56823.0625
475.2875	55608.8625
479.38291	54769.2625
483.4754	54187.9625
487.56496	53653.2625
491.6516	53345.2625
495.73531	53269.3625
499.81612	53379.2625
503.89401	53966.5625
507.96899	54329.0625
512.04106	54431.6625
516.11023	54183.9625
520.1765	53699.0625
524.23987	53262.2625
528.30034	52851.7625
532.35792	52509.9625
536.41261	52041.5625
540.46441	51608.1625
544.51333	51541.1625
548.55936	51804.3625
552.60252	52516.5625
556.64279	53372.8625
560.6802	54169.4625
564.71473	54547.3625
568.7464	55064.0625
572.7752	56187.7625
576.80114	57727.4625
580.82422	59802.0625
584.84444	62630.1625
588.86181	65898.6625
592.87633	68330.5625
596.888	67706.9625
600.89682	64840.5625
604.9028	63642.4625
608.90594	65786.3625
612.90624	68014.2625
616.90371	64624.0625
620.89834	57798.1625
624.89015	54717.1625
628.87913	54297.6625
632.86528	54327.5625
636.84862	54111.2625
640.82913	53283.4625
644.80683	52317.8625
648.78172	51798.7625
652.75379	51983.4625
656.72306	52529.6625
660.68952	53138.0625
664.65319	52789.2625
668.61405	52195.5625
672.57211	52281.4625
676.52738	52569.9625
680.47986	52528.2625
684.42955	52136.5625
688.37646	51995.1625
692.32058	52439.6625
696.26192	53149.5625
700.20048	53927.7625
704.13626	54259.2625
708.06928	54153.8625
711.99952	53854.5625
715.927	53937.6625
719.85171	54196.2625
723.77365	54099.2625
727.69284	53423.4625
731.60928	52702.7625
735.52295	52387.0625
739.43388	52397.1625
743.34206	52535.0625
747.24749	52828.0625
751.15017	53169.6625
755.05012	53864.4625
758.94733	54860.8625
762.8418	56564.9625
766.73354	58854.6625
770.62254	60903.5625
774.50882	61117.0625
778.39237	59369.0625
782.27321	56982.4625
786.15132	54899.0625
790.02671	53607.5625
793.89938	52970.3625
797.76935	52805.1625
801.6366	52754.7625
805.50115	52770.1625
809.36299	52555.4625
813.22213	52154.7625
817.07857	51800.5625
820.93231	51532.1625
824.78336	51391.5625
828.63172	51324.5625
832.47738	51275.1625
836.32036	51323.3625
840.16066	51434.3625
843.99827	51512.7625
847.8332	51522.5625
851.66546	51522.3625
855.49504	51636.0625
859.32195	51657.3625
863.1462	51604.4625
866.96777	51545.9625
870.78668	51531.6625
874.60293	51604.0625
878.41652	51610.3625
882.22745	51745.1625
886.03573	51964.2625
889.84136	51974.0625
893.64433	51752.8625
897.44466	51486.0625
901.24235	51365.3625
905.0374	51213.8625
908.8298	51183.5625
912.61957	51289.6625
916.40671	51588.7625
920.19121	52107.5625
923.97308	52612.2625
927.75233	52780.7625
931.52895	52473.2625
935.30295	51918.5625
939.07433	51224.2625
942.84309	50879.2625
946.60924	50724.9625
950.37278	50723.4625
954.13371	50742.8625
957.89203	50663.6625
961.64774	50587.4625
965.40086	50550.4625
969.15137	50568.6625
972.89929	50563.2625
976.64461	50640.2625
980.38733	50767.0625
984.12747	50943.3625
987.86502	51139.0625
991.59999	51512.0625
995.33237	52001.1625
999.06217	52822.1625
1002.78939	54017.2625
1006.51404	55132.5625
1010.23611	56112.6625
1013.95561	56598.0625
1017.67255	56493.3625
1021.38692	55734.4625
1025.09872	54968.6625
1028.80796	54628.8625
1032.51465	55032.0625
1036.21877	55557.5625
1039.92035	55839.8625
1043.61937	55612.9625
1047.31584	55223.0625
1051.00976	54631.7625
1054.70114	54379.5625
1058.38998	54446.2625
1062.07627	54767.0625
1065.76003	55188.5625
1069.44126	55728.0625
1073.11995	56506.5625
1076.79611	57279.7625
1080.46974	57682.6625
1084.14085	57957.2625
1087.80943	58314.2625
1091.47549	58639.8625
1095.13903	58637.1625
1098.80005	58000.4625
1102.45857	57110.3625
1106.11456	56418.7625
1109.76805	56094.3625
1113.41903	55967.1625
1117.06751	55916.7625
1120.71348	56114.3625
1124.35696	56427.6625
1127.99793	56721.5625
1131.63641	56946.9625
1135.2724	56963.7625
1138.90589	57062.6625
1142.5369	57238.3625
1146.16542	57588.8625
1149.79145	57890.6625
1153.415	58203.0625
1157.03607	58917.3625
1160.65467	60283.3625
1164.27079	62623.3625
1167.88443	65198.0625
1171.49561	67786.8625
1175.10432	70479.5625
1178.71056	74016.4625
1182.31434	77671.2625
1185.91565	79651.3625
1189.51451	79467.6625
1193.11091	78007.3625
1196.70485	76113.6625
1200.29634	74116.4625
1203.88538	73011.0625
1207.47197	72677.0625
1211.05612	72207.7625
1214.63782	71256.7625
1218.21708	69819.0625
1221.79391	68171.3625
1225.36829	67109.4625
1228.94024	66352.9625
1232.50976	65730.0625
1236.07685	64997.9625
1239.6415	64400.8625
1243.20374	64459.3625
1246.76355	65037.2625
1250.32093	66092.8625
1253.8759	67363.6625
1257.42845	68839.9625
1260.97859	70489.6625
1264.52631	72320.4625
1268.07163	74301.4625
1271.61453	76331.6625
1275.15503	78215.9625
1278.69312	79927.9625
1282.22882	81593.9625
1285.76211	83250.2625
1289.29301	85358.0625
1292.82151	88026.5625
1296.34761	91313.0625
1299.87133	95716.8625
1303.39266	100477.8625
1306.9116	104908.2625
1310.42815	108101.7625
1313.94233	109184.6625
1317.45412	108372.5625
1320.96354	106538.8625
1324.47058	105285.6625
1327.97525	104676.4625
1331.47754	104638.1625
1334.97747	104641.7625
1338.47502	104246.2625
1341.97022	102706.8625
1345.46305	100440.4625
1348.95352	98474.2625
1352.44163	97793.1625
1355.92738	99477.7625
1359.41078	102779.3625
1362.89183	105318.5625
1366.37053	103874.5625
1369.84688	97756.4625
1373.32088	89180.4625
1376.79254	82815.7625
1380.26186	80545.3625
1383.72883	80634.7625
1387.19347	80867.5625
1390.65578	80117.3625
1394.11575	79659.5625
1397.57339	80296.5625
1401.0287	81781.9625
1404.48168	83342.5625
1407.93234	84147.3625
1411.38068	83820.7625
1414.82669	82331.4625
1418.27039	79784.5625
1421.71177	77086.2625
1425.15083	75004.4625
1428.58758	74367.3625
1432.02203	75329.6625
1435.45416	77360.0625
1438.88399	79643.1625
1442.31151	81222.5625
1445.73673	81522.8625
1449.15965	81305.9625
1452.58027	80606.0625
1455.9986	79960.0625
1459.41463	80009.4625
1462.82837	81159.2625
1466.23982	82776.8625
1469.64898	84319.8625
1473.05586	85426.1625
1476.46045	85654.9625
1479.86276	85133.4625
1483.26279	84247.0625
1486.66054	83755.2625
1490.05602	83813.7625
1493.44922	84095.1625
1496.84016	84069.8625
1500.22882	84167.5625
1503.61521	84585.7625
1506.99934	85224.9625
1510.38121	85819.8625
1513.76081	85628.8625
1517.13816	84371.7625
1520.51324	82843.3625
1523.88607	81897.2625
1527.25665	81910.4625
1530.62498	82279.8625
1533.99105	82364.2625
1537.35488	81756.2625
1540.71647	80505.9625
1544.07581	78889.0625
1547.4329	77326.5625
1550.78776	76025.4625
1554.14038	74919.1625
1557.49077	74235.5625
1560.83892	73718.9625
1564.18484	73347.3625
1567.52853	73211.5625
1570.86999	73530.6625
1574.20922	74487.7625
1577.54624	75501.4625
1580.88103	76228.0625
1584.2136	77593.5625
1587.54395	80476.3625
1590.87208	85178.0625
1594.19801	90876.0625
1597.52172	95865.2625
1600.84321	97119.1625
1604.16251	92931.0625
1607.47959	85659.7625
1610.79447	78183.3625
1614.10715	71963.3625
1617.41763	67313.8625
1620.7259	64334.1625
1624.03199	63040.4625
1627.33587	63230.1625
1630.63757	64997.3625
1633.93707	68577.5625
1637.23439	74564.1625
1640.52951	83136.1625
1643.82246	92810.0625
1647.11321	99612.1625
1650.40179	98976.1625
1653.68819	90725.8625
1656.97241	79207.1625
1660.25446	69110.7625
1663.53433	62278.3625
1666.81203	58052.4625
1670.08756	55434.8625
1673.36092	53804.6625
1676.63211	52675.1625
1679.90115	51917.1625
1683.16801	51302.0625
1686.43272	50911.1625
1689.69527	50583.9625
1692.95567	50291.4625
1696.2139	50082.9625
1699.46999	49958.1625
1702.72392	49944.3625
1705.97571	49853.0625
1709.22535	49767.3625
1712.47284	49689.8625
1715.71819	49642.2625
1718.96139	49595.7625
1722.20246	49539.3625
1725.44139	49337.2625
1728.67818	49108.3625
1731.91284	48872.4625
1735.14537	48667.8625
1738.37576	48529.2625
1741.60403	48290.6625
1744.83017	48149.0625
1748.05418	48085.6625
1751.27607	47980.6625
1754.49584	47927.0625
1757.71349	47880.9625
1760.92903	47872.9625
1764.14244	47908.8625
1767.35375	47857.9625
1770.56294	47865.9625
1773.77002	47780.9625
1776.97499	47676.6625
1780.17785	47607.5625
1783.37861	47617.7625
1786.57727	47552.6625
1789.77382	47391.7625
1792.96828	47374.6625
1796.16064	47315.0625
1799.3509	47282.5625
1802.53907	47257.4625
1805.72514	47071.3625
1808.90913	46995.7625
1812.09102	46896.2625
1815.27083	46850.2625
1818.44856	46788.6625
1821.6242	46775.9625
1824.79776	46714.9625
1827.96924	46693.8625
1831.13864	46681.9625
1834.30597	46754.8625
1837.47122	46751.8625
1840.6344	46795.0625
1843.7955	46698.9625
1846.95454	46674.1625
1850.11151	46675.6625
1853.26642	46655.6625
1856.41926	46681.5625
1859.57004	46666.3625
1862.71876	46599.4625
1865.86542	46533.0625
1869.01003	46523.1625
1872.15258	46460.5625
1875.29308	46463.3625
1878.43152	46399.2625
1881.56792	46414.9625
1884.70227	46396.9625
1887.83457	46355.1625
1890.96482	46325.8625
1894.09304	46304.3625
1897.21921	46177.9625
1900.34335	46136.6625
1903.46544	46069.8625
1906.58551	46077.5625
1909.70353	45987.5625
1912.81953	45913.3625
1915.93349	45847.7625
1919.04543	45746.9625
1922.15534	45710.3625
1925.26322	45621.5625
1928.36908	45560.3625
1931.47292	45479.0625
1934.57473	45301.9625
1937.67453	45150.4625
1940.77232	45052.6625
1943.86808	44985.6625
1946.96184	44938.0625
1950.05358	44857.9625
1953.14331	44734.5625
1956.23103	44630.4625
1959.31675	44482.9625
1962.40046	44401.1625
1965.48217	44280.1625
1968.56188	44167.7625
1971.63959	44049.3625
1974.7153	43909.9625
1977.78901	43787.0625
1980.86073	43682.5625
1983.93046	43570.3625
1986.99819	43438.3625
1990.06394	43367.3625
1993.1277	43261.8625
1996.18947	43103.4625
1999.24925	43051.5625
2002.30706	42897.0625
2005.36288	42764.2625
2008.41672	42656.1625
2011.46859	42610.8625
2014.51848	42495.9625
2017.56639	42431.0625
2020.61233	42296.7625
2023.6563	42248.0625
2026.6983	42157.4625
2029.73833	42100.2625
2032.7764	42032.0625
2035.8125	41949.9625
2038.84664	41831.3625
2041.87881	41821.5625
2044.90903	41723.1625
2047.93729	41710.8625
2050.96359	41618.6625
2053.98794	41602.0625
2057.01034	41621.7625
2060.03078	41528.6625
2063.04927	41521.5625
2066.06582	41450.5625
2069.08042	41439.6625
2072.09307	41500.0625
2075.10378	41384.7625
2078.11255	41359.4625
2081.11938	41367.1625
2084.12426	41304.1625
2087.12722	41306.8625
2090.12824	41308.8625
2093.12732	41304.4625
2096.12447	41323.2625
2099.11969	41372.4625
2102.11299	41392.9625
2105.10435	41383.2625
2108.09379	41436.4625
2111.08131	41535.2625
2114.0669	41503.6625
2117.05057	41612.1625
2120.03233	41560.8625
2123.01216	41627.5625
2125.99008	41644.2625
2128.96609	41704.3625
2131.94018	41700.4625
2134.91236	41742.4625
2137.88263	41788.3625
2140.851	41762.0625
2143.81746	41842.6625
2146.78201	41822.5625
2149.74466	41843.8625
2152.7054	41847.2625
2155.66425	41839.7625
2158.6212	41885.6625
2161.57625	41849.9625
2164.52941	41864.7625
2167.48067	41816.4625
2170.43004	41837.8625
2173.37752	41878.5625
2176.32311	41851.7625
2179.26681	41836.8625
2182.20863	41865.0625
2185.14856	41889.4625
2188.08661	41924.7625
2191.02278	41894.3625
2193.95707	41830.4625
2196.88948	41857.2625
2199.82001	41879.0625
2202.74867	41810.3625
2205.67545	41761.2625
2208.60037	41696.4625
2211.52341	41679.5625
2214.44458	41607.2625
2217.36388	41547.8625
2220.28132	41503.8625
2223.1969	41403.6625
2226.11061	41383.6625
2229.02246	41310.4625
2231.93245	41312.0625
2234.84058	41260.7625
2237.74686	41222.6625
2240.65128	41214.0625
2243.55385	41125.4625
2246.45456	41039.3625
2249.35343	41005.3625
2252.25044	40888.8625
2255.14561	40811.7625
2258.03893	40802.1625
2260.93041	40715.2625
2263.82004	40571.7625
2266.70783	40551.1625
2269.59378	40437.4625
2272.4779	40385.5625
2275.36017	40277.7625
2278.24061	40243.9625
2281.11922	40176.5625
2283.996	40037.0625
2286.87094	40109.7625
2289.74405	40009.8625
2292.61534	40016.5625
2295.4848	40005.9625
2298.35243	40005.4625
2301.21824	39958.4625
2304.08223	40024.6625
2306.94439	39962.0625
2309.80474	39965.6625
2312.66327	39943.3625
2315.51999	39977.5625
2318.37489	39934.3625
2321.22797	39925.6625
2324.07925	39905.8625
2326.92871	39822.6625
2329.77637	39761.2625
2332.62222	39720.3625
2335.46626	39711.0625
2338.3085	39673.5625
2341.14893	39613.4625
2343.98756	39665.1625
2346.8244	39638.2625
2349.65943	39619.5625
2352.49267	39595.8625
2355.32411	39537.5625
2358.15376	39530.3625
2360.98161	39467.3625
2363.80768	39426.9625
2366.63195	39420.0625
2369.45444	39336.9625
2372.27514	39313.2625
2375.09405	39223.5625
2377.91118	39198.3625
2380.72652	39102.9625
2383.54009	39051.4625
2386.35187	38963.6625
2389.16188	38897.6625
2391.97011	38920.3625
2394.77657	38859.8625
2397.58125	38793.1625
2400.38416	38777.8625
2403.18529	38670.2625
2405.98466	38663.1625
2408.78226	38644.9625
2411.57809	38608.4625
2414.37216	38564.3625
2417.16446	38538.7625
2419.955	38467.2625
2422.74378	38506.1625
2425.5308	38445.9625
2428.31606	38420.5625
2431.09956	38354.0625
2433.88131	38326.9625
2436.6613	38326.8625
2439.43954	38282.7625
2442.21603	38291.6625
2444.99077	38273.5625
2447.76377	38314.6625
2450.53501	38213.8625
2453.30451	38209.0625
2456.07226	38227.7625
2458.83827	38202.2625
2461.60254	38163.1625
2464.36507	38135.1625
2467.12586	38144.7625
2469.88492	38189.6625
2472.64224	38141.0625
2475.39782	38160.3625
2478.15167	38134.7625
2480.90379	38138.0625
2483.65417	38058.2625
2486.40283	38114.3625
2489.14976	38113.2625
2491.89497	38105.2625
2494.63845	38154.3625
2497.3802	38033.1625
2500.12024	38054.3625
2502.85855	38019.6625
2505.59514	37991.6625
2508.33002	38005.1625
2511.06318	37958.8625
2513.79462	37942.9625
2516.52435	37961.4625
2519.25237	37964.9625
2521.97867	37956.1625
2524.70327	37924.7625
2527.42616	37860.5625
2530.14734	37912.1625
2532.86681	37805.9625
2535.58458	37835.2625
2538.30065	37762.7625
2541.01501	37689.6625
2543.72768	37656.7625
2546.43864	37681.0625
2549.14791	37618.0625
2551.85548	37576.6625
2554.56136	37522.8625
2557.26554	37534.2625
2559.96803	37489.7625
2562.66883	37497.1625
2565.36794	37462.4625
2568.06536	37444.0625
2570.7611	37434.7625
2573.45514	37337.9625
2576.14751	37331.2625
2578.83819	37299.2625
2581.52719	37280.0625
2584.21451	37199.6625
2586.90015	37271.0625
2589.58411	37251.1625
2592.2664	37143.7625
2594.94701	37076.8625
2597.62594	37034.5625
2600.30321	36966.3625
2602.9788	36989.2625
2605.65273	36938.7625
2608.32498	36900.8625
2610.99557	36874.2625
2613.66449	36885.0625
2616.33175	36872.9625
2618.99734	36844.7625
2621.66128	36821.1625
2624.32355	36815.7625
2626.98416	36779.9625
2629.64311	36742.8625
2632.30041	36778.5625
2634.95605	36664.2625
2637.61004	36678.1625
2640.26238	36638.4625
2642.91306	36623.6625
2645.56209	36621.0625
2648.20948	36648.9625
2650.85521	36643.6625
2653.4993	36646.2625
2656.14175	36638.0625
2658.78255	36671.7625
2661.42171	36611.1625
2664.05923	36711.8625
2666.6951	36715.0625
2669.32934	36760.3625
2671.96194	36722.9625
2674.59291	36751.9625
2677.22224	36718.1625
2679.84993	36675.1625
2682.476	36696.3625
2685.10043	36687.5625
2687.72324	36588.1625
2690.34441	36635.1625
2692.96396	36661.3625
2695.58188	36622.9625
2698.19818	36606.1625
2700.81285	36663.3625
2703.4259	36619.8625
2706.03733	36677.0625
2708.64714	36648.0625
2711.25533	36752.1625
2713.86191	36714.5625
2716.46687	36821.3625
2719.07021	36719.5625
2721.67194	36776.5625
2724.27206	36687.9625
2726.87057	36785.2625
2729.46747	36825.4625
2732.06276	36816.5625
2734.65644	36850.2625
2737.24852	36851.8625
2739.83899	36803.9625
2742.42786	36855.3625
2745.01513	36775.8625
2747.60079	36754.2625
2750.18486	36795.7625
2752.76733	36736.2625
2755.3482	36693.2625
2757.92747	36674.2625
2760.50515	36713.4625
2763.08123	36664.4625
2765.65573	36580.0625
2768.22863	36617.8625
2770.79994	36601.9625
2773.36967	36597.9625
2775.9378	36525.7625
2778.50435	36480.1625
2781.06932	36403.7625
2783.6327	36436.7625
2786.1945	36404.9625
2788.75471	36389.0625
2791.31335	36279.1625
2793.87041	36183.5625
2796.42589	36118.3625
2798.97979	36119.2625
2801.53212	36027.2625
2804.08288	35989.5625
2806.63206	35884.5625
2809.17967	35851.2625
2811.72571	35782.7625
2814.27018	35793.9625
2816.81308	35721.5625
2819.35442	35635.2625
2821.89419	35541.2625
2824.43239	35538.0625
2826.96904	35510.8625
2829.50412	35467.8625
2832.03763	35388.9625
2834.56959	35401.8625
2837.1	35289.0625
2839.62884	35277.7625
2842.15613	35193.1625
2844.68186	35201.4625
2847.20604	35212.2625
2849.72867	35171.9625
2852.24974	35152.7625
2854.76927	35124.3625
2857.28724	35031.9625
2859.80367	35008.0625
2862.31855	34946.2625
2864.83189	34912.3625
2867.34368	34873.4625
2869.85393	34915.7625
2872.36264	34874.4625
2874.8698	34870.3625
2877.37543	34843.9625
2879.87952	34902.7625
2882.38207	34874.1625
2884.88308	34879.7625
2887.38256	34927.4625
2889.88051	34937.6625
2892.37692	34938.4625
2894.8718	34865.4625
2897.36515	34949.9625
2899.85698	34893.8625
2902.34727	35030.3625
2904.83604	35011.6625
2907.32328	35044.6625
2909.809	35007.7625
2912.29319	35063.6625
2914.77587	35033.8625
2917.25702	35002.2625
2919.73665	34960.0625
2922.21476	34984.3625
2924.69136	34946.7625
2927.16644	34946.7625
2929.64	34914.2625
2932.11205	34853.5625
2934.58258	34738.0625
2937.05161	34840.9625
2939.51912	34819.2625
2941.98513	34817.2625
2944.44962	34784.7625
2946.91261	34669.0625
2949.37409	34767.4625
2951.83407	34733.9625
2954.29254	34736.9625
2956.74951	34673.9625
2959.20498	34644.8625
2961.65895	34623.1625
2964.11142	34600.2625
2966.56239	34502.0625
2969.01186	34501.6625
2971.45984	34390.1625
2973.90632	34436.6625
2976.35131	34383.8625
2978.7948	34325.2625
2981.23681	34196.8625
2983.67732	34153.7625
2986.11635	34059.2625
2988.55388	34039.2625
2990.98993	33966.6625
2993.4245	33830.1625
2995.85758	33834.6625
2998.28917	33735.0625
3000.71928	33735.9625
3003.14791	33661.0625
3005.57506	33588.9625
3008.00073	33552.1625
3010.42493	33545.4625
3012.84764	33478.8625
3015.26888	33436.2625
3017.68865	33421.8625
3020.10694	33345.8625
3022.52376	33263.5625
3024.9391	33281.9625
3027.35298	33247.9625
3029.76539	33142.0625
3032.17632	33107.3625
3034.5858	33069.1625
3036.9938	33069.4625
3039.40034	33014.5625
3041.80542	32997.4625
3044.20903	32925.9625
3046.61118	32863.2625
3049.01187	32816.8625
3051.4111	32782.7625
3053.80888	32701.5625
3056.20519	32648.0625
3058.60005	32573.7625
3060.99345	32554.9625
3063.3854	32455.0625
3065.7759	32356.9625
3068.16494	32296.9625
3070.55254	32138.1625
3072.93868	32073.4625
3075.32338	32024.6625
3077.70662	32013.1625
3080.08842	31917.8625
3082.46878	31946.0625
3084.84769	31835.0625
3087.22515	31824.1625
3089.60118	31770.3625
3091.97576	31749.8625
3094.3489	31768.4625
3096.72061	31763.5625
3099.09087	31701.0625
3101.4597	31675.2625
3103.82709	31614.0625
3106.19305	31619.8625
3108.55757	31536.5625
3110.92066	31444.2625
3113.28232	31402.3625
3115.64255	31313.3625
3118.00134	31255.6625
3120.35871	31149.3625
3122.71466	31133.1625
3125.06917	31056.3625
3127.42226	30992.4625
3129.77393	31041.9625
3132.12417	30998.8625
3134.47299	30942.5625
3136.82039	30931.7625
3139.16636	30946.1625
3141.51092	30920.6625
3143.85406	30914.0625
3146.19579	30901.2625
3148.53609	30913.6625
3150.87499	30907.8625
3153.21246	30912.7625
3155.54853	30892.5625
3157.88318	30812.7625
3160.21642	30839.4625
3162.54826	30794.5625
3164.87868	30748.0625
3167.2077	30737.3625
3169.5353	30734.8625
3171.86151	30700.9625
3174.18631	30681.7625
3176.5097	30646.3625
3178.83169	30568.6625
3181.15228	30608.7625
3183.47147	30500.9625
3185.78926	30480.7625
3188.10565	30446.5625
3190.42065	30480.7625
3192.73424	30509.4625
3195.04645	30464.6625
3197.35725	30408.2625
3199.66667	30347.5625
3201.97469	30408.9625
3204.28132	30367.8625
3206.58656	30424.3625
3208.8904	30405.2625
3211.19287	30378.2625
3213.49394	30362.6625
3215.79363	30289.2625
3218.09193	30315.1625
3220.38884	30285.1625
3222.68438	30244.2625
3224.97853	30148.1625
3227.2713	30175.3625
3229.56269	30073.1625
3231.8527	30138.2625
3234.14133	30094.7625
3236.42858	29972.8625
3238.71446	29917.4625
3240.99896	29871.5625
3243.28209	29931.2625
3245.56384	29949.9625
3247.84423	29942.6625
3250.12324	29859.3625
3252.40088	29854.7625
3254.67715	29763.0625
3256.95205	29743.2625
3259.22558	29701.6625
3261.49775	29644.3625
3263.76855	29613.8625
3266.03799	29539.2625
3268.30606	29478.1625
3270.57277	29462.6625
3272.83812	29398.6625
3275.10211	29367.4625
3277.36474	29362.1625
3279.62601	29356.7625
3281.88593	29275.8625
3284.14448	29346.5625
3286.40168	29270.6625
3288.65753	29231.1625
3290.91202	29205.1625
3293.16516	29087.6625
3295.41695	29069.1625
3297.66738	28886.4625
3299.91647	28750.4625
3302.16421	28566.2625
3304.4106	28447.9625
3306.65564	28328.0625
3308.89933	28113.7625
3311.14169	27975.7625
3313.38269	27718.4625
3315.62236	27595.6625
3317.86068	27358.9625
3320.09766	27058.4625
3322.3333	26879.2625
3324.5676	26884.9625
3326.80056	26424.7625
3329.03219	26307.7625
3331.26248	3.9625
3333.49143	1.3625
3335.71905	-0.4375
