Data from AgNPs_FTO_APTES_UA_20uM_R6G_10uM_NaF_0.1M_Addition_RamanShift__14__14-11-47-366.txt Node

Date: Fri Dec 17 14:11:47 GMT 2021
User: TCL
Spectrometer: QEP01345
Trigger mode: 4
Integration Time (sec): 7.000000E0
Scans to average: 10
Electric dark correction enabled: true
Nonlinearity correction enabled: false
Boxcar width: 0
XAxis mode: Raman Shifts
Number of Pixels in Spectrum: 1044
>>>>>Begin Spectral Data<<<<<
46.04893	-0.5375
50.45542	0.1625
54.85868	-1.9375
59.25871	-0.1375
63.6555	76.4625
68.04907	78.2625
72.43941	83.1625
76.82654	89.3625
81.21044	85.9625
85.59113	90.3625
89.96862	97.7625
94.34289	98.0625
98.71396	105.6625
103.08183	107.5625
107.4465	109.4625
111.80798	112.3625
116.16626	115.9625
120.52136	118.3625
124.87327	126.5625
129.222	130.7625
133.56755	138.1625
137.90993	149.0625
142.24913	164.1625
146.58517	188.0625
150.91804	213.1625
155.24774	253.1625
159.57429	317.0625
163.89768	407.9625
168.21792	532.1625
172.53501	734.2625
176.84895	1021.8625
181.15975	1440.6625
185.46741	2025.7625
189.77193	2809.8625
194.07331	3775.6625
198.37157	4887.2625
202.6667	6048.4625
206.9587	7215.5625
211.24758	8339.7625
215.53334	9470.8625
219.81599	10641.8625
224.09553	11919.6625
228.37195	13349.7625
232.64527	14949.3625
236.91549	16626.0625
241.18261	18360.7625
245.44663	20034.3625
249.70755	21507.0625
253.96539	22854.3625
258.22014	23944.9625
262.4718	24812.0625
266.72039	25377.3625
270.96589	25715.1625
275.20832	25715.6625
279.44768	25536.4625
283.68397	25213.3625
287.91719	24871.4625
292.14735	24625.7625
296.37445	24513.6625
300.59849	24495.1625
304.81948	24528.8625
309.03742	24541.9625
313.25231	24430.4625
317.46415	24075.3625
321.67296	23618.6625
325.87872	23278.1625
330.08145	23133.7625
334.28114	23235.1625
338.47781	23450.8625
342.67145	23726.9625
346.86207	24102.1625
351.04966	24544.4625
355.23424	25026.9625
359.4158	25443.5625
363.59435	25819.3625
367.76989	26061.3625
371.94243	26231.5625
376.11196	26419.1625
380.27849	26512.3625
384.44203	26680.1625
388.60257	26774.5625
392.76012	26983.3625
396.91468	27186.3625
401.06626	27494.1625
405.21485	27752.8625
409.36047	27699.4625
413.50311	27395.6625
417.64277	27067.9625
421.77947	26941.4625
425.9132	26939.5625
430.04396	27045.3625
434.17176	27142.6625
438.2966	27371.4625
442.41849	27544.1625
446.53742	27872.6625
450.6534	28206.9625
454.76644	28542.7625
458.87653	28707.4625
462.98368	28757.6625
467.08789	28756.6625
471.18916	28655.4625
475.2875	28491.3625
479.38291	28248.0625
483.4754	28081.1625
487.56496	27937.2625
491.6516	27817.7625
495.73531	27813.6625
499.81612	27844.9625
503.89401	27947.1625
507.96899	28110.9625
512.04106	28235.4625
516.11023	28238.8625
520.1765	28250.5625
524.23987	28172.3625
528.30034	27984.7625
532.35792	27925.9625
536.41261	27783.8625
540.46441	27628.8625
544.51333	27528.3625
548.55936	27650.1625
552.60252	27918.1625
556.64279	28207.8625
560.6802	28400.6625
564.71473	28507.5625
568.7464	28604.1625
572.7752	28806.8625
576.80114	28878.6625
580.82422	29131.2625
584.84444	29317.3625
588.86181	29506.3625
592.87633	29534.3625
596.888	29541.4625
600.89682	29699.1625
604.9028	30580.2625
608.90594	32840.7625
612.90624	35283.7625
616.90371	34274.1625
620.89834	30483.1625
624.89015	28699.7625
628.87913	28382.1625
632.86528	28479.3625
636.84862	28701.4625
640.82913	28568.6625
644.80683	28184.7625
648.78172	27887.1625
652.75379	27851.6625
656.72306	28090.1625
660.68952	28459.2625
664.65319	28411.6625
668.61405	28187.2625
672.57211	28112.6625
676.52738	28158.9625
680.47986	28186.6625
684.42955	28107.9625
688.37646	28071.9625
692.32058	28103.5625
696.26192	28297.6625
700.20048	28481.5625
704.13626	28635.1625
708.06928	28567.9625
711.99952	28510.0625
715.927	28417.1625
719.85171	28442.8625
723.77365	28354.7625
727.69284	28256.6625
731.60928	28033.1625
735.52295	27955.1625
739.43388	27918.1625
743.34206	27991.8625
747.24749	28039.1625
751.15017	28127.0625
755.05012	28314.7625
758.94733	28690.6625
762.8418	29492.7625
766.73354	30865.6625
770.62254	32290.1625
774.50882	32932.7625
778.39237	32336.5625
782.27321	31004.1625
786.15132	29693.8625
790.02671	28821.0625
793.89938	28322.7625
797.76935	28153.2625
801.6366	28007.5625
805.50115	27913.2625
809.36299	27874.4625
813.22213	27777.5625
817.07857	27729.4625
820.93231	27695.2625
824.78336	27650.7625
828.63172	27663.5625
832.47738	27662.0625
836.32036	27678.1625
840.16066	27623.7625
843.99827	27664.5625
847.8332	27663.1625
851.66546	27656.9625
855.49504	27647.8625
859.32195	27665.1625
863.1462	27694.3625
866.96777	27734.1625
870.78668	27714.8625
874.60293	27736.4625
878.41652	27784.5625
882.22745	27839.1625
886.03573	27885.5625
889.84136	27899.2625
893.64433	27822.2625
897.44466	27722.7625
901.24235	27713.8625
905.0374	27671.5625
908.8298	27614.3625
912.61957	27597.8625
916.40671	27633.7625
920.19121	27681.6625
923.97308	27766.7625
927.75233	27772.0625
931.52895	27805.3625
935.30295	27681.9625
939.07433	27491.2625
942.84309	27271.6625
946.60924	27136.1625
950.37278	27079.5625
954.13371	26997.6625
957.89203	26954.9625
961.64774	26926.3625
965.40086	26890.2625
969.15137	26863.5625
972.89929	26810.8625
976.64461	26790.7625
980.38733	26765.9625
984.12747	26811.5625
987.86502	26875.8625
991.59999	26956.1625
995.33237	27055.8625
999.06217	27220.4625
1002.78939	27408.0625
1006.51404	27628.6625
1010.23611	27864.9625
1013.95561	28024.5625
1017.67255	28054.0625
1021.38692	27946.7625
1025.09872	27778.3625
1028.80796	27600.7625
1032.51465	27525.8625
1036.21877	27541.2625
1039.92035	27593.3625
1043.61937	27645.9625
1047.31584	27742.6625
1051.00976	27764.7625
1054.70114	27823.1625
1058.38998	27917.1625
1062.07627	28028.9625
1065.76003	28215.6625
1069.44126	28434.7625
1073.11995	28742.0625
1076.79611	29051.9625
1080.46974	29211.7625
1084.14085	29231.9625
1087.80943	29277.6625
1091.47549	29351.8625
1095.13903	29359.4625
1098.80005	29178.2625
1102.45857	28991.4625
1106.11456	28725.3625
1109.76805	28590.1625
1113.41903	28536.4625
1117.06751	28598.6625
1120.71348	28733.4625
1124.35696	28929.4625
1127.99793	29158.3625
1131.63641	29223.8625
1135.2724	28999.4625
1138.90589	28807.9625
1142.5369	28684.7625
1146.16542	28536.9625
1149.79145	28428.0625
1153.415	28391.7625
1157.03607	28432.3625
1160.65467	28650.5625
1164.27079	29079.7625
1167.88443	29663.6625
1171.49561	30516.9625
1175.10432	31616.7625
1178.71056	32977.5625
1182.31434	34414.4625
1185.91565	35363.2625
1189.51451	35612.6625
1193.11091	35344.5625
1196.70485	34603.2625
1200.29634	33743.8625
1203.88538	32894.0625
1207.47197	32121.1625
1211.05612	31401.1625
1214.63782	30849.3625
1218.21708	30403.4625
1221.79391	30111.2625
1225.36829	29931.4625
1228.94024	29890.2625
1232.50976	29801.2625
1236.07685	29844.8625
1239.6415	29841.0625
1243.20374	29885.9625
1246.76355	29986.5625
1250.32093	30162.8625
1253.8759	30384.4625
1257.42845	30771.7625
1260.97859	31226.3625
1264.52631	31660.8625
1268.07163	32090.5625
1271.61453	32521.4625
1275.15503	32860.7625
1278.69312	33123.4625
1282.22882	33326.6625
1285.76211	33528.4625
1289.29301	33849.2625
1292.82151	34277.9625
1296.34761	34818.2625
1299.87133	35526.0625
1303.39266	36497.1625
1306.9116	37672.3625
1310.42815	38968.3625
1313.94233	39656.4625
1317.45412	39593.1625
1320.96354	39110.0625
1324.47058	38529.8625
1327.97525	37976.7625
1331.47754	37553.1625
1334.97747	37499.6625
1338.47502	37691.6625
1341.97022	38176.0625
1345.46305	38762.2625
1348.95352	39430.9625
1352.44163	40088.1625
1355.92738	40649.6625
1359.41078	41578.7625
1362.89183	42591.6625
1366.37053	41856.8625
1369.84688	39190.5625
1373.32088	36256.4625
1376.79254	34160.6625
1380.26186	33022.2625
1383.72883	32504.1625
1387.19347	32039.3625
1390.65578	31545.9625
1394.11575	31161.5625
1397.57339	30867.0625
1401.0287	30811.2625
1404.48168	30750.0625
1407.93234	30765.8625
1411.38068	30787.4625
1414.82669	30668.9625
1418.27039	30346.3625
1421.71177	30029.5625
1425.15083	29711.7625
1428.58758	29533.7625
1432.02203	29534.9625
1435.45416	29681.4625
1438.88399	29920.3625
1442.31151	30030.8625
1445.73673	30085.2625
1449.15965	30206.9625
1452.58027	30264.7625
1455.9986	30277.8625
1459.41463	30440.1625
1462.82837	30729.8625
1466.23982	31072.1625
1469.64898	31470.9625
1473.05586	31730.1625
1476.46045	31832.3625
1479.86276	31980.5625
1483.26279	32121.1625
1486.66054	32259.1625
1490.05602	32554.8625
1493.44922	33064.3625
1496.84016	33815.9625
1500.22882	35083.9625
1503.61521	36708.9625
1506.99934	38464.0625
1510.38121	39704.9625
1513.76081	39716.3625
1517.13816	38429.0625
1520.51324	36649.6625
1523.88607	34975.2625
1527.25665	33796.4625
1530.62498	33214.8625
1533.99105	32915.6625
1537.35488	32575.4625
1540.71647	32282.2625
1544.07581	31995.4625
1547.4329	31740.7625
1550.78776	31595.0625
1554.14038	31468.1625
1557.49077	31397.1625
1560.83892	31434.9625
1564.18484	31612.6625
1567.52853	31790.0625
1570.86999	32105.4625
1574.20922	32343.3625
1577.54624	32417.7625
1580.88103	32087.8625
1584.2136	31580.1625
1587.54395	31239.0625
1590.87208	31425.1625
1594.19801	31956.9625
1597.52172	32772.9625
1600.84321	33209.2625
1604.16251	32912.8625
1607.47959	32203.6625
1610.79447	31306.3625
1614.10715	30242.1625
1617.41763	29090.2625
1620.7259	28215.8625
1624.03199	27682.8625
1627.33587	27476.4625
1630.63757	27605.0625
1633.93707	28152.1625
1637.23439	29083.5625
1640.52951	30496.3625
1643.82246	32295.4625
1647.11321	34020.7625
1650.40179	34870.3625
1653.68819	34111.4625
1656.97241	32031.5625
1660.25446	29638.8625
1663.53433	27782.2625
1666.81203	26564.1625
1670.08756	25754.7625
1673.36092	25238.9625
1676.63211	24905.1625
1679.90115	24629.2625
1683.16801	24454.9625
1686.43272	24306.2625
1689.69527	24196.5625
1692.95567	24101.3625
1696.2139	24060.3625
1699.46999	24018.1625
1702.72392	23932.1625
1705.97571	23910.9625
1709.22535	23879.5625
1712.47284	23889.2625
1715.71819	23861.4625
1718.96139	23818.6625
1722.20246	23773.2625
1725.44139	23715.9625
1728.67818	23589.0625
1731.91284	23517.9625
1735.14537	23440.8625
1738.37576	23374.2625
1741.60403	23271.5625
1744.83017	23209.1625
1748.05418	23164.3625
1751.27607	23128.5625
1754.49584	23081.8625
1757.71349	23096.7625
1760.92903	23087.2625
1764.14244	23033.2625
1767.35375	23075.6625
1770.56294	23023.5625
1773.77002	22995.6625
1776.97499	22966.2625
1780.17785	22858.8625
1783.37861	22880.3625
1786.57727	22803.4625
1789.77382	22774.1625
1792.96828	22731.6625
1796.16064	22718.5625
1799.3509	22689.3625
1802.53907	22622.6625
1805.72514	22586.2625
1808.90913	22538.2625
1812.09102	22470.1625
1815.27083	22458.4625
1818.44856	22401.0625
1821.6242	22384.3625
1824.79776	22377.2625
1827.96924	22342.1625
1831.13864	22339.6625
1834.30597	22295.6625
1837.47122	22291.5625
1840.6344	22263.8625
1843.7955	22254.7625
1846.95454	22220.6625
1850.11151	22209.1625
1853.26642	22174.1625
1856.41926	22150.3625
1859.57004	22144.9625
1862.71876	22158.3625
1865.86542	22113.2625
1869.01003	22052.1625
1872.15258	22044.8625
1875.29308	21982.6625
1878.43152	21950.5625
1881.56792	21969.7625
1884.70227	21934.9625
1887.83457	21915.6625
1890.96482	21863.7625
1894.09304	21810.2625
1897.21921	21794.6625
1900.34335	21769.5625
1903.46544	21753.4625
1906.58551	21727.0625
1909.70353	21670.2625
1912.81953	21686.8625
1915.93349	21621.2625
1919.04543	21563.1625
1922.15534	21531.1625
1925.26322	21495.4625
1928.36908	21460.8625
1931.47292	21418.2625
1934.57473	21381.1625
1937.67453	21292.6625
1940.77232	21246.7625
1943.86808	21186.2625
1946.96184	21157.7625
1950.05358	21070.3625
1953.14331	21004.7625
1956.23103	20952.6625
1959.31675	20892.5625
1962.40046	20856.0625
1965.48217	20786.9625
1968.56188	20718.9625
1971.63959	20644.2625
1974.7153	20612.2625
1977.78901	20530.8625
1980.86073	20467.7625
1983.93046	20395.1625
1986.99819	20349.2625
1990.06394	20276.7625
1993.1277	20220.6625
1996.18947	20114.7625
1999.24925	20101.6625
2002.30706	20005.8625
2005.36288	19951.3625
2008.41672	19944.9625
2011.46859	19873.0625
2014.51848	19799.7625
2017.56639	19757.7625
2020.61233	19683.6625
2023.6563	19660.8625
2026.6983	19603.1625
2029.73833	19572.0625
2032.7764	19481.7625
2035.8125	19451.8625
2038.84664	19415.3625
2041.87881	19389.3625
2044.90903	19331.9625
2047.93729	19280.0625
2050.96359	19242.7625
2053.98794	19213.3625
2057.01034	19222.0625
2060.03078	19179.5625
2063.04927	19149.0625
2066.06582	19149.8625
2069.08042	19156.8625
2072.09307	19110.2625
2075.10378	19099.0625
2078.11255	19073.4625
2081.11938	19093.2625
2084.12426	19075.5625
2087.12722	19070.5625
2090.12824	19045.7625
2093.12732	19038.5625
2096.12447	19079.4625
2099.11969	19064.4625
2102.11299	19043.4625
2105.10435	19052.4625
2108.09379	19057.9625
2111.08131	19117.5625
2114.0669	19092.2625
2117.05057	19105.1625
2120.03233	19103.0625
2123.01216	19116.7625
2125.99008	19142.3625
2128.96609	19141.4625
2131.94018	19139.5625
2134.91236	19176.0625
2137.88263	19190.6625
2140.851	19172.8625
2143.81746	19216.1625
2146.78201	19206.5625
2149.74466	19206.3625
2152.7054	19210.3625
2155.66425	19204.2625
2158.6212	19187.6625
2161.57625	19176.9625
2164.52941	19188.1625
2167.48067	19161.4625
2170.43004	19160.1625
2173.37752	19143.1625
2176.32311	19100.0625
2179.26681	19121.9625
2182.20863	19081.4625
2185.14856	19073.9625
2188.08661	19075.3625
2191.02278	19068.5625
2193.95707	19047.0625
2196.88948	19041.1625
2199.82001	19029.9625
2202.74867	18999.0625
2205.67545	19012.1625
2208.60037	18939.2625
2211.52341	18929.4625
2214.44458	18924.6625
2217.36388	18849.0625
2220.28132	18807.2625
2223.1969	18765.0625
2226.11061	18740.0625
2229.02246	18684.4625
2231.93245	18662.5625
2234.84058	18608.8625
2237.74686	18574.9625
2240.65128	18576.4625
2243.55385	18569.5625
2246.45456	18539.1625
2249.35343	18474.7625
2252.25044	18462.7625
2255.14561	18440.3625
2258.03893	18458.6625
2260.93041	18375.0625
2263.82004	18336.4625
2266.70783	18299.3625
2269.59378	18262.1625
2272.4779	18214.2625
2275.36017	18179.9625
2278.24061	18155.3625
2281.11922	18090.6625
2283.996	18059.1625
2286.87094	18027.4625
2289.74405	18006.6625
2292.61534	17956.2625
2295.4848	17918.0625
2298.35243	17934.3625
2301.21824	17885.0625
2304.08223	17902.8625
2306.94439	17903.9625
2309.80474	17854.4625
2312.66327	17839.4625
2315.51999	17816.4625
2318.37489	17823.7625
2321.22797	17756.6625
2324.07925	17731.1625
2326.92871	17693.2625
2329.77637	17698.1625
2332.62222	17649.9625
2335.46626	17592.9625
2338.3085	17590.7625
2341.14893	17567.3625
2343.98756	17542.6625
2346.8244	17523.2625
2349.65943	17501.2625
2352.49267	17490.1625
2355.32411	17448.7625
2358.15376	17480.8625
2360.98161	17444.9625
2363.80768	17422.1625
2366.63195	17443.2625
2369.45444	17398.7625
2372.27514	17389.3625
2375.09405	17369.1625
2377.91118	17300.8625
2380.72652	17323.8625
2383.54009	17258.3625
2386.35187	17254.3625
2389.16188	17183.3625
2391.97011	17156.5625
2394.77657	17105.5625
2397.58125	17101.5625
2400.38416	17055.3625
2403.18529	17009.9625
2405.98466	16966.1625
2408.78226	16945.4625
2411.57809	16929.0625
2414.37216	16915.4625
2417.16446	16904.6625
2419.955	16880.7625
2422.74378	16847.2625
2425.5308	16828.6625
2428.31606	16820.7625
2431.09956	16800.6625
2433.88131	16769.5625
2436.6613	16795.8625
2439.43954	16740.6625
2442.21603	16725.7625
2444.99077	16702.4625
2447.76377	16697.0625
2450.53501	16676.2625
2453.30451	16656.8625
2456.07226	16655.3625
2458.83827	16627.8625
2461.60254	16602.9625
2464.36507	16578.2625
2467.12586	16559.2625
2469.88492	16564.4625
2472.64224	16559.9625
2475.39782	16519.7625
2478.15167	16531.4625
2480.90379	16483.5625
2483.65417	16473.7625
2486.40283	16464.2625
2489.14976	16434.7625
2491.89497	16384.1625
2494.63845	16417.4625
2497.3802	16410.8625
2500.12024	16386.4625
2502.85855	16375.1625
2505.59514	16330.1625
2508.33002	16321.1625
2511.06318	16279.0625
2513.79462	16264.1625
2516.52435	16262.9625
2519.25237	16258.7625
2521.97867	16194.6625
2524.70327	16184.5625
2527.42616	16144.5625
2530.14734	16161.4625
2532.86681	16080.4625
2535.58458	16108.6625
2538.30065	16060.8625
2541.01501	16055.3625
2543.72768	16015.1625
2546.43864	16030.4625
2549.14791	15976.4625
2551.85548	15940.9625
2554.56136	15916.9625
2557.26554	15871.0625
2559.96803	15849.0625
2562.66883	15812.0625
2565.36794	15805.6625
2568.06536	15791.9625
2570.7611	15741.1625
2573.45514	15724.9625
2576.14751	15699.0625
2578.83819	15655.1625
2581.52719	15646.4625
2584.21451	15599.3625
2586.90015	15614.2625
2589.58411	15537.2625
2592.2664	15546.1625
2594.94701	15467.1625
2597.62594	15446.5625
2600.30321	15406.3625
2602.9788	15404.9625
2605.65273	15390.7625
2608.32498	15372.2625
2610.99557	15336.2625
2613.66449	15323.5625
2616.33175	15248.9625
2618.99734	15242.8625
2621.66128	15242.5625
2624.32355	15216.7625
2626.98416	15195.0625
2629.64311	15168.9625
2632.30041	15184.6625
2634.95605	15123.3625
2637.61004	15090.0625
2640.26238	15079.0625
2642.91306	15069.9625
2645.56209	15078.7625
2648.20948	15038.4625
2650.85521	15015.4625
2653.4993	15022.9625
2656.14175	14993.2625
2658.78255	14996.7625
2661.42171	14993.3625
2664.05923	15017.9625
2666.6951	15011.3625
2669.32934	14983.1625
2671.96194	14968.6625
2674.59291	14967.6625
2677.22224	14987.4625
2679.84993	14963.2625
2682.476	14937.1625
2685.10043	14967.0625
2687.72324	14926.8625
2690.34441	14933.8625
2692.96396	14925.4625
2695.58188	14919.1625
2698.19818	14928.6625
2700.81285	14927.3625
2703.4259	14902.7625
2706.03733	14931.9625
2708.64714	14943.1625
2711.25533	14945.1625
2713.86191	14919.3625
2716.46687	14924.0625
2719.07021	14915.2625
2721.67194	14895.9625
2724.27206	14888.7625
2726.87057	14871.9625
2729.46747	14869.0625
2732.06276	14896.5625
2734.65644	14842.1625
2737.24852	14835.0625
2739.83899	14824.9625
2742.42786	14829.7625
2745.01513	14786.1625
2747.60079	14761.5625
2750.18486	14735.8625
2752.76733	14741.4625
2755.3482	14722.7625
2757.92747	14705.9625
2760.50515	14645.0625
2763.08123	14657.3625
2765.65573	14641.3625
2768.22863	14603.0625
2770.79994	14616.8625
2773.36967	14582.6625
2775.9378	14540.2625
2778.50435	14521.6625
2781.06932	14505.0625
2783.6327	14463.0625
2786.1945	14450.6625
2788.75471	14435.6625
2791.31335	14377.8625
2793.87041	14362.9625
2796.42589	14286.2625
2798.97979	14298.0625
2801.53212	14265.0625
2804.08288	14242.8625
2806.63206	14171.4625
2809.17967	14157.3625
2811.72571	14144.7625
2814.27018	14159.0625
2816.81308	14113.9625
2819.35442	14091.9625
2821.89419	14049.4625
2824.43239	14036.6625
2826.96904	13990.3625
2829.50412	14007.8625
2832.03763	13953.9625
2834.56959	13929.5625
2837.1	13940.8625
2839.62884	13908.2625
2842.15613	13891.6625
2844.68186	13888.6625
2847.20604	13867.3625
2849.72867	13880.5625
2852.24974	13859.3625
2854.76927	13839.3625
2857.28724	13794.3625
2859.80367	13755.8625
2862.31855	13757.5625
2864.83189	13727.4625
2867.34368	13702.9625
2869.85393	13727.7625
2872.36264	13717.5625
2874.8698	13704.7625
2877.37543	13698.5625
2879.87952	13697.7625
2882.38207	13692.6625
2884.88308	13680.1625
2887.38256	13661.2625
2889.88051	13673.1625
2892.37692	13652.6625
2894.8718	13634.1625
2897.36515	13637.7625
2899.85698	13626.3625
2902.34727	13655.1625
2904.83604	13655.9625
2907.32328	13662.6625
2909.809	13627.7625
2912.29319	13655.6625
2914.77587	13619.7625
2917.25702	13640.1625
2919.73665	13605.9625
2922.21476	13613.7625
2924.69136	13564.6625
2927.16644	13596.3625
2929.64	13575.7625
2932.11205	13507.1625
2934.58258	13497.6625
2937.05161	13517.7625
2939.51912	13514.4625
2941.98513	13485.3625
2944.44962	13476.8625
2946.91261	13442.5625
2949.37409	13467.5625
2951.83407	13455.5625
2954.29254	13437.5625
2956.74951	13427.2625
2959.20498	13427.8625
2961.65895	13382.8625
2964.11142	13402.3625
2966.56239	13351.6625
2969.01186	13344.9625
2971.45984	13321.6625
2973.90632	13300.3625
2976.35131	13270.1625
2978.7948	13271.6625
2981.23681	13230.2625
2983.67732	13196.3625
2986.11635	13189.6625
2988.55388	13127.9625
2990.98993	13135.4625
2993.4245	13104.2625
2995.85758	13086.3625
2998.28917	13051.3625
3000.71928	13044.9625
3003.14791	13014.2625
3005.57506	12992.0625
3008.00073	12990.3625
3010.42493	12963.1625
3012.84764	12956.1625
3015.26888	12955.6625
3017.68865	12920.4625
3020.10694	12900.4625
3022.52376	12856.3625
3024.9391	12848.3625
3027.35298	12800.6625
3029.76539	12800.4625
3032.17632	12745.9625
3034.5858	12727.4625
3036.9938	12740.8625
3039.40034	12708.7625
3041.80542	12685.1625
3044.20903	12659.9625
3046.61118	12642.1625
3049.01187	12624.3625
3051.4111	12594.2625
3053.80888	12557.3625
3056.20519	12552.9625
3058.60005	12510.6625
3060.99345	12540.1625
3063.3854	12508.1625
3065.7759	12454.9625
3068.16494	12410.2625
3070.55254	12392.4625
3072.93868	12345.3625
3075.32338	12358.9625
3077.70662	12349.5625
3080.08842	12301.9625
3082.46878	12307.1625
3084.84769	12301.3625
3087.22515	12296.4625
3089.60118	12255.7625
3091.97576	12235.6625
3094.3489	12251.5625
3096.72061	12220.2625
3099.09087	12238.3625
3101.4597	12222.6625
3103.82709	12232.0625
3106.19305	12198.0625
3108.55757	12194.5625
3110.92066	12165.0625
3113.28232	12167.6625
3115.64255	12096.5625
3118.00134	12095.2625
3120.35871	12063.3625
3122.71466	12026.3625
3125.06917	12005.6625
3127.42226	12008.5625
3129.77393	11971.5625
3132.12417	11973.0625
3134.47299	11964.6625
3136.82039	11963.1625
3139.16636	11950.7625
3141.51092	11969.9625
3143.85406	11947.9625
3146.19579	11979.1625
3148.53609	11961.4625
3150.87499	11983.9625
3153.21246	12004.0625
3155.54853	12003.9625
3157.88318	11971.6625
3160.21642	11986.9625
3162.54826	11947.7625
3164.87868	11949.7625
3167.2077	11924.0625
3169.5353	11922.7625
3171.86151	12062.7625
3174.18631	11999.0625
3176.5097	11943.3625
3178.83169	11865.6625
3181.15228	11867.0625
3183.47147	11837.3625
3185.78926	11827.0625
3188.10565	11791.6625
3190.42065	11810.5625
3192.73424	11828.3625
3195.04645	11804.0625
3197.35725	11796.6625
3199.66667	11792.4625
3201.97469	11789.1625
3204.28132	11805.8625
3206.58656	11800.1625
3208.8904	11791.6625
3211.19287	11778.1625
3213.49394	11777.5625
3215.79363	11826.1625
3218.09193	11782.4625
3220.38884	11753.1625
3222.68438	11759.9625
3224.97853	11753.1625
3227.2713	11705.3625
3229.56269	11725.4625
3231.8527	11694.4625
3234.14133	11663.2625
3236.42858	11595.7625
3238.71446	11606.5625
3240.99896	11631.0625
3243.28209	11628.1625
3245.56384	11587.5625
3247.84423	11586.5625
3250.12324	11611.0625
3252.40088	11578.1625
3254.67715	11587.9625
3256.95205	11545.2625
3259.22558	11519.5625
3261.49775	11474.3625
3263.76855	11487.8625
3266.03799	11459.9625
3268.30606	11450.9625
3270.57277	11441.9625
3272.83812	11415.9625
3275.10211	11399.4625
3277.36474	11370.1625
3279.62601	11366.9625
3281.88593	11340.4625
3284.14448	11353.5625
3286.40168	11321.4625
3288.65753	11293.5625
3290.91202	11278.5625
3293.16516	11241.4625
3295.41695	11217.3625
3297.66738	11160.9625
3299.91647	11097.4625
3302.16421	11045.9625
3304.4106	11014.0625
3306.65564	10961.2625
3308.89933	10888.8625
3311.14169	10808.9625
3313.38269	10740.9625
3315.62236	10680.7625
3317.86068	10574.5625
3320.09766	10437.0625
3322.3333	10389.6625
3324.5676	10371.1625
3326.80056	10232.4625
3329.03219	10170.7625
3331.26248	3.4625
3333.49143	1.0625
3335.71905	-0.9375
