Data from AgNPs_FTO_APTES_UA_2uM_R6G_10uM_NaF_0.1M_Addition_RamanShift__15__12-01-07-217.txt Node

Date: Fri Dec 17 12:01:07 GMT 2021
User: TCL
Spectrometer: QEP01345
Trigger mode: 4
Integration Time (sec): 7.000000E0
Scans to average: 10
Electric dark correction enabled: true
Nonlinearity correction enabled: false
Boxcar width: 0
XAxis mode: Raman Shifts
Number of Pixels in Spectrum: 1044
>>>>>Begin Spectral Data<<<<<
46.04893	-0.6375
50.45542	-0.4375
54.85868	-0.7375
59.25871	-1.0375
63.6555	120.1625
68.04907	118.8625
72.43941	127.7625
76.82654	137.5625
81.21044	137.6625
85.59113	146.4625
89.96862	151.1625
94.34289	151.9625
98.71396	156.6625
103.08183	160.8625
107.4465	168.1625
111.80798	172.7625
116.16626	177.5625
120.52136	173.5625
124.87327	193.1625
129.222	203.2625
133.56755	211.2625
137.90993	227.1625
142.24913	248.7625
146.58517	277.2625
150.91804	320.7625
155.24774	380.8625
159.57429	472.1625
163.89768	603.8625
168.21792	789.4625
172.53501	1077.0625
176.84895	1494.9625
181.15975	2085.8625
185.46741	2912.2625
189.77193	4038.4625
194.07331	5397.0625
198.37157	6956.5625
202.6667	8621.7625
206.9587	10262.1625
211.24758	11846.9625
215.53334	13447.7625
219.81599	15119.1625
224.09553	16966.9625
228.37195	18996.8625
232.64527	21305.3625
236.91549	23654.9625
241.18261	26145.2625
245.44663	28489.9625
249.70755	30585.4625
253.96539	32420.5625
258.22014	33940.3625
262.4718	35207.9625
266.72039	36079.5625
270.96589	36538.8625
275.20832	36531.9625
279.44768	36280.3625
283.68397	35860.2625
287.91719	35420.2625
292.14735	35087.6625
296.37445	34958.8625
300.59849	34874.3625
304.81948	34933.9625
309.03742	34875.2625
313.25231	34635.5625
317.46415	34088.4625
321.67296	33423.8625
325.87872	32845.4625
330.08145	32647.7625
334.28114	32689.1625
338.47781	32984.2625
342.67145	33369.1625
346.86207	33889.0625
351.04966	34544.3625
355.23424	35273.5625
359.4158	35893.7625
363.59435	36393.5625
367.76989	36750.5625
371.94243	36974.4625
376.11196	37188.9625
380.27849	37294.4625
384.44203	37506.4625
388.60257	37696.1625
392.76012	38017.3625
396.91468	38418.2625
401.06626	38945.4625
405.21485	39331.4625
409.36047	39242.7625
413.50311	38811.5625
417.64277	38437.9625
421.77947	38344.0625
425.9132	38433.8625
430.04396	38548.3625
434.17176	38719.2625
438.2966	38877.7625
442.41849	39324.6625
446.53742	40001.5625
450.6534	40751.1625
454.76644	41346.7625
458.87653	41664.4625
462.98368	41679.6625
467.08789	41496.9625
471.18916	41193.5625
475.2875	40694.5625
479.38291	40402.0625
483.4754	40184.7625
487.56496	39931.0625
491.6516	39618.5625
495.73531	39421.0625
499.81612	39349.9625
503.89401	39654.3625
507.96899	39822.4625
512.04106	39936.2625
516.11023	39877.4625
520.1765	39692.2625
524.23987	39407.0625
528.30034	39168.4625
532.35792	38847.5625
536.41261	38552.8625
540.46441	38227.0625
544.51333	38243.7625
548.55936	38453.6625
552.60252	38993.0625
556.64279	39528.6625
560.6802	39898.4625
564.71473	40116.3625
568.7464	40435.4625
572.7752	40996.7625
576.80114	41486.9625
580.82422	41936.6625
584.84444	42472.8625
588.86181	42945.6625
592.87633	43138.5625
596.888	43128.4625
600.89682	43300.1625
604.9028	44639.3625
608.90594	48045.7625
612.90624	51348.2625
616.90371	48983.8625
620.89834	42921.7625
624.89015	40139.5625
628.87913	39606.3625
632.86528	39731.3625
636.84862	39785.1625
640.82913	39460.6625
644.80683	38817.2625
648.78172	38344.9625
652.75379	38232.2625
656.72306	38642.1625
660.68952	39179.9625
664.65319	39088.6625
668.61405	38600.5625
672.57211	38489.6625
676.52738	38696.1625
680.47986	38660.0625
684.42955	38484.1625
688.37646	38404.0625
692.32058	38638.5625
696.26192	38989.2625
700.20048	39338.9625
704.13626	39550.3625
708.06928	39469.5625
711.99952	39200.0625
715.927	39131.5625
719.85171	39220.2625
723.77365	39099.6625
727.69284	38831.8625
731.60928	38492.3625
735.52295	38302.7625
739.43388	38300.7625
743.34206	38336.4625
747.24749	38456.5625
751.15017	38641.2625
755.05012	39086.3625
758.94733	39835.0625
762.8418	41216.5625
766.73354	43334.8625
770.62254	45565.5625
774.50882	46259.4625
778.39237	44922.4625
782.27321	42711.9625
786.15132	40740.7625
790.02671	39516.7625
793.89938	38880.9625
797.76935	38599.1625
801.6366	38490.7625
805.50115	38369.6625
809.36299	38203.0625
813.22213	37988.8625
817.07857	37844.0625
820.93231	37756.4625
824.78336	37673.7625
828.63172	37635.6625
832.47738	37599.8625
836.32036	37666.1625
840.16066	37686.9625
843.99827	37715.0625
847.8332	37655.5625
851.66546	37600.6625
855.49504	37669.0625
859.32195	37662.8625
863.1462	37697.3625
866.96777	37657.8625
870.78668	37648.5625
874.60293	37674.3625
878.41652	37731.1625
882.22745	37812.0625
886.03573	37977.5625
889.84136	38030.5625
893.64433	37942.9625
897.44466	37849.3625
901.24235	37735.1625
905.0374	37607.1625
908.8298	37570.4625
912.61957	37536.0625
916.40671	37687.7625
920.19121	37980.3625
923.97308	38217.3625
927.75233	38336.1625
931.52895	38260.4625
935.30295	37960.3625
939.07433	37562.7625
942.84309	37217.3625
946.60924	37009.3625
950.37278	36952.9625
954.13371	36857.8625
957.89203	36784.4625
961.64774	36723.0625
965.40086	36685.5625
969.15137	36628.4625
972.89929	36574.6625
976.64461	36615.8625
980.38733	36629.8625
984.12747	36681.8625
987.86502	36943.3625
991.59999	37144.7625
995.33237	37433.1625
999.06217	37957.0625
1002.78939	38532.2625
1006.51404	39061.3625
1010.23611	39551.7625
1013.95561	39820.5625
1017.67255	39786.8625
1021.38692	39498.7625
1025.09872	39120.2625
1028.80796	38908.8625
1032.51465	39123.0625
1036.21877	39457.0625
1039.92035	39605.5625
1043.61937	39497.7625
1047.31584	39280.2625
1051.00976	39046.0625
1054.70114	38999.4625
1058.38998	39108.5625
1062.07627	39418.9625
1065.76003	39803.9625
1069.44126	40164.4625
1073.11995	40751.9625
1076.79611	41243.9625
1080.46974	41581.2625
1084.14085	41763.7625
1087.80943	41933.4625
1091.47549	42135.1625
1095.13903	41994.5625
1098.80005	41696.8625
1102.45857	41064.8625
1106.11456	40607.4625
1109.76805	40216.0625
1113.41903	40233.8625
1117.06751	40230.4625
1120.71348	40460.3625
1124.35696	40642.8625
1127.99793	40916.4625
1131.63641	41179.0625
1135.2724	40983.2625
1138.90589	40757.5625
1142.5369	40626.3625
1146.16542	40563.4625
1149.79145	40625.4625
1153.415	40709.1625
1157.03607	40969.7625
1160.65467	41575.1625
1164.27079	42614.0625
1167.88443	44107.4625
1171.49561	45910.6625
1175.10432	48117.3625
1178.71056	50945.6625
1182.31434	53814.8625
1185.91565	55665.4625
1189.51451	56087.4625
1193.11091	55266.8625
1196.70485	53665.2625
1200.29634	51849.7625
1203.88538	50365.8625
1207.47197	49246.0625
1211.05612	48341.0625
1214.63782	47536.9625
1218.21708	46840.7625
1221.79391	46387.0625
1225.36829	45959.0625
1228.94024	45709.4625
1232.50976	45441.5625
1236.07685	45281.7625
1239.6415	45165.3625
1243.20374	45195.1625
1246.76355	45404.6625
1250.32093	45923.4625
1253.8759	46528.4625
1257.42845	47454.3625
1260.97859	48418.0625
1264.52631	49498.5625
1268.07163	50541.8625
1271.61453	51627.5625
1275.15503	52583.0625
1278.69312	53471.7625
1282.22882	54053.9625
1285.76211	54585.1625
1289.29301	55190.3625
1292.82151	56237.7625
1296.34761	57550.1625
1299.87133	59302.9625
1303.39266	61614.2625
1306.9116	64385.4625
1310.42815	67014.8625
1313.94233	68630.2625
1317.45412	68752.9625
1320.96354	68148.6625
1324.47058	67621.0625
1327.97525	67088.7625
1331.47754	66788.0625
1334.97747	66831.6625
1338.47502	67167.0625
1341.97022	67383.2625
1345.46305	67333.4625
1348.95352	67020.1625
1352.44163	66731.8625
1355.92738	66954.3625
1359.41078	68299.9625
1362.89183	69798.6625
1366.37053	68669.6625
1369.84688	64305.0625
1373.32088	59206.4625
1376.79254	55554.9625
1380.26186	53722.6625
1383.72883	53187.7625
1387.19347	52781.8625
1390.65578	52181.8625
1394.11575	51723.3625
1397.57339	51646.6625
1401.0287	51938.1625
1404.48168	52437.8625
1407.93234	52739.9625
1411.38068	52629.0625
1414.82669	51962.9625
1418.27039	50949.8625
1421.71177	49743.2625
1425.15083	48774.5625
1428.58758	48293.6625
1432.02203	48514.0625
1435.45416	49144.0625
1438.88399	49947.0625
1442.31151	50604.7625
1445.73673	50996.5625
1449.15965	51206.6625
1452.58027	51367.0625
1455.9986	51426.8625
1459.41463	51745.4625
1462.82837	52362.7625
1466.23982	53107.9625
1469.64898	53817.6625
1473.05586	54241.7625
1476.46045	54352.0625
1479.86276	54122.9625
1483.26279	53866.2625
1486.66054	53782.9625
1490.05602	54015.9625
1493.44922	54440.5625
1496.84016	55042.2625
1500.22882	56212.4625
1503.61521	57862.3625
1506.99934	59771.0625
1510.38121	61268.6625
1513.76081	61550.9625
1517.13816	60182.6625
1520.51324	57814.2625
1523.88607	55725.5625
1527.25665	54339.9625
1530.62498	53713.5625
1533.99105	53387.8625
1537.35488	53055.1625
1540.71647	52573.1625
1544.07581	52066.5625
1547.4329	51451.1625
1550.78776	50915.9625
1554.14038	50548.3625
1557.49077	50439.3625
1560.83892	50453.6625
1564.18484	50416.3625
1567.52853	50602.2625
1570.86999	50854.9625
1574.20922	51417.8625
1577.54624	51909.5625
1580.88103	51964.7625
1584.2136	51803.4625
1587.54395	52220.1625
1590.87208	53451.8625
1594.19801	55398.4625
1597.52172	57515.4625
1600.84321	58240.5625
1604.16251	56775.2625
1607.47959	54106.8625
1610.79447	51154.6625
1614.10715	48223.2625
1617.41763	45621.2625
1620.7259	43670.6625
1624.03199	42614.4625
1627.33587	42467.0625
1630.63757	43111.8625
1633.93707	44813.6625
1637.23439	47492.8625
1640.52951	51331.0625
1643.82246	55546.8625
1647.11321	58691.0625
1650.40179	59193.9625
1653.68819	56401.9625
1656.97241	51266.9625
1660.25446	46054.1625
1663.53433	42241.9625
1666.81203	39648.8625
1670.08756	37984.7625
1673.36092	36843.6625
1676.63211	36137.1625
1679.90115	35669.2625
1683.16801	35232.7625
1686.43272	35024.4625
1689.69527	34735.7625
1692.95567	34563.7625
1696.2139	34438.6625
1699.46999	34352.9625
1702.72392	34241.6625
1705.97571	34227.0625
1709.22535	34205.7625
1712.47284	34145.6625
1715.71819	34139.0625
1718.96139	34031.0625
1722.20246	34016.0625
1725.44139	33886.4625
1728.67818	33686.8625
1731.91284	33598.0625
1735.14537	33445.7625
1738.37576	33312.4625
1741.60403	33177.3625
1744.83017	33052.7625
1748.05418	33042.0625
1751.27607	32981.3625
1754.49584	32911.7625
1757.71349	32860.5625
1760.92903	32888.3625
1764.14244	32820.4625
1767.35375	32814.9625
1770.56294	32802.8625
1773.77002	32759.8625
1776.97499	32701.9625
1780.17785	32639.3625
1783.37861	32655.2625
1786.57727	32626.5625
1789.77382	32513.6625
1792.96828	32490.0625
1796.16064	32403.8625
1799.3509	32377.1625
1802.53907	32328.7625
1805.72514	32255.4625
1808.90913	32201.8625
1812.09102	32103.8625
1815.27083	32066.4625
1818.44856	32070.9625
1821.6242	32034.1625
1824.79776	31986.5625
1827.96924	31987.3625
1831.13864	31981.0625
1834.30597	32034.2625
1837.47122	32025.7625
1840.6344	32020.4625
1843.7955	32020.2625
1846.95454	32033.6625
1850.11151	32003.5625
1853.26642	31964.7625
1856.41926	31949.3625
1859.57004	31926.4625
1862.71876	31893.1625
1865.86542	31882.9625
1869.01003	31845.9625
1872.15258	31796.7625
1875.29308	31756.6625
1878.43152	31733.7625
1881.56792	31700.8625
1884.70227	31676.7625
1887.83457	31676.8625
1890.96482	31640.4625
1894.09304	31517.3625
1897.21921	31496.7625
1900.34335	31497.4625
1903.46544	31460.1625
1906.58551	31409.6625
1909.70353	31347.4625
1912.81953	31326.7625
1915.93349	31226.1625
1919.04543	31142.9625
1922.15534	31078.3625
1925.26322	31030.4625
1928.36908	30979.2625
1931.47292	30874.2625
1934.57473	30836.3625
1937.67453	30736.1625
1940.77232	30655.8625
1943.86808	30607.1625
1946.96184	30517.8625
1950.05358	30452.0625
1953.14331	30362.0625
1956.23103	30290.0625
1959.31675	30190.9625
1962.40046	30100.2625
1965.48217	30007.4625
1968.56188	29995.7625
1971.63959	29920.8625
1974.7153	29821.4625
1977.78901	29721.7625
1980.86073	29638.0625
1983.93046	29537.9625
1986.99819	29450.3625
1990.06394	29377.6625
1993.1277	29261.4625
1996.18947	29148.4625
1999.24925	29097.7625
2002.30706	29003.0625
2005.36288	28892.4625
2008.41672	28847.4625
2011.46859	28767.8625
2014.51848	28700.4625
2017.56639	28648.3625
2020.61233	28617.5625
2023.6563	28484.8625
2026.6983	28458.3625
2029.73833	28371.5625
2032.7764	28312.3625
2035.8125	28266.5625
2038.84664	28217.6625
2041.87881	28198.3625
2044.90903	28140.7625
2047.93729	28089.0625
2050.96359	28093.4625
2053.98794	28040.2625
2057.01034	27989.0625
2060.03078	27993.4625
2063.04927	27936.9625
2066.06582	27924.1625
2069.08042	27890.0625
2072.09307	27879.9625
2075.10378	27869.0625
2078.11255	27822.8625
2081.11938	27819.0625
2084.12426	27818.3625
2087.12722	27817.3625
2090.12824	27820.4625
2093.12732	27807.5625
2096.12447	27858.9625
2099.11969	27857.4625
2102.11299	27833.7625
2105.10435	27899.2625
2108.09379	27886.6625
2111.08131	27910.5625
2114.0669	27912.0625
2117.05057	27970.2625
2120.03233	27937.1625
2123.01216	27998.9625
2125.99008	27975.7625
2128.96609	28025.9625
2131.94018	28034.8625
2134.91236	28082.3625
2137.88263	28043.2625
2140.851	28050.9625
2143.81746	28125.1625
2146.78201	28116.0625
2149.74466	28138.6625
2152.7054	28103.3625
2155.66425	28150.5625
2158.6212	28149.2625
2161.57625	28118.7625
2164.52941	28108.6625
2167.48067	28096.1625
2170.43004	28076.6625
2173.37752	28094.9625
2176.32311	28103.7625
2179.26681	28092.9625
2182.20863	28053.5625
2185.14856	28081.5625
2188.08661	28071.3625
2191.02278	28091.4625
2193.95707	28033.6625
2196.88948	28071.7625
2199.82001	28078.7625
2202.74867	27966.4625
2205.67545	27982.8625
2208.60037	27951.1625
2211.52341	27922.6625
2214.44458	27896.6625
2217.36388	27806.4625
2220.28132	27749.9625
2223.1969	27697.9625
2226.11061	27696.0625
2229.02246	27611.6625
2231.93245	27566.0625
2234.84058	27542.1625
2237.74686	27482.0625
2240.65128	27437.4625
2243.55385	27406.5625
2246.45456	27374.7625
2249.35343	27349.5625
2252.25044	27296.1625
2255.14561	27257.6625
2258.03893	27277.6625
2260.93041	27194.1625
2263.82004	27111.6625
2266.70783	27096.1625
2269.59378	27048.0625
2272.4779	26946.8625
2275.36017	26920.1625
2278.24061	26886.5625
2281.11922	26809.8625
2283.996	26767.3625
2286.87094	26728.7625
2289.74405	26673.3625
2292.61534	26647.1625
2295.4848	26626.1625
2298.35243	26651.6625
2301.21824	26625.3625
2304.08223	26657.0625
2306.94439	26615.9625
2309.80474	26578.6625
2312.66327	26587.2625
2315.51999	26563.6625
2318.37489	26553.5625
2321.22797	26561.4625
2324.07925	26513.6625
2326.92871	26443.6625
2329.77637	26397.1625
2332.62222	26376.2625
2335.46626	26351.7625
2338.3085	26289.6625
2341.14893	26313.8625
2343.98756	26321.1625
2346.8244	26286.3625
2349.65943	26297.0625
2352.49267	26214.1625
2355.32411	26260.7625
2358.15376	26224.5625
2360.98161	26191.4625
2363.80768	26167.1625
2366.63195	26143.1625
2369.45444	26086.8625
2372.27514	26059.8625
2375.09405	26016.7625
2377.91118	26026.1625
2380.72652	25934.1625
2383.54009	25879.0625
2386.35187	25864.9625
2389.16188	25813.2625
2391.97011	25761.1625
2394.77657	25690.9625
2397.58125	25641.8625
2400.38416	25636.7625
2403.18529	25605.2625
2405.98466	25545.4625
2408.78226	25543.8625
2411.57809	25514.5625
2414.37216	25469.6625
2417.16446	25453.9625
2419.955	25431.1625
2422.74378	25427.6625
2425.5308	25384.1625
2428.31606	25391.2625
2431.09956	25313.3625
2433.88131	25276.9625
2436.6613	25327.5625
2439.43954	25326.6625
2442.21603	25288.2625
2444.99077	25264.4625
2447.76377	25330.4625
2450.53501	25260.5625
2453.30451	25253.5625
2456.07226	25226.7625
2458.83827	25180.5625
2461.60254	25122.7625
2464.36507	25170.5625
2467.12586	25120.8625
2469.88492	25093.0625
2472.64224	25096.2625
2475.39782	25107.8625
2478.15167	25097.6625
2480.90379	25070.2625
2483.65417	25074.3625
2486.40283	25028.6625
2489.14976	25056.9625
2491.89497	25040.4625
2494.63845	25046.3625
2497.3802	25025.2625
2500.12024	24983.0625
2502.85855	24981.6625
2505.59514	24954.5625
2508.33002	24935.0625
2511.06318	24888.6625
2513.79462	24867.5625
2516.52435	24833.2625
2519.25237	24850.9625
2521.97867	24830.2625
2524.70327	24819.9625
2527.42616	24745.0625
2530.14734	24755.7625
2532.86681	24737.5625
2535.58458	24706.8625
2538.30065	24681.9625
2541.01501	24673.5625
2543.72768	24612.3625
2546.43864	24582.4625
2549.14791	24547.8625
2551.85548	24539.3625
2554.56136	24483.5625
2557.26554	24452.4625
2559.96803	24427.6625
2562.66883	24381.1625
2565.36794	24409.2625
2568.06536	24373.0625
2570.7611	24335.5625
2573.45514	24279.5625
2576.14751	24279.1625
2578.83819	24195.9625
2581.52719	24202.7625
2584.21451	24144.0625
2586.90015	24142.4625
2589.58411	24112.2625
2592.2664	24081.8625
2594.94701	24025.3625
2597.62594	24016.9625
2600.30321	23964.4625
2602.9788	23928.8625
2605.65273	23894.4625
2608.32498	23933.0625
2610.99557	23868.4625
2613.66449	23887.0625
2616.33175	23829.7625
2618.99734	23824.8625
2621.66128	23774.8625
2624.32355	23758.6625
2626.98416	23746.5625
2629.64311	23702.7625
2632.30041	23750.6625
2634.95605	23678.3625
2637.61004	23661.0625
2640.26238	23603.8625
2642.91306	23626.5625
2645.56209	23610.7625
2648.20948	23608.6625
2650.85521	23573.3625
2653.4993	23577.2625
2656.14175	23552.3625
2658.78255	23584.1625
2661.42171	23543.2625
2664.05923	23581.5625
2666.6951	23593.2625
2669.32934	23576.8625
2671.96194	23586.2625
2674.59291	23590.9625
2677.22224	23562.8625
2679.84993	23591.8625
2682.476	23552.7625
2685.10043	23599.2625
2687.72324	23533.8625
2690.34441	23570.1625
2692.96396	23530.9625
2695.58188	23538.7625
2698.19818	23533.7625
2700.81285	23540.6625
2703.4259	23501.0625
2706.03733	23497.2625
2708.64714	23527.6625
2711.25533	23556.1625
2713.86191	23538.7625
2716.46687	23569.8625
2719.07021	23534.3625
2721.67194	23571.1625
2724.27206	23550.9625
2726.87057	23540.5625
2729.46747	23524.5625
2732.06276	23520.4625
2734.65644	23531.2625
2737.24852	23531.6625
2739.83899	23483.8625
2742.42786	23470.5625
2745.01513	23437.6625
2747.60079	23456.4625
2750.18486	23446.0625
2752.76733	23383.8625
2755.3482	23369.4625
2757.92747	23387.8625
2760.50515	23343.7625
2763.08123	23338.8625
2765.65573	23300.7625
2768.22863	23278.8625
2770.79994	23253.3625
2773.36967	23244.2625
2775.9378	23210.0625
2778.50435	23181.2625
2781.06932	23166.5625
2783.6327	23167.3625
2786.1945	23142.8625
2788.75471	23099.7625
2791.31335	23056.9625
2793.87041	23007.1625
2796.42589	22939.2625
2798.97979	22930.4625
2801.53212	22898.8625
2804.08288	22870.3625
2806.63206	22796.8625
2809.17967	22762.7625
2811.72571	22669.3625
2814.27018	22734.4625
2816.81308	22651.2625
2819.35442	22609.3625
2821.89419	22542.8625
2824.43239	22536.7625
2826.96904	22513.6625
2829.50412	22484.8625
2832.03763	22476.4625
2834.56959	22439.0625
2837.1	22419.3625
2839.62884	22405.2625
2842.15613	22353.7625
2844.68186	22341.0625
2847.20604	22373.5625
2849.72867	22329.3625
2852.24974	22295.2625
2854.76927	22258.9625
2857.28724	22219.8625
2859.80367	22198.3625
2862.31855	22180.8625
2864.83189	22180.4625
2867.34368	22142.4625
2869.85393	22151.7625
2872.36264	22159.6625
2874.8698	22169.1625
2877.37543	22135.1625
2879.87952	22128.3625
2882.38207	22154.8625
2884.88308	22159.3625
2887.38256	22161.3625
2889.88051	22157.2625
2892.37692	22132.0625
2894.8718	22119.9625
2897.36515	22135.9625
2899.85698	22145.0625
2902.34727	22227.0625
2904.83604	22204.1625
2907.32328	22219.8625
2909.809	22180.6625
2912.29319	22233.9625
2914.77587	22206.5625
2917.25702	22205.5625
2919.73665	22167.6625
2922.21476	22143.1625
2924.69136	22138.0625
2927.16644	22121.4625
2929.64	22063.1625
2932.11205	22074.6625
2934.58258	21980.8625
2937.05161	22050.6625
2939.51912	22043.6625
2941.98513	22020.1625
2944.44962	21941.6625
2946.91261	21883.0625
2949.37409	21923.7625
2951.83407	21897.9625
2954.29254	21894.0625
2956.74951	21842.9625
2959.20498	21824.8625
2961.65895	21803.7625
2964.11142	21800.9625
2966.56239	21714.4625
2969.01186	21710.2625
2971.45984	21688.6625
2973.90632	21687.4625
2976.35131	21630.6625
2978.7948	21575.2625
2981.23681	21562.9625
2983.67732	21519.3625
2986.11635	21461.1625
2988.55388	21397.4625
2990.98993	21383.1625
2993.4245	21288.5625
2995.85758	21292.5625
2998.28917	21200.0625
3000.71928	21186.3625
3003.14791	21214.9625
3005.57506	21146.6625
3008.00073	21099.6625
3010.42493	21109.7625
3012.84764	21052.8625
3015.26888	21048.7625
3017.68865	20998.1625
3020.10694	20969.4625
3022.52376	20938.2625
3024.9391	20879.0625
3027.35298	20877.1625
3029.76539	20822.8625
3032.17632	20775.1625
3034.5858	20765.0625
3036.9938	20728.3625
3039.40034	20680.2625
3041.80542	20734.9625
3044.20903	20645.2625
3046.61118	20631.5625
3049.01187	20594.3625
3051.4111	20579.9625
3053.80888	20526.8625
3056.20519	20515.0625
3058.60005	20442.6625
3060.99345	20410.6625
3063.3854	20387.4625
3065.7759	20301.6625
3068.16494	20291.4625
3070.55254	20239.1625
3072.93868	20198.7625
3075.32338	20104.4625
3077.70662	20146.9625
3080.08842	20093.9625
3082.46878	20083.9625
3084.84769	20042.6625
3087.22515	20014.9625
3089.60118	20005.8625
3091.97576	19980.9625
3094.3489	19978.9625
3096.72061	20019.6625
3099.09087	19982.0625
3101.4597	19977.7625
3103.82709	19924.5625
3106.19305	19912.0625
3108.55757	19881.1625
3110.92066	19797.9625
3113.28232	19794.4625
3115.64255	19710.0625
3118.00134	19688.8625
3120.35871	19658.1625
3122.71466	19612.6625
3125.06917	19588.0625
3127.42226	19488.3625
3129.77393	19536.7625
3132.12417	19540.5625
3134.47299	19517.3625
3136.82039	19496.3625
3139.16636	19513.3625
3141.51092	19483.7625
3143.85406	19503.4625
3146.19579	19479.1625
3148.53609	19505.4625
3150.87499	19516.1625
3153.21246	19509.5625
3155.54853	19490.7625
3157.88318	19430.9625
3160.21642	19439.3625
3162.54826	19467.0625
3164.87868	19414.5625
3167.2077	19402.1625
3169.5353	19389.3625
3171.86151	19348.8625
3174.18631	19361.1625
3176.5097	19322.7625
3178.83169	19301.3625
3181.15228	19285.7625
3183.47147	19248.7625
3185.78926	19243.2625
3188.10565	19210.7625
3190.42065	19222.7625
3192.73424	19195.5625
3195.04645	19209.6625
3197.35725	19227.6625
3199.66667	19172.2625
3201.97469	19201.4625
3204.28132	19231.1625
3206.58656	19213.3625
3208.8904	19231.7625
3211.19287	19207.9625
3213.49394	19193.8625
3215.79363	19178.6625
3218.09193	19194.3625
3220.38884	19159.3625
3222.68438	19137.9625
3224.97853	19087.6625
3227.2713	19091.0625
3229.56269	19020.4625
3231.8527	19042.2625
3234.14133	19015.7625
3236.42858	18941.9625
3238.71446	18937.0625
3240.99896	18890.6625
3243.28209	18919.2625
3245.56384	18878.3625
3247.84423	18883.8625
3250.12324	18904.4625
3252.40088	18893.5625
3254.67715	18868.8625
3256.95205	18830.1625
3259.22558	18789.2625
3261.49775	18767.5625
3263.76855	18735.3625
3266.03799	18682.5625
3268.30606	18659.7625
3270.57277	18603.0625
3272.83812	18583.4625
3275.10211	18580.4625
3277.36474	18550.8625
3279.62601	18540.4625
3281.88593	18494.7625
3284.14448	18555.0625
3286.40168	18523.9625
3288.65753	18486.2625
3290.91202	18478.5625
3293.16516	18376.7625
3295.41695	18332.3625
3297.66738	18222.7625
3299.91647	18150.8625
3302.16421	18057.5625
3304.4106	17957.9625
3306.65564	17889.9625
3308.89933	17781.4625
3311.14169	17676.9625
3313.38269	17533.2625
3315.62236	17463.4625
3317.86068	17311.6625
3320.09766	17100.1625
3322.3333	16987.7625
3324.5676	16978.4625
3326.80056	16678.8625
3329.03219	16602.4625
3331.26248	3.3625
3333.49143	0.6625
3335.71905	-0.1375
