Data from AgNPs_FTO_APTES_UA_2uM_R6G_10uM_NaF_0.1M_Addition_RamanShift__14__11-59-57-215.txt Node

Date: Fri Dec 17 11:59:57 GMT 2021
User: TCL
Spectrometer: QEP01345
Trigger mode: 4
Integration Time (sec): 7.000000E0
Scans to average: 10
Electric dark correction enabled: true
Nonlinearity correction enabled: false
Boxcar width: 0
XAxis mode: Raman Shifts
Number of Pixels in Spectrum: 1044
>>>>>Begin Spectral Data<<<<<
46.04893	-1.2375
50.45542	0.4625
54.85868	-1.9375
59.25871	0.6625
63.6555	113.1625
68.04907	118.6625
72.43941	122.5625
76.82654	132.9625
81.21044	133.2625
85.59113	139.3625
89.96862	145.3625
94.34289	145.3625
98.71396	151.7625
103.08183	158.2625
107.4465	166.7625
111.80798	165.9625
116.16626	172.3625
120.52136	176.2625
124.87327	188.5625
129.222	193.8625
133.56755	206.3625
137.90993	223.7625
142.24913	241.3625
146.58517	266.1625
150.91804	308.6625
155.24774	369.5625
159.57429	452.3625
163.89768	574.9625
168.21792	756.4625
172.53501	1011.7625
176.84895	1411.4625
181.15975	1985.3625
185.46741	2777.2625
189.77193	3838.7625
194.07331	5150.9625
198.37157	6645.5625
202.6667	8254.2625
206.9587	9824.5625
211.24758	11335.3625
215.53334	12857.4625
219.81599	14455.3625
224.09553	16237.7625
228.37195	18159.8625
232.64527	20316.5625
236.91549	22602.9625
241.18261	24969.5625
245.44663	27266.1625
249.70755	29436.3625
253.96539	31315.4625
258.22014	32821.5625
262.4718	34010.4625
266.72039	34822.9625
270.96589	35212.8625
275.20832	35205.9625
279.44768	34940.3625
283.68397	34450.8625
287.91719	34027.6625
292.14735	33665.0625
296.37445	33367.2625
300.59849	33220.7625
304.81948	33145.8625
309.03742	33049.5625
313.25231	32876.7625
317.46415	32478.0625
321.67296	32093.1625
325.87872	31696.9625
330.08145	31564.2625
334.28114	31591.6625
338.47781	31915.1625
342.67145	32225.4625
346.86207	32638.6625
351.04966	33141.6625
355.23424	33701.1625
359.4158	34197.6625
363.59435	34612.5625
367.76989	34909.0625
371.94243	35161.9625
376.11196	35333.6625
380.27849	35400.6625
384.44203	35618.7625
388.60257	35849.8625
392.76012	36201.6625
396.91468	36560.2625
401.06626	37037.5625
405.21485	37356.7625
409.36047	37338.6625
413.50311	37088.3625
417.64277	36852.6625
421.77947	36816.3625
425.9132	37005.8625
430.04396	37200.8625
434.17176	37391.3625
438.2966	37577.2625
442.41849	37863.3625
446.53742	38351.6625
450.6534	38919.5625
454.76644	39348.7625
458.87653	39570.0625
462.98368	39683.1625
467.08789	39613.2625
471.18916	39405.9625
475.2875	39096.7625
479.38291	38854.1625
483.4754	38676.0625
487.56496	38536.8625
491.6516	38306.3625
495.73531	38176.4625
499.81612	38103.6625
503.89401	38296.8625
507.96899	38511.8625
512.04106	38555.2625
516.11023	38576.2625
520.1765	38438.3625
524.23987	38224.0625
528.30034	37999.8625
532.35792	37775.0625
536.41261	37633.4625
540.46441	37409.4625
544.51333	37456.2625
548.55936	37718.4625
552.60252	38152.0625
556.64279	38575.7625
560.6802	38875.6625
564.71473	39054.8625
568.7464	39313.1625
572.7752	39763.2625
576.80114	40324.8625
580.82422	40913.4625
584.84444	41521.9625
588.86181	41978.4625
592.87633	42328.6625
596.888	42257.2625
600.89682	42121.1625
604.9028	42849.4625
608.90594	45176.4625
612.90624	47378.1625
616.90371	45595.7625
620.89834	41208.0625
624.89015	39153.1625
628.87913	38798.9625
632.86528	38946.3625
636.84862	39029.5625
640.82913	38758.3625
644.80683	38194.7625
648.78172	37808.2625
652.75379	37737.6625
656.72306	37957.8625
660.68952	38399.7625
664.65319	38365.6625
668.61405	38067.2625
672.57211	38068.8625
676.52738	38200.5625
680.47986	38126.5625
684.42955	38075.8625
688.37646	37915.2625
692.32058	38089.9625
696.26192	38414.3625
700.20048	38680.9625
704.13626	38899.7625
708.06928	38920.3625
711.99952	38736.3625
715.927	38681.0625
719.85171	38638.0625
723.77365	38555.5625
727.69284	38306.1625
731.60928	37985.8625
735.52295	37865.9625
739.43388	37881.5625
743.34206	37915.2625
747.24749	38057.3625
751.15017	38218.6625
755.05012	38529.9625
758.94733	39145.6625
762.8418	40172.2625
766.73354	41853.9625
770.62254	43444.6625
774.50882	43953.3625
778.39237	42992.7625
782.27321	41317.6625
786.15132	39888.0625
790.02671	38967.4625
793.89938	38445.8625
797.76935	38161.4625
801.6366	38027.4625
805.50115	37911.1625
809.36299	37791.8625
813.22213	37663.6625
817.07857	37578.3625
820.93231	37508.4625
824.78336	37506.5625
828.63172	37512.9625
832.47738	37449.3625
836.32036	37418.1625
840.16066	37407.9625
843.99827	37447.1625
847.8332	37487.6625
851.66546	37465.1625
855.49504	37516.9625
859.32195	37600.1625
863.1462	37573.5625
866.96777	37552.9625
870.78668	37542.8625
874.60293	37684.6625
878.41652	37712.9625
882.22745	37817.7625
886.03573	37904.5625
889.84136	37991.0625
893.64433	37983.1625
897.44466	37885.2625
901.24235	37822.9625
905.0374	37819.7625
908.8298	37880.3625
912.61957	37876.4625
916.40671	38030.4625
920.19121	38251.3625
923.97308	38393.2625
927.75233	38376.7625
931.52895	38264.2625
935.30295	37992.2625
939.07433	37619.3625
942.84309	37342.3625
946.60924	37143.2625
950.37278	37087.0625
954.13371	37005.0625
957.89203	36932.4625
961.64774	36875.9625
965.40086	36831.2625
969.15137	36782.3625
972.89929	36699.8625
976.64461	36609.7625
980.38733	36627.2625
984.12747	36688.2625
987.86502	36767.2625
991.59999	36891.1625
995.33237	37011.4625
999.06217	37363.2625
1002.78939	37693.8625
1006.51404	38147.9625
1010.23611	38656.4625
1013.95561	38901.3625
1017.67255	38941.3625
1021.38692	38689.9625
1025.09872	38355.4625
1028.80796	38024.2625
1032.51465	37916.5625
1036.21877	37950.2625
1039.92035	38064.3625
1043.61937	38101.3625
1047.31584	38189.3625
1051.00976	38305.9625
1054.70114	38378.0625
1058.38998	38554.1625
1062.07627	38863.6625
1065.76003	39155.6625
1069.44126	39468.8625
1073.11995	40025.6625
1076.79611	40454.0625
1080.46974	40670.1625
1084.14085	40712.6625
1087.80943	40851.3625
1091.47549	40952.5625
1095.13903	41014.7625
1098.80005	40772.4625
1102.45857	40346.6625
1106.11456	39864.7625
1109.76805	39519.1625
1113.41903	39382.2625
1117.06751	39387.0625
1120.71348	39438.2625
1124.35696	39605.4625
1127.99793	39878.7625
1131.63641	40020.4625
1135.2724	40003.7625
1138.90589	39808.0625
1142.5369	39787.8625
1146.16542	39763.7625
1149.79145	39857.7625
1153.415	39946.0625
1157.03607	40086.9625
1160.65467	40543.5625
1164.27079	41318.8625
1167.88443	42474.5625
1171.49561	43795.8625
1175.10432	45407.1625
1178.71056	47406.4625
1182.31434	49480.2625
1185.91565	50940.9625
1189.51451	51626.3625
1193.11091	51546.8625
1196.70485	50583.5625
1200.29634	49176.3625
1203.88538	47958.3625
1207.47197	47045.1625
1211.05612	46227.4625
1214.63782	45543.2625
1218.21708	44819.0625
1221.79391	44206.0625
1225.36829	43773.4625
1228.94024	43519.5625
1232.50976	43427.6625
1236.07685	43395.3625
1239.6415	43337.9625
1243.20374	43411.5625
1246.76355	43590.5625
1250.32093	43942.9625
1253.8759	44430.7625
1257.42845	45132.3625
1260.97859	45931.4625
1264.52631	46783.0625
1268.07163	47515.3625
1271.61453	48245.5625
1275.15503	48960.6625
1278.69312	49579.1625
1282.22882	50023.4625
1285.76211	50622.4625
1289.29301	51338.1625
1292.82151	52144.4625
1296.34761	53190.2625
1299.87133	54413.5625
1303.39266	55880.3625
1306.9116	57555.9625
1310.42815	59017.4625
1313.94233	59978.0625
1317.45412	60212.0625
1320.96354	59965.5625
1324.47058	59937.2625
1327.97525	59887.2625
1331.47754	59994.6625
1334.97747	60234.7625
1338.47502	60560.7625
1341.97022	61128.5625
1345.46305	61553.2625
1348.95352	61694.2625
1352.44163	61652.7625
1355.92738	61411.6625
1359.41078	61620.6625
1362.89183	61999.5625
1366.37053	60859.8625
1369.84688	57711.9625
1373.32088	54056.0625
1376.79254	51394.8625
1380.26186	49880.0625
1383.72883	49363.4625
1387.19347	49005.7625
1390.65578	48459.1625
1394.11575	48062.2625
1397.57339	47981.0625
1401.0287	48074.8625
1404.48168	48282.9625
1407.93234	48388.0625
1411.38068	48131.0625
1414.82669	47601.0625
1418.27039	46804.2625
1421.71177	45840.6625
1425.15083	45234.9625
1428.58758	44857.2625
1432.02203	44943.9625
1435.45416	45397.2625
1438.88399	45984.6625
1442.31151	46434.0625
1445.73673	46702.4625
1449.15965	46845.6625
1452.58027	47001.1625
1455.9986	47150.7625
1459.41463	47426.7625
1462.82837	48008.8625
1466.23982	48602.7625
1469.64898	49112.8625
1473.05586	49431.0625
1476.46045	49573.5625
1479.86276	49461.2625
1483.26279	49335.9625
1486.66054	49315.5625
1490.05602	49540.4625
1493.44922	49966.1625
1496.84016	50637.2625
1500.22882	51689.9625
1503.61521	53108.6625
1506.99934	54459.9625
1510.38121	55389.6625
1513.76081	55482.1625
1517.13816	54550.5625
1520.51324	53056.8625
1523.88607	51810.5625
1527.25665	50990.2625
1530.62498	50590.9625
1533.99105	50287.1625
1537.35488	49930.7625
1540.71647	49362.4625
1544.07581	48657.2625
1547.4329	48115.0625
1550.78776	47549.3625
1554.14038	47183.6625
1557.49077	47061.5625
1560.83892	47063.8625
1564.18484	47145.8625
1567.52853	47274.3625
1570.86999	47441.6625
1574.20922	47839.4625
1577.54624	48260.4625
1580.88103	48271.2625
1584.2136	48131.0625
1587.54395	48456.8625
1590.87208	49194.1625
1594.19801	50516.3625
1597.52172	51962.3625
1600.84321	52407.1625
1604.16251	51343.3625
1607.47959	49480.4625
1610.79447	47339.8625
1614.10715	45122.5625
1617.41763	43094.7625
1620.7259	41552.2625
1624.03199	40681.5625
1627.33587	40502.1625
1630.63757	41004.3625
1633.93707	42236.0625
1637.23439	44386.3625
1640.52951	47392.6625
1643.82246	50778.9625
1647.11321	53283.8625
1650.40179	53790.6625
1653.68819	51593.9625
1656.97241	47622.9625
1660.25446	43587.0625
1663.53433	40508.3625
1666.81203	38375.3625
1670.08756	37007.3625
1673.36092	36091.6625
1676.63211	35471.4625
1679.90115	35030.1625
1683.16801	34725.8625
1686.43272	34482.4625
1689.69527	34282.1625
1692.95567	34082.3625
1696.2139	33984.2625
1699.46999	33914.7625
1702.72392	33840.2625
1705.97571	33825.6625
1709.22535	33768.0625
1712.47284	33770.2625
1715.71819	33765.9625
1718.96139	33706.2625
1722.20246	33558.7625
1725.44139	33526.4625
1728.67818	33355.8625
1731.91284	33241.5625
1735.14537	33077.9625
1738.37576	33021.9625
1741.60403	32895.8625
1744.83017	32775.0625
1748.05418	32719.7625
1751.27607	32646.3625
1754.49584	32623.8625
1757.71349	32590.6625
1760.92903	32526.5625
1764.14244	32533.8625
1767.35375	32566.8625
1770.56294	32521.1625
1773.77002	32443.8625
1776.97499	32426.4625
1780.17785	32348.8625
1783.37861	32366.2625
1786.57727	32354.7625
1789.77382	32208.2625
1792.96828	32206.2625
1796.16064	32136.4625
1799.3509	32080.2625
1802.53907	32025.0625
1805.72514	31925.1625
1808.90913	31873.3625
1812.09102	31827.6625
1815.27083	31787.8625
1818.44856	31760.5625
1821.6242	31742.5625
1824.79776	31719.6625
1827.96924	31734.2625
1831.13864	31694.6625
1834.30597	31711.9625
1837.47122	31687.5625
1840.6344	31708.1625
1843.7955	31759.3625
1846.95454	31734.0625
1850.11151	31707.8625
1853.26642	31651.8625
1856.41926	31639.8625
1859.57004	31624.9625
1862.71876	31590.0625
1865.86542	31549.5625
1869.01003	31514.0625
1872.15258	31452.9625
1875.29308	31407.6625
1878.43152	31353.8625
1881.56792	31328.3625
1884.70227	31281.9625
1887.83457	31292.5625
1890.96482	31211.7625
1894.09304	31140.8625
1897.21921	31103.0625
1900.34335	31108.8625
1903.46544	31009.1625
1906.58551	30974.1625
1909.70353	30944.7625
1912.81953	30872.2625
1915.93349	30813.8625
1919.04543	30727.7625
1922.15534	30710.0625
1925.26322	30646.7625
1928.36908	30566.7625
1931.47292	30535.4625
1934.57473	30440.3625
1937.67453	30307.3625
1940.77232	30251.0625
1943.86808	30207.3625
1946.96184	30149.7625
1950.05358	30058.5625
1953.14331	29971.9625
1956.23103	29892.0625
1959.31675	29810.4625
1962.40046	29683.3625
1965.48217	29638.0625
1968.56188	29593.5625
1971.63959	29486.6625
1974.7153	29390.0625
1977.78901	29317.8625
1980.86073	29187.8625
1983.93046	29070.2625
1986.99819	29027.3625
1990.06394	28919.4625
1993.1277	28837.2625
1996.18947	28780.5625
1999.24925	28676.6625
2002.30706	28600.7625
2005.36288	28491.6625
2008.41672	28411.8625
2011.46859	28341.4625
2014.51848	28269.9625
2017.56639	28189.3625
2020.61233	28140.1625
2023.6563	28073.0625
2026.6983	28014.8625
2029.73833	27944.3625
2032.7764	27884.1625
2035.8125	27822.8625
2038.84664	27790.5625
2041.87881	27750.3625
2044.90903	27660.6625
2047.93729	27602.4625
2050.96359	27578.0625
2053.98794	27538.0625
2057.01034	27544.0625
2060.03078	27510.3625
2063.04927	27462.8625
2066.06582	27461.3625
2069.08042	27471.1625
2072.09307	27452.4625
2075.10378	27398.9625
2078.11255	27373.0625
2081.11938	27327.8625
2084.12426	27366.6625
2087.12722	27303.1625
2090.12824	27367.3625
2093.12732	27340.8625
2096.12447	27394.4625
2099.11969	27339.9625
2102.11299	27359.2625
2105.10435	27402.3625
2108.09379	27382.0625
2111.08131	27407.2625
2114.0669	27448.2625
2117.05057	27429.0625
2120.03233	27424.4625
2123.01216	27436.9625
2125.99008	27478.8625
2128.96609	27482.9625
2131.94018	27499.9625
2134.91236	27537.5625
2137.88263	27530.9625
2140.851	27488.4625
2143.81746	27592.3625
2146.78201	27581.2625
2149.74466	27539.1625
2152.7054	27545.3625
2155.66425	27537.9625
2158.6212	27521.8625
2161.57625	27536.5625
2164.52941	27556.1625
2167.48067	27517.8625
2170.43004	27488.6625
2173.37752	27530.6625
2176.32311	27479.8625
2179.26681	27437.0625
2182.20863	27462.5625
2185.14856	27474.8625
2188.08661	27399.6625
2191.02278	27433.6625
2193.95707	27421.3625
2196.88948	27383.1625
2199.82001	27397.6625
2202.74867	27360.2625
2205.67545	27341.3625
2208.60037	27281.0625
2211.52341	27260.3625
2214.44458	27218.0625
2217.36388	27111.7625
2220.28132	27084.8625
2223.1969	26992.3625
2226.11061	26969.9625
2229.02246	26907.7625
2231.93245	26888.7625
2234.84058	26847.2625
2237.74686	26835.7625
2240.65128	26755.4625
2243.55385	26703.4625
2246.45456	26675.4625
2249.35343	26659.3625
2252.25044	26638.6625
2255.14561	26580.1625
2258.03893	26565.3625
2260.93041	26503.1625
2263.82004	26398.8625
2266.70783	26408.0625
2269.59378	26359.2625
2272.4779	26259.7625
2275.36017	26210.8625
2278.24061	26169.3625
2281.11922	26095.8625
2283.996	26051.6625
2286.87094	26025.9625
2289.74405	25932.1625
2292.61534	25941.0625
2295.4848	25884.0625
2298.35243	25868.8625
2301.21824	25886.4625
2304.08223	25864.3625
2306.94439	25811.7625
2309.80474	25779.7625
2312.66327	25788.1625
2315.51999	25776.0625
2318.37489	25750.9625
2321.22797	25711.1625
2324.07925	25710.9625
2326.92871	25622.6625
2329.77637	25537.5625
2332.62222	25571.1625
2335.46626	25488.5625
2338.3085	25458.3625
2341.14893	25471.0625
2343.98756	25441.9625
2346.8244	25426.8625
2349.65943	25418.7625
2352.49267	25365.6625
2355.32411	25315.6625
2358.15376	25336.4625
2360.98161	25283.6625
2363.80768	25271.8625
2366.63195	25252.2625
2369.45444	25229.4625
2372.27514	25189.8625
2375.09405	25183.8625
2377.91118	25125.7625
2380.72652	25075.4625
2383.54009	25023.0625
2386.35187	25010.8625
2389.16188	24928.8625
2391.97011	24870.3625
2394.77657	24821.2625
2397.58125	24819.9625
2400.38416	24770.4625
2403.18529	24702.6625
2405.98466	24681.0625
2408.78226	24643.0625
2411.57809	24618.5625
2414.37216	24584.4625
2417.16446	24612.6625
2419.955	24548.0625
2422.74378	24512.8625
2425.5308	24491.4625
2428.31606	24486.3625
2431.09956	24458.1625
2433.88131	24415.8625
2436.6613	24412.0625
2439.43954	24396.7625
2442.21603	24369.0625
2444.99077	24356.5625
2447.76377	24325.5625
2450.53501	24302.0625
2453.30451	24332.5625
2456.07226	24281.0625
2458.83827	24198.3625
2461.60254	24217.3625
2464.36507	24231.5625
2467.12586	24148.7625
2469.88492	24113.3625
2472.64224	24145.4625
2475.39782	24052.4625
2478.15167	24076.0625
2480.90379	24053.1625
2483.65417	24029.9625
2486.40283	24016.5625
2489.14976	24014.6625
2491.89497	23975.7625
2494.63845	24006.1625
2497.3802	23938.7625
2500.12024	23950.3625
2502.85855	23926.6625
2505.59514	23925.7625
2508.33002	23881.3625
2511.06318	23832.5625
2513.79462	23778.9625
2516.52435	23808.5625
2519.25237	23790.1625
2521.97867	23780.7625
2524.70327	23708.8625
2527.42616	23689.0625
2530.14734	23660.3625
2532.86681	23675.4625
2535.58458	23624.8625
2538.30065	23576.3625
2541.01501	23547.5625
2543.72768	23487.7625
2546.43864	23494.0625
2549.14791	23410.5625
2551.85548	23370.7625
2554.56136	23356.0625
2557.26554	23320.7625
2559.96803	23264.2625
2562.66883	23217.4625
2565.36794	23212.0625
2568.06536	23205.4625
2570.7611	23160.2625
2573.45514	23121.3625
2576.14751	23060.1625
2578.83819	23036.8625
2581.52719	22976.6625
2584.21451	22954.2625
2586.90015	22944.7625
2589.58411	22881.4625
2592.2664	22868.8625
2594.94701	22803.9625
2597.62594	22791.8625
2600.30321	22755.4625
2602.9788	22711.4625
2605.65273	22678.0625
2608.32498	22629.3625
2610.99557	22609.5625
2613.66449	22633.4625
2616.33175	22564.4625
2618.99734	22595.4625
2621.66128	22503.5625
2624.32355	22471.7625
2626.98416	22450.3625
2629.64311	22390.9625
2632.30041	22440.2625
2634.95605	22415.4625
2637.61004	22367.8625
2640.26238	22312.4625
2642.91306	22318.5625
2645.56209	22280.6625
2648.20948	22270.9625
2650.85521	22259.3625
2653.4993	22267.4625
2656.14175	22236.6625
2658.78255	22243.2625
2661.42171	22223.3625
2664.05923	22255.8625
2666.6951	22246.1625
2669.32934	22230.3625
2671.96194	22206.6625
2674.59291	22225.3625
2677.22224	22211.2625
2679.84993	22249.8625
2682.476	22197.8625
2685.10043	22212.2625
2687.72324	22167.0625
2690.34441	22196.8625
2692.96396	22196.5625
2695.58188	22187.5625
2698.19818	22174.9625
2700.81285	22187.1625
2703.4259	22174.7625
2706.03733	22172.8625
2708.64714	22143.9625
2711.25533	22168.1625
2713.86191	22117.5625
2716.46687	22171.2625
2719.07021	22139.3625
2721.67194	22149.6625
2724.27206	22112.8625
2726.87057	22099.6625
2729.46747	22099.6625
2732.06276	22122.3625
2734.65644	22126.9625
2737.24852	22068.2625
2739.83899	22049.8625
2742.42786	22057.7625
2745.01513	22010.2625
2747.60079	21999.7625
2750.18486	21984.3625
2752.76733	21983.5625
2755.3482	21931.1625
2757.92747	21922.0625
2760.50515	21897.4625
2763.08123	21856.0625
2765.65573	21804.8625
2768.22863	21805.3625
2770.79994	21780.8625
2773.36967	21782.5625
2775.9378	21765.8625
2778.50435	21700.0625
2781.06932	21673.9625
2783.6327	21629.8625
2786.1945	21618.0625
2788.75471	21585.5625
2791.31335	21519.3625
2793.87041	21473.4625
2796.42589	21393.8625
2798.97979	21410.5625
2801.53212	21333.5625
2804.08288	21312.9625
2806.63206	21243.4625
2809.17967	21247.0625
2811.72571	21162.6625
2814.27018	21196.8625
2816.81308	21127.7625
2819.35442	21072.8625
2821.89419	21006.4625
2824.43239	21015.4625
2826.96904	20977.8625
2829.50412	20963.0625
2832.03763	20851.5625
2834.56959	20915.3625
2837.1	20868.8625
2839.62884	20831.4625
2842.15613	20776.5625
2844.68186	20815.5625
2847.20604	20780.1625
2849.72867	20762.7625
2852.24974	20723.7625
2854.76927	20718.5625
2857.28724	20658.4625
2859.80367	20635.0625
2862.31855	20650.8625
2864.83189	20616.1625
2867.34368	20565.8625
2869.85393	20599.9625
2872.36264	20546.5625
2874.8698	20522.5625
2877.37543	20562.9625
2879.87952	20516.5625
2882.38207	20559.1625
2884.88308	20538.5625
2887.38256	20515.0625
2889.88051	20534.3625
2892.37692	20538.4625
2894.8718	20494.3625
2897.36515	20501.4625
2899.85698	20521.1625
2902.34727	20585.7625
2904.83604	20551.3625
2907.32328	20537.4625
2909.809	20529.5625
2912.29319	20568.3625
2914.77587	20522.3625
2917.25702	20505.2625
2919.73665	20481.4625
2922.21476	20499.4625
2924.69136	20424.4625
2927.16644	20454.0625
2929.64	20388.2625
2932.11205	20385.8625
2934.58258	20323.6625
2937.05161	20357.3625
2939.51912	20376.7625
2941.98513	20336.4625
2944.44962	20294.8625
2946.91261	20214.1625
2949.37409	20256.8625
2951.83407	20222.2625
2954.29254	20215.1625
2956.74951	20218.4625
2959.20498	20148.3625
2961.65895	20129.2625
2964.11142	20106.1625
2966.56239	20038.1625
2969.01186	20058.9625
2971.45984	20016.1625
2973.90632	19964.7625
2976.35131	19969.7625
2978.7948	19923.4625
2981.23681	19875.0625
2983.67732	19842.2625
2986.11635	19757.1625
2988.55388	19730.6625
2990.98993	19698.0625
2993.4245	19685.4625
2995.85758	19624.5625
2998.28917	19580.6625
3000.71928	19569.7625
3003.14791	19557.8625
3005.57506	19506.3625
3008.00073	19440.1625
3010.42493	19448.2625
3012.84764	19387.6625
3015.26888	19386.4625
3017.68865	19349.3625
3020.10694	19338.8625
3022.52376	19254.8625
3024.9391	19252.9625
3027.35298	19204.9625
3029.76539	19182.1625
3032.17632	19147.3625
3034.5858	19094.9625
3036.9938	19062.2625
3039.40034	19046.9625
3041.80542	19026.7625
3044.20903	18989.7625
3046.61118	18994.7625
3049.01187	18907.0625
3051.4111	18926.8625
3053.80888	18859.0625
3056.20519	18829.6625
3058.60005	18794.9625
3060.99345	18753.6625
3063.3854	18726.1625
3065.7759	18646.5625
3068.16494	18618.8625
3070.55254	18574.2625
3072.93868	18506.4625
3075.32338	18501.0625
3077.70662	18496.1625
3080.08842	18459.5625
3082.46878	18449.2625
3084.84769	18402.2625
3087.22515	18364.9625
3089.60118	18353.4625
3091.97576	18349.1625
3094.3489	18331.1625
3096.72061	18321.3625
3099.09087	18295.8625
3101.4597	18270.7625
3103.82709	18258.5625
3106.19305	18218.3625
3108.55757	18213.4625
3110.92066	18164.0625
3113.28232	18151.0625
3115.64255	18062.7625
3118.00134	18006.3625
3120.35871	17984.1625
3122.71466	17962.4625
3125.06917	17932.9625
3127.42226	17875.0625
3129.77393	17891.4625
3132.12417	17874.3625
3134.47299	17864.2625
3136.82039	17848.1625
3139.16636	17839.1625
3141.51092	17822.3625
3143.85406	17817.6625
3146.19579	17836.5625
3148.53609	17837.7625
3150.87499	17854.6625
3153.21246	17809.9625
3155.54853	17809.7625
3157.88318	17757.8625
3160.21642	17786.2625
3162.54826	17794.3625
3164.87868	17781.5625
3167.2077	17737.5625
3169.5353	17727.6625
3171.86151	17733.6625
3174.18631	17689.6625
3176.5097	17668.0625
3178.83169	17596.1625
3181.15228	17640.6625
3183.47147	17583.1625
3185.78926	17573.2625
3188.10565	17554.0625
3190.42065	17552.6625
3192.73424	17521.4625
3195.04645	17512.9625
3197.35725	17519.2625
3199.66667	17486.8625
3201.97469	17522.1625
3204.28132	17499.7625
3206.58656	17509.5625
3208.8904	17506.3625
3211.19287	17496.6625
3213.49394	17494.1625
3215.79363	17494.4625
3218.09193	17506.1625
3220.38884	17447.7625
3222.68438	17427.4625
3224.97853	17411.9625
3227.2713	17392.3625
3229.56269	17348.9625
3231.8527	17322.0625
3234.14133	17291.1625
3236.42858	17256.3625
3238.71446	17243.0625
3240.99896	17163.1625
3243.28209	17192.0625
3245.56384	17169.3625
3247.84423	17220.7625
3250.12324	17194.5625
3252.40088	17163.5625
3254.67715	17132.3625
3256.95205	17108.6625
3259.22558	17082.9625
3261.49775	17014.0625
3263.76855	17030.6625
3266.03799	16978.8625
3268.30606	16914.5625
3270.57277	16878.4625
3272.83812	16860.8625
3275.10211	16839.8625
3277.36474	16801.5625
3279.62601	16831.6625
3281.88593	16797.6625
3284.14448	16809.4625
3286.40168	16795.9625
3288.65753	16745.2625
3290.91202	16734.1625
3293.16516	16679.0625
3295.41695	16614.0625
3297.66738	16490.2625
3299.91647	16427.3625
3302.16421	16326.8625
3304.4106	16273.1625
3306.65564	16166.4625
3308.89933	16080.4625
3311.14169	16006.5625
3313.38269	15872.2625
3315.62236	15771.5625
3317.86068	15651.4625
3320.09766	15474.7625
3322.3333	15352.4625
3324.5676	15333.9625
3326.80056	15075.9625
3329.03219	15029.8625
3331.26248	3.4625
3333.49143	0.0625
3335.71905	-1.2375
