Data from AgNPs_FTO_APTES_UA_20uM_R6G_10uM_NaF_0.1M_Addition_RamanShift__22__14-21-07-377.txt Node

Date: Fri Dec 17 14:21:07 GMT 2021
User: TCL
Spectrometer: QEP01345
Trigger mode: 4
Integration Time (sec): 7.000000E0
Scans to average: 10
Electric dark correction enabled: true
Nonlinearity correction enabled: false
Boxcar width: 0
XAxis mode: Raman Shifts
Number of Pixels in Spectrum: 1044
>>>>>Begin Spectral Data<<<<<
46.04893	0.7625
50.45542	-1.4375
54.85868	-1.7375
59.25871	-0.4375
63.6555	76.3625
68.04907	77.3625
72.43941	78.8625
76.82654	85.0625
81.21044	83.6625
85.59113	90.5625
89.96862	95.9625
94.34289	94.1625
98.71396	98.0625
103.08183	99.9625
107.4465	104.9625
111.80798	102.9625
116.16626	112.8625
120.52136	111.0625
124.87327	120.8625
129.222	125.6625
133.56755	127.5625
137.90993	143.0625
142.24913	149.1625
146.58517	165.8625
150.91804	192.2625
155.24774	231.4625
159.57429	284.9625
163.89768	366.3625
168.21792	482.0625
172.53501	652.1625
176.84895	910.7625
181.15975	1268.5625
185.46741	1770.1625
189.77193	2432.0625
194.07331	3276.1625
198.37157	4231.1625
202.6667	5231.3625
206.9587	6214.4625
211.24758	7195.2625
215.53334	8139.6625
219.81599	9169.8625
224.09553	10314.9625
228.37195	11592.4625
232.64527	12971.2625
236.91549	14506.7625
241.18261	16002.1625
245.44663	17385.2625
249.70755	18648.6625
253.96539	19692.9625
258.22014	20587.6625
262.4718	21339.3625
266.72039	21922.3625
270.96589	22256.3625
275.20832	22269.9625
279.44768	22126.2625
283.68397	21889.9625
287.91719	21647.4625
292.14735	21502.9625
296.37445	21532.1625
300.59849	21680.5625
304.81948	21832.9625
309.03742	21866.2625
313.25231	21615.2625
317.46415	21091.8625
321.67296	20432.8625
325.87872	19910.3625
330.08145	19657.6625
334.28114	19706.8625
338.47781	19911.7625
342.67145	20205.6625
346.86207	20662.1625
351.04966	21122.5625
355.23424	21724.1625
359.4158	22275.4625
363.59435	22651.2625
367.76989	22870.3625
371.94243	23076.2625
376.11196	23224.4625
380.27849	23313.1625
384.44203	23429.4625
388.60257	23527.9625
392.76012	23630.7625
396.91468	23834.2625
401.06626	24170.5625
405.21485	24488.1625
409.36047	24390.5625
413.50311	23929.5625
417.64277	23571.3625
421.77947	23304.1625
425.9132	23289.7625
430.04396	23357.6625
434.17176	23493.5625
438.2966	23692.1625
442.41849	23993.5625
446.53742	24461.7625
450.6534	25010.8625
454.76644	25422.8625
458.87653	25640.4625
462.98368	25637.1625
467.08789	25423.3625
471.18916	25070.1625
475.2875	24743.5625
479.38291	24457.5625
483.4754	24206.9625
487.56496	23972.2625
491.6516	23755.9625
495.73531	23666.9625
499.81612	23600.6625
503.89401	23736.6625
507.96899	23896.6625
512.04106	24011.8625
516.11023	24111.5625
520.1765	24138.3625
524.23987	24092.3625
528.30034	23901.2625
532.35792	23688.4625
536.41261	23498.0625
540.46441	23265.8625
544.51333	23153.1625
548.55936	23280.2625
552.60252	23536.7625
556.64279	23842.5625
560.6802	23998.9625
564.71473	24034.7625
568.7464	24292.8625
572.7752	24601.8625
576.80114	24682.5625
580.82422	24728.8625
584.84444	24897.8625
588.86181	24997.4625
592.87633	25212.9625
596.888	25303.9625
600.89682	25750.9625
604.9028	27084.2625
608.90594	30260.4625
612.90624	33785.7625
616.90371	32425.9625
620.89834	27107.8625
624.89015	24674.2625
628.87913	24188.1625
632.86528	24242.0625
636.84862	24320.4625
640.82913	24087.2625
644.80683	23538.3625
648.78172	23094.6625
652.75379	22994.9625
656.72306	23296.3625
660.68952	23716.5625
664.65319	23731.4625
668.61405	23260.6625
672.57211	23192.3625
676.52738	23202.7625
680.47986	23190.3625
684.42955	23149.6625
688.37646	23051.3625
692.32058	23112.4625
696.26192	23255.0625
700.20048	23422.6625
704.13626	23453.5625
708.06928	23413.5625
711.99952	23236.2625
715.927	23164.4625
719.85171	23190.5625
723.77365	23175.2625
727.69284	23033.0625
731.60928	22879.5625
735.52295	22862.8625
739.43388	22899.8625
743.34206	23028.2625
747.24749	23122.4625
751.15017	23187.5625
755.05012	23436.3625
758.94733	23949.7625
762.8418	25030.1625
766.73354	26892.2625
770.62254	28963.8625
774.50882	29989.4625
778.39237	28987.4625
782.27321	26777.3625
786.15132	24861.5625
790.02671	23665.4625
793.89938	23166.1625
797.76935	22913.0625
801.6366	22838.3625
805.50115	22826.7625
809.36299	22732.6625
813.22213	22595.9625
817.07857	22533.3625
820.93231	22473.6625
824.78336	22457.2625
828.63172	22464.6625
832.47738	22507.9625
836.32036	22498.8625
840.16066	22504.8625
843.99827	22588.2625
847.8332	22574.7625
851.66546	22498.0625
855.49504	22439.7625
859.32195	22467.4625
863.1462	22434.1625
866.96777	22339.2625
870.78668	22359.4625
874.60293	22341.4625
878.41652	22332.6625
882.22745	22400.9625
886.03573	22467.3625
889.84136	22489.4625
893.64433	22429.4625
897.44466	22281.6625
901.24235	22183.7625
905.0374	22081.5625
908.8298	22063.1625
912.61957	22056.2625
916.40671	22164.0625
920.19121	22334.0625
923.97308	22531.1625
927.75233	22681.4625
931.52895	22658.4625
935.30295	22514.8625
939.07433	22201.5625
942.84309	21930.5625
946.60924	21831.7625
950.37278	21758.8625
954.13371	21610.7625
957.89203	21479.0625
961.64774	21397.2625
965.40086	21317.7625
969.15137	21260.7625
972.89929	21191.3625
976.64461	21175.9625
980.38733	21181.8625
984.12747	21315.1625
987.86502	21439.7625
991.59999	21646.8625
995.33237	22008.5625
999.06217	22553.8625
1002.78939	23178.1625
1006.51404	23582.2625
1010.23611	23867.4625
1013.95561	24112.3625
1017.67255	24106.7625
1021.38692	23949.5625
1025.09872	23841.2625
1028.80796	24001.5625
1032.51465	24513.1625
1036.21877	25027.8625
1039.92035	25092.3625
1043.61937	24782.4625
1047.31584	24230.6625
1051.00976	23623.4625
1054.70114	23290.3625
1058.38998	23207.1625
1062.07627	23222.5625
1065.76003	23326.2625
1069.44126	23439.2625
1073.11995	23668.5625
1076.79611	23840.1625
1080.46974	23979.4625
1084.14085	24101.4625
1087.80943	24300.2625
1091.47549	24352.5625
1095.13903	24214.5625
1098.80005	23846.4625
1102.45857	23524.1625
1106.11456	23277.5625
1109.76805	23312.9625
1113.41903	23512.4625
1117.06751	23762.2625
1120.71348	24038.8625
1124.35696	24381.6625
1127.99793	24707.8625
1131.63641	24887.2625
1135.2724	24702.3625
1138.90589	24326.9625
1142.5369	24041.5625
1146.16542	23806.9625
1149.79145	23599.4625
1153.415	23604.0625
1157.03607	23766.6625
1160.65467	24092.2625
1164.27079	24697.3625
1167.88443	25586.9625
1171.49561	26814.3625
1175.10432	28581.2625
1178.71056	30871.3625
1182.31434	33154.0625
1185.91565	34397.2625
1189.51451	34385.6625
1193.11091	33395.3625
1196.70485	31743.6625
1200.29634	30338.7625
1203.88538	29192.2625
1207.47197	28187.5625
1211.05612	27336.2625
1214.63782	26862.7625
1218.21708	26693.6625
1221.79391	26732.4625
1225.36829	26828.6625
1228.94024	26742.6625
1232.50976	26605.1625
1236.07685	26463.2625
1239.6415	26404.1625
1243.20374	26426.5625
1246.76355	26539.3625
1250.32093	26812.8625
1253.8759	27309.4625
1257.42845	28015.9625
1260.97859	28596.1625
1264.52631	29146.0625
1268.07163	29755.2625
1271.61453	30447.0625
1275.15503	31251.0625
1278.69312	31911.8625
1282.22882	32484.3625
1285.76211	32854.7625
1289.29301	33286.0625
1292.82151	33889.7625
1296.34761	34694.5625
1299.87133	35974.8625
1303.39266	37774.0625
1306.9116	40061.6625
1310.42815	42434.0625
1313.94233	43924.1625
1317.45412	43811.3625
1320.96354	42652.6625
1324.47058	41270.4625
1327.97525	39991.9625
1331.47754	39092.5625
1334.97747	38799.3625
1338.47502	39041.0625
1341.97022	39531.5625
1345.46305	39729.2625
1348.95352	39879.6625
1352.44163	40327.9625
1355.92738	41572.5625
1359.41078	43902.1625
1362.89183	46262.3625
1366.37053	45599.2625
1369.84688	41479.1625
1373.32088	36889.2625
1376.79254	33695.2625
1380.26186	32140.0625
1383.72883	31451.5625
1387.19347	30928.1625
1390.65578	30443.6625
1394.11575	30103.0625
1397.57339	30120.2625
1401.0287	30414.4625
1404.48168	30826.4625
1407.93234	31300.7625
1411.38068	31601.0625
1414.82669	31504.4625
1418.27039	30992.8625
1421.71177	30250.5625
1425.15083	29561.0625
1428.58758	29111.7625
1432.02203	28978.3625
1435.45416	29200.1625
1438.88399	29462.1625
1442.31151	29800.2625
1445.73673	30020.6625
1449.15965	30284.9625
1452.58027	30381.3625
1455.9986	30446.3625
1459.41463	30585.2625
1462.82837	30952.3625
1466.23982	31497.5625
1469.64898	32042.7625
1473.05586	32510.7625
1476.46045	32672.7625
1479.86276	32797.6625
1483.26279	32879.7625
1486.66054	33073.0625
1490.05602	33388.7625
1493.44922	33860.1625
1496.84016	34475.0625
1500.22882	35427.9625
1503.61521	36859.0625
1506.99934	38674.7625
1510.38121	40432.3625
1513.76081	40926.8625
1517.13816	39684.8625
1520.51324	37377.2625
1523.88607	35074.1625
1527.25665	33470.6625
1530.62498	32578.8625
1533.99105	32082.3625
1537.35488	31719.9625
1540.71647	31498.3625
1544.07581	31288.2625
1547.4329	31122.4625
1550.78776	31005.2625
1554.14038	30907.6625
1557.49077	30946.2625
1560.83892	31087.6625
1564.18484	31151.5625
1567.52853	31211.8625
1570.86999	31309.7625
1574.20922	31444.8625
1577.54624	31555.7625
1580.88103	31283.5625
1584.2136	30839.3625
1587.54395	30916.0625
1590.87208	31726.4625
1594.19801	33201.1625
1597.52172	34932.9625
1600.84321	35763.9625
1604.16251	34966.5625
1607.47959	33124.3625
1610.79447	31078.6625
1614.10715	29072.4625
1617.41763	27467.0625
1620.7259	26263.6625
1624.03199	25643.8625
1627.33587	25650.1625
1630.63757	26103.1625
1633.93707	27096.1625
1637.23439	28656.2625
1640.52951	30557.5625
1643.82246	32721.5625
1647.11321	34548.8625
1650.40179	35216.6625
1653.68819	33898.3625
1656.97241	30817.2625
1660.25446	27550.8625
1663.53433	25055.3625
1666.81203	23486.8625
1670.08756	22531.0625
1673.36092	21867.1625
1676.63211	21425.3625
1679.90115	21092.9625
1683.16801	20813.7625
1686.43272	20664.2625
1689.69527	20511.6625
1692.95567	20413.9625
1696.2139	20341.8625
1699.46999	20296.2625
1702.72392	20228.1625
1705.97571	20162.8625
1709.22535	20119.6625
1712.47284	20119.5625
1715.71819	20090.6625
1718.96139	20058.9625
1722.20246	19973.1625
1725.44139	19931.6625
1728.67818	19839.7625
1731.91284	19741.3625
1735.14537	19610.0625
1738.37576	19583.0625
1741.60403	19511.4625
1744.83017	19470.2625
1748.05418	19438.1625
1751.27607	19415.5625
1754.49584	19381.4625
1757.71349	19364.1625
1760.92903	19361.1625
1764.14244	19361.0625
1767.35375	19380.1625
1770.56294	19329.5625
1773.77002	19307.0625
1776.97499	19262.7625
1780.17785	19246.9625
1783.37861	19211.6625
1786.57727	19246.6625
1789.77382	19159.4625
1792.96828	19134.3625
1796.16064	19100.9625
1799.3509	19083.9625
1802.53907	19071.3625
1805.72514	19025.9625
1808.90913	18997.5625
1812.09102	18980.2625
1815.27083	18935.7625
1818.44856	18910.2625
1821.6242	18889.1625
1824.79776	18857.7625
1827.96924	18858.2625
1831.13864	18861.4625
1834.30597	18864.8625
1837.47122	18856.2625
1840.6344	18873.2625
1843.7955	18869.2625
1846.95454	18873.2625
1850.11151	18835.0625
1853.26642	18816.1625
1856.41926	18814.9625
1859.57004	18851.4625
1862.71876	18829.9625
1865.86542	18799.6625
1869.01003	18841.0625
1872.15258	18791.3625
1875.29308	18792.4625
1878.43152	18792.9625
1881.56792	18770.4625
1884.70227	18787.2625
1887.83457	18817.0625
1890.96482	18837.2625
1894.09304	18770.1625
1897.21921	18776.4625
1900.34335	18778.0625
1903.46544	18742.1625
1906.58551	18755.8625
1909.70353	18689.1625
1912.81953	18700.9625
1915.93349	18664.7625
1919.04543	18674.7625
1922.15534	18630.4625
1925.26322	18590.2625
1928.36908	18558.0625
1931.47292	18510.7625
1934.57473	18440.5625
1937.67453	18389.3625
1940.77232	18346.8625
1943.86808	18266.5625
1946.96184	18247.3625
1950.05358	18163.0625
1953.14331	18129.3625
1956.23103	18077.2625
1959.31675	18012.0625
1962.40046	17984.3625
1965.48217	17934.5625
1968.56188	17899.3625
1971.63959	17834.6625
1974.7153	17781.7625
1977.78901	17736.7625
1980.86073	17692.0625
1983.93046	17601.4625
1986.99819	17574.4625
1990.06394	17531.7625
1993.1277	17451.2625
1996.18947	17418.1625
1999.24925	17378.0625
2002.30706	17306.8625
2005.36288	17282.0625
2008.41672	17270.4625
2011.46859	17224.8625
2014.51848	17178.5625
2017.56639	17106.6625
2020.61233	17067.4625
2023.6563	17034.6625
2026.6983	17021.6625
2029.73833	16987.9625
2032.7764	16964.6625
2035.8125	16912.2625
2038.84664	16888.4625
2041.87881	16908.6625
2044.90903	16885.9625
2047.93729	16823.8625
2050.96359	16789.7625
2053.98794	16790.9625
2057.01034	16764.7625
2060.03078	16764.5625
2063.04927	16742.3625
2066.06582	16745.8625
2069.08042	16733.3625
2072.09307	16721.3625
2075.10378	16676.3625
2078.11255	16679.3625
2081.11938	16690.5625
2084.12426	16653.7625
2087.12722	16661.6625
2090.12824	16644.2625
2093.12732	16633.6625
2096.12447	16680.1625
2099.11969	16648.8625
2102.11299	16648.8625
2105.10435	16639.8625
2108.09379	16696.4625
2111.08131	16694.2625
2114.0669	16696.2625
2117.05057	16722.2625
2120.03233	16730.2625
2123.01216	16748.0625
2125.99008	16760.0625
2128.96609	16762.9625
2131.94018	16764.7625
2134.91236	16769.5625
2137.88263	16813.3625
2140.851	16817.0625
2143.81746	16853.0625
2146.78201	16874.7625
2149.74466	16847.5625
2152.7054	16869.1625
2155.66425	16836.3625
2158.6212	16855.4625
2161.57625	16854.5625
2164.52941	16865.6625
2167.48067	16830.8625
2170.43004	16847.8625
2173.37752	16842.3625
2176.32311	16849.6625
2179.26681	16819.0625
2182.20863	16806.9625
2185.14856	16868.8625
2188.08661	16851.0625
2191.02278	16837.1625
2193.95707	16879.1625
2196.88948	16875.8625
2199.82001	16855.6625
2202.74867	16841.2625
2205.67545	16825.6625
2208.60037	16801.1625
2211.52341	16803.1625
2214.44458	16811.5625
2217.36388	16777.1625
2220.28132	16782.6625
2223.1969	16689.7625
2226.11061	16703.4625
2229.02246	16683.4625
2231.93245	16639.1625
2234.84058	16616.9625
2237.74686	16588.8625
2240.65128	16553.4625
2243.55385	16525.3625
2246.45456	16529.5625
2249.35343	16492.0625
2252.25044	16454.4625
2255.14561	16446.2625
2258.03893	16467.8625
2260.93041	16403.5625
2263.82004	16387.3625
2266.70783	16361.5625
2269.59378	16297.3625
2272.4779	16293.0625
2275.36017	16227.5625
2278.24061	16210.4625
2281.11922	16160.7625
2283.996	16163.1625
2286.87094	16158.5625
2289.74405	16151.7625
2292.61534	16129.6625
2295.4848	16107.9625
2298.35243	16110.5625
2301.21824	16126.0625
2304.08223	16138.2625
2306.94439	16131.4625
2309.80474	16125.7625
2312.66327	16141.2625
2315.51999	16130.9625
2318.37489	16139.8625
2321.22797	16122.9625
2324.07925	16105.8625
2326.92871	16075.4625
2329.77637	16089.9625
2332.62222	16036.6625
2335.46626	16039.5625
2338.3085	16026.8625
2341.14893	16029.0625
2343.98756	16054.7625
2346.8244	16048.5625
2349.65943	16053.5625
2352.49267	16032.1625
2355.32411	16024.4625
2358.15376	16031.9625
2360.98161	16040.2625
2363.80768	15993.0625
2366.63195	15975.3625
2369.45444	15981.5625
2372.27514	15966.9625
2375.09405	15930.9625
2377.91118	15883.8625
2380.72652	15803.4625
2383.54009	15793.1625
2386.35187	15769.3625
2389.16188	15763.0625
2391.97011	15718.0625
2394.77657	15700.2625
2397.58125	15714.2625
2400.38416	15643.2625
2403.18529	15613.9625
2405.98466	15597.7625
2408.78226	15574.5625
2411.57809	15551.5625
2414.37216	15521.0625
2417.16446	15530.9625
2419.955	15467.2625
2422.74378	15459.2625
2425.5308	15446.4625
2428.31606	15429.2625
2431.09956	15440.3625
2433.88131	15415.3625
2436.6613	15420.8625
2439.43954	15422.3625
2442.21603	15381.7625
2444.99077	15388.8625
2447.76377	15377.1625
2450.53501	15371.2625
2453.30451	15374.1625
2456.07226	15368.0625
2458.83827	15382.8625
2461.60254	15336.8625
2464.36507	15342.9625
2467.12586	15348.4625
2469.88492	15343.2625
2472.64224	15354.1625
2475.39782	15359.4625
2478.15167	15351.5625
2480.90379	15349.8625
2483.65417	15375.1625
2486.40283	15359.8625
2489.14976	15367.7625
2491.89497	15345.1625
2494.63845	15380.3625
2497.3802	15347.9625
2500.12024	15355.1625
2502.85855	15356.0625
2505.59514	15330.0625
2508.33002	15319.5625
2511.06318	15305.9625
2513.79462	15301.1625
2516.52435	15260.3625
2519.25237	15262.7625
2521.97867	15222.3625
2524.70327	15220.5625
2527.42616	15201.1625
2530.14734	15200.7625
2532.86681	15177.9625
2535.58458	15146.1625
2538.30065	15163.3625
2541.01501	15173.5625
2543.72768	15109.4625
2546.43864	15121.9625
2549.14791	15103.0625
2551.85548	15070.0625
2554.56136	15072.4625
2557.26554	15027.7625
2559.96803	15050.0625
2562.66883	15078.1625
2565.36794	15030.0625
2568.06536	15009.7625
2570.7611	15005.1625
2573.45514	14984.4625
2576.14751	14978.5625
2578.83819	14953.7625
2581.52719	14957.0625
2584.21451	14959.9625
2586.90015	14922.4625
2589.58411	14899.2625
2592.2664	14930.3625
2594.94701	14879.7625
2597.62594	14909.8625
2600.30321	14877.8625
2602.9788	14843.4625
2605.65273	14867.4625
2608.32498	14820.3625
2610.99557	14830.2625
2613.66449	14845.6625
2616.33175	14806.1625
2618.99734	14814.0625
2621.66128	14810.3625
2624.32355	14805.8625
2626.98416	14792.4625
2629.64311	14820.6625
2632.30041	14830.1625
2634.95605	14788.7625
2637.61004	14786.2625
2640.26238	14762.0625
2642.91306	14775.7625
2645.56209	14739.0625
2648.20948	14719.7625
2650.85521	14719.3625
2653.4993	14710.1625
2656.14175	14669.7625
2658.78255	14697.5625
2661.42171	14701.9625
2664.05923	14728.0625
2666.6951	14713.1625
2669.32934	14724.7625
2671.96194	14706.1625
2674.59291	14743.1625
2677.22224	14730.9625
2679.84993	14715.7625
2682.476	14719.5625
2685.10043	14718.5625
2687.72324	14685.2625
2690.34441	14734.4625
2692.96396	14700.9625
2695.58188	14706.6625
2698.19818	14688.8625
2700.81285	14692.1625
2703.4259	14698.6625
2706.03733	14756.5625
2708.64714	14724.2625
2711.25533	14735.8625
2713.86191	14728.1625
2716.46687	14723.5625
2719.07021	14733.9625
2721.67194	14722.3625
2724.27206	14700.6625
2726.87057	14709.2625
2729.46747	14741.0625
2732.06276	14725.5625
2734.65644	14730.5625
2737.24852	14709.3625
2739.83899	14706.0625
2742.42786	14715.9625
2745.01513	14699.2625
2747.60079	14677.6625
2750.18486	14660.5625
2752.76733	14692.9625
2755.3482	14684.5625
2757.92747	14653.4625
2760.50515	14653.5625
2763.08123	14632.4625
2765.65573	14611.5625
2768.22863	14610.4625
2770.79994	14611.1625
2773.36967	14593.7625
2775.9378	14567.3625
2778.50435	14544.5625
2781.06932	14569.1625
2783.6327	14563.3625
2786.1945	14552.5625
2788.75471	14539.5625
2791.31335	14462.2625
2793.87041	14487.5625
2796.42589	14414.5625
2798.97979	14430.9625
2801.53212	14390.9625
2804.08288	14391.4625
2806.63206	14346.7625
2809.17967	14358.5625
2811.72571	14315.8625
2814.27018	14345.7625
2816.81308	14307.6625
2819.35442	14316.0625
2821.89419	14256.1625
2824.43239	14254.1625
2826.96904	14246.0625
2829.50412	14250.9625
2832.03763	14241.2625
2834.56959	14248.1625
2837.1	14214.9625
2839.62884	14186.2625
2842.15613	14174.2625
2844.68186	14203.0625
2847.20604	14194.5625
2849.72867	14205.8625
2852.24974	14168.6625
2854.76927	14157.9625
2857.28724	14125.0625
2859.80367	14099.9625
2862.31855	14084.8625
2864.83189	14088.6625
2867.34368	14074.8625
2869.85393	14075.6625
2872.36264	14088.5625
2874.8698	14095.5625
2877.37543	14097.1625
2879.87952	14071.1625
2882.38207	14118.1625
2884.88308	14087.9625
2887.38256	14086.7625
2889.88051	14088.4625
2892.37692	14102.2625
2894.8718	14091.6625
2897.36515	14124.0625
2899.85698	14107.0625
2902.34727	14147.6625
2904.83604	14137.1625
2907.32328	14138.1625
2909.809	14118.9625
2912.29319	14157.2625
2914.77587	14157.8625
2917.25702	14163.0625
2919.73665	14141.9625
2922.21476	14126.3625
2924.69136	14128.5625
2927.16644	14121.4625
2929.64	14113.1625
2932.11205	14085.7625
2934.58258	14028.8625
2937.05161	14063.0625
2939.51912	14045.7625
2941.98513	14023.6625
2944.44962	14022.3625
2946.91261	13971.6625
2949.37409	14008.4625
2951.83407	14017.1625
2954.29254	13967.8625
2956.74951	13996.0625
2959.20498	13987.7625
2961.65895	13932.3625
2964.11142	13931.1625
2966.56239	13912.9625
2969.01186	13901.3625
2971.45984	13895.7625
2973.90632	13874.8625
2976.35131	13846.2625
2978.7948	13802.6625
2981.23681	13771.1625
2983.67732	13755.8625
2986.11635	13725.5625
2988.55388	13693.2625
2990.98993	13667.3625
2993.4245	13641.7625
2995.85758	13628.7625
2998.28917	13598.1625
3000.71928	13589.9625
3003.14791	13562.9625
3005.57506	13552.0625
3008.00073	13532.4625
3010.42493	13507.1625
3012.84764	13487.2625
3015.26888	13498.6625
3017.68865	13434.7625
3020.10694	13451.7625
3022.52376	13427.4625
3024.9391	13416.0625
3027.35298	13378.2625
3029.76539	13367.7625
3032.17632	13340.2625
3034.5858	13313.6625
3036.9938	13323.2625
3039.40034	13301.8625
3041.80542	13287.8625
3044.20903	13248.8625
3046.61118	13260.8625
3049.01187	13235.4625
3051.4111	13229.6625
3053.80888	13164.5625
3056.20519	13173.0625
3058.60005	13140.2625
3060.99345	13138.7625
3063.3854	13147.6625
3065.7759	13072.0625
3068.16494	13058.3625
3070.55254	13017.9625
3072.93868	12981.1625
3075.32338	12977.4625
3077.70662	12967.1625
3080.08842	12920.2625
3082.46878	12890.3625
3084.84769	12889.5625
3087.22515	12908.0625
3089.60118	12889.4625
3091.97576	12864.1625
3094.3489	12886.8625
3096.72061	12855.6625
3099.09087	12868.4625
3101.4597	12837.2625
3103.82709	12840.3625
3106.19305	12848.4625
3108.55757	12821.0625
3110.92066	12779.9625
3113.28232	12782.1625
3115.64255	12752.4625
3118.00134	12727.2625
3120.35871	12704.3625
3122.71466	12668.5625
3125.06917	12675.9625
3127.42226	12691.0625
3129.77393	12670.6625
3132.12417	12633.6625
3134.47299	12665.1625
3136.82039	12671.0625
3139.16636	12667.0625
3141.51092	12645.1625
3143.85406	12644.4625
3146.19579	12654.9625
3148.53609	12655.9625
3150.87499	12655.3625
3153.21246	12654.9625
3155.54853	12650.2625
3157.88318	12663.3625
3160.21642	12684.1625
3162.54826	12668.1625
3164.87868	12656.2625
3167.2077	12607.6625
3169.5353	12657.4625
3171.86151	12635.8625
3174.18631	12640.8625
3176.5097	12625.4625
3178.83169	12563.7625
3181.15228	12606.4625
3183.47147	12580.9625
3185.78926	12600.0625
3188.10565	12567.6625
3190.42065	12553.5625
3192.73424	12581.9625
3195.04645	12572.0625
3197.35725	12575.3625
3199.66667	12552.8625
3201.97469	12589.5625
3204.28132	12573.7625
3206.58656	12587.8625
3208.8904	12579.1625
3211.19287	12595.1625
3213.49394	12600.1625
3215.79363	12627.1625
3218.09193	12595.1625
3220.38884	12602.8625
3222.68438	12586.3625
3224.97853	12572.4625
3227.2713	12552.2625
3229.56269	12547.1625
3231.8527	12575.3625
3234.14133	12510.3625
3236.42858	12487.1625
3238.71446	12489.1625
3240.99896	12463.9625
3243.28209	12462.2625
3245.56384	12454.6625
3247.84423	12457.0625
3250.12324	12441.8625
3252.40088	12438.3625
3254.67715	12429.6625
3256.95205	12409.1625
3259.22558	12413.5625
3261.49775	12387.0625
3263.76855	12367.5625
3266.03799	12380.1625
3268.30606	12357.9625
3270.57277	12323.5625
3272.83812	12325.4625
3275.10211	12295.2625
3277.36474	12253.1625
3279.62601	12289.8625
3281.88593	12270.2625
3284.14448	12302.4625
3286.40168	12256.9625
3288.65753	12226.1625
3290.91202	12197.0625
3293.16516	12173.6625
3295.41695	12144.2625
3297.66738	12104.3625
3299.91647	12032.1625
3302.16421	12000.8625
3304.4106	11936.6625
3306.65564	11881.7625
3308.89933	11823.2625
3311.14169	11758.1625
3313.38269	11667.4625
3315.62236	11611.0625
3317.86068	11491.7625
3320.09766	11395.3625
3322.3333	11306.8625
3324.5676	11300.3625
3326.80056	11133.9625
3329.03219	11086.2625
3331.26248	3.4625
3333.49143	0.9625
3335.71905	-0.0375
