Data from AgNPs_FTO_APTES_UA_20uM_R6G_10uM_NaF_0.1M_Addition_RamanShift__7__14-03-37-357.txt Node

Date: Fri Dec 17 14:03:37 GMT 2021
User: TCL
Spectrometer: QEP01345
Trigger mode: 4
Integration Time (sec): 7.000000E0
Scans to average: 10
Electric dark correction enabled: true
Nonlinearity correction enabled: false
Boxcar width: 0
XAxis mode: Raman Shifts
Number of Pixels in Spectrum: 1044
>>>>>Begin Spectral Data<<<<<
46.04893	-0.1375
50.45542	-1.3375
54.85868	-0.3375
59.25871	-0.2375
63.6555	75.9625
68.04907	76.4625
72.43941	79.3625
76.82654	86.7625
81.21044	87.2625
85.59113	90.3625
89.96862	96.4625
94.34289	97.4625
98.71396	99.8625
103.08183	100.1625
107.4465	107.5625
111.80798	109.7625
116.16626	112.7625
120.52136	110.3625
124.87327	119.2625
129.222	125.1625
133.56755	136.8625
137.90993	147.8625
142.24913	159.8625
146.58517	175.8625
150.91804	207.6625
155.24774	244.1625
159.57429	302.9625
163.89768	392.8625
168.21792	512.6625
172.53501	696.8625
176.84895	966.4625
181.15975	1352.2625
185.46741	1906.3625
189.77193	2645.4625
194.07331	3546.5625
198.37157	4559.3625
202.6667	5668.4625
206.9587	6755.7625
211.24758	7803.9625
215.53334	8866.1625
219.81599	9939.3625
224.09553	11143.0625
228.37195	12483.6625
232.64527	13974.3625
236.91549	15538.3625
241.18261	17173.5625
245.44663	18692.6625
249.70755	20071.8625
253.96539	21324.7625
258.22014	22272.3625
262.4718	23102.8625
266.72039	23621.1625
270.96589	23916.9625
275.20832	23925.6625
279.44768	23741.9625
283.68397	23485.5625
287.91719	23198.9625
292.14735	23000.9625
296.37445	22933.2625
300.59849	22905.2625
304.81948	22966.8625
309.03742	23018.0625
313.25231	22975.1625
317.46415	22676.3625
321.67296	22299.2625
325.87872	21961.0625
330.08145	21831.7625
334.28114	21867.0625
338.47781	22036.6625
342.67145	22321.5625
346.86207	22670.5625
351.04966	23055.8625
355.23424	23481.4625
359.4158	23922.3625
363.59435	24217.2625
367.76989	24435.8625
371.94243	24619.4625
376.11196	24756.7625
380.27849	24822.0625
384.44203	24991.6625
388.60257	25161.3625
392.76012	25354.3625
396.91468	25590.5625
401.06626	25913.8625
405.21485	26132.2625
409.36047	26134.1625
413.50311	25884.4625
417.64277	25680.3625
421.77947	25628.1625
425.9132	25689.0625
430.04396	25782.1625
434.17176	25905.0625
438.2966	26007.6625
442.41849	26233.2625
446.53742	26550.4625
450.6534	27022.3625
454.76644	27312.7625
458.87653	27501.2625
462.98368	27543.7625
467.08789	27421.9625
471.18916	27249.6625
475.2875	26950.9625
479.38291	26660.0625
483.4754	26481.9625
487.56496	26320.3625
491.6516	26155.4625
495.73531	26165.3625
499.81612	26182.8625
503.89401	26348.2625
507.96899	26497.4625
512.04106	26549.9625
516.11023	26556.2625
520.1765	26503.8625
524.23987	26404.7625
528.30034	26292.2625
532.35792	26176.9625
536.41261	26023.3625
540.46441	25837.5625
544.51333	25780.0625
548.55936	25898.2625
552.60252	26193.7625
556.64279	26471.4625
560.6802	26718.8625
564.71473	26755.5625
568.7464	26943.2625
572.7752	27131.9625
576.80114	27439.1625
580.82422	27870.6625
584.84444	28359.0625
588.86181	28833.0625
592.87633	29082.5625
596.888	29005.5625
600.89682	28845.0625
604.9028	29446.2625
608.90594	31434.9625
612.90624	33583.8625
616.90371	32367.7625
620.89834	28663.9625
624.89015	26944.3625
628.87913	26671.2625
632.86528	26809.8625
636.84862	26940.0625
640.82913	26773.3625
644.80683	26387.0625
648.78172	26104.2625
652.75379	26079.1625
656.72306	26290.8625
660.68952	26652.9625
664.65319	26571.2625
668.61405	26311.8625
672.57211	26287.3625
676.52738	26393.8625
680.47986	26366.7625
684.42955	26234.5625
688.37646	26198.4625
692.32058	26307.8625
696.26192	26499.0625
700.20048	26766.4625
704.13626	26877.9625
708.06928	26827.2625
711.99952	26699.8625
715.927	26685.0625
719.85171	26684.2625
723.77365	26653.9625
727.69284	26431.8625
731.60928	26214.3625
735.52295	26105.0625
739.43388	26064.1625
743.34206	26144.5625
747.24749	26227.5625
751.15017	26316.8625
755.05012	26521.9625
758.94733	26953.6625
762.8418	27788.6625
766.73354	29090.7625
770.62254	30463.8625
774.50882	30995.4625
778.39237	30314.6625
782.27321	29017.7625
786.15132	27734.3625
790.02671	26967.1625
793.89938	26524.6625
797.76935	26347.3625
801.6366	26262.5625
805.50115	26198.0625
809.36299	26089.7625
813.22213	25962.0625
817.07857	25901.5625
820.93231	25850.4625
824.78336	25816.9625
828.63172	25786.1625
832.47738	25751.9625
836.32036	25750.8625
840.16066	25701.3625
843.99827	25742.0625
847.8332	25781.1625
851.66546	25753.6625
855.49504	25798.4625
859.32195	25829.3625
863.1462	25826.5625
866.96777	25789.1625
870.78668	25844.1625
874.60293	25877.9625
878.41652	25869.1625
882.22745	25986.4625
886.03573	26063.7625
889.84136	26078.6625
893.64433	26000.3625
897.44466	25917.2625
901.24235	25819.2625
905.0374	25828.1625
908.8298	25730.7625
912.61957	25719.1625
916.40671	25773.1625
920.19121	25866.9625
923.97308	25994.7625
927.75233	26044.1625
931.52895	25986.6625
935.30295	25830.0625
939.07433	25620.6625
942.84309	25426.2625
946.60924	25358.9625
950.37278	25281.8625
954.13371	25253.9625
957.89203	25183.9625
961.64774	25208.1625
965.40086	25134.4625
969.15137	25102.7625
972.89929	25111.9625
976.64461	25112.5625
980.38733	25120.4625
984.12747	25161.4625
987.86502	25232.6625
991.59999	25371.7625
995.33237	25522.6625
999.06217	25695.6625
1002.78939	26027.5625
1006.51404	26279.9625
1010.23611	26588.6625
1013.95561	26790.1625
1017.67255	26788.4625
1021.38692	26706.7625
1025.09872	26478.6625
1028.80796	26264.8625
1032.51465	26235.5625
1036.21877	26284.0625
1039.92035	26315.1625
1043.61937	26368.7625
1047.31584	26375.3625
1051.00976	26379.9625
1054.70114	26417.3625
1058.38998	26505.1625
1062.07627	26669.8625
1065.76003	26946.5625
1069.44126	27204.7625
1073.11995	27550.1625
1076.79611	27873.1625
1080.46974	28108.6625
1084.14085	28154.6625
1087.80943	28229.9625
1091.47549	28273.8625
1095.13903	28218.1625
1098.80005	28003.9625
1102.45857	27665.0625
1106.11456	27377.6625
1109.76805	27148.0625
1113.41903	27079.8625
1117.06751	27138.8625
1120.71348	27255.9625
1124.35696	27494.8625
1127.99793	27741.7625
1131.63641	27834.1625
1135.2724	27710.0625
1138.90589	27532.9625
1142.5369	27431.1625
1146.16542	27392.3625
1149.79145	27342.1625
1153.415	27338.7625
1157.03607	27373.8625
1160.65467	27599.8625
1164.27079	28177.1625
1167.88443	28902.3625
1171.49561	29834.3625
1175.10432	31010.9625
1178.71056	32583.4625
1182.31434	34130.1625
1185.91565	35081.5625
1189.51451	35448.4625
1193.11091	35228.5625
1196.70485	34424.3625
1200.29634	33515.2625
1203.88538	32617.3625
1207.47197	31895.4625
1211.05612	31262.9625
1214.63782	30711.4625
1218.21708	30210.1625
1221.79391	29766.7625
1225.36829	29504.8625
1228.94024	29389.1625
1232.50976	29328.3625
1236.07685	29246.4625
1239.6415	29204.2625
1243.20374	29289.4625
1246.76355	29354.8625
1250.32093	29625.2625
1253.8759	29984.8625
1257.42845	30465.6625
1260.97859	31074.2625
1264.52631	31649.3625
1268.07163	32170.6625
1271.61453	32721.1625
1275.15503	33111.8625
1278.69312	33480.2625
1282.22882	33800.4625
1285.76211	34079.1625
1289.29301	34471.0625
1292.82151	35117.0625
1296.34761	35829.0625
1299.87133	36802.8625
1303.39266	37985.3625
1306.9116	39394.0625
1310.42815	40688.0625
1313.94233	41451.9625
1317.45412	41282.7625
1320.96354	40729.7625
1324.47058	40183.4625
1327.97525	39704.7625
1331.47754	39461.8625
1334.97747	39451.4625
1338.47502	39644.2625
1341.97022	39943.6625
1345.46305	40344.4625
1348.95352	40800.5625
1352.44163	41217.3625
1355.92738	41787.4625
1359.41078	42730.2625
1362.89183	43581.8625
1366.37053	42855.1625
1369.84688	40165.0625
1373.32088	36965.3625
1376.79254	34659.6625
1380.26186	33418.9625
1383.72883	32984.7625
1387.19347	32654.5625
1390.65578	32189.9625
1394.11575	31769.4625
1397.57339	31612.3625
1401.0287	31647.8625
1404.48168	31775.6625
1407.93234	31886.6625
1411.38068	31848.2625
1414.82669	31616.5625
1418.27039	31169.8625
1421.71177	30669.0625
1425.15083	30255.2625
1428.58758	30051.3625
1432.02203	30220.4625
1435.45416	30576.9625
1438.88399	30972.3625
1442.31151	31209.8625
1445.73673	31275.0625
1449.15965	31353.4625
1452.58027	31324.2625
1455.9986	31302.3625
1459.41463	31420.0625
1462.82837	31837.8625
1466.23982	32241.5625
1469.64898	32675.0625
1473.05586	32965.0625
1476.46045	33109.7625
1479.86276	33106.0625
1483.26279	33168.6625
1486.66054	33294.8625
1490.05602	33527.2625
1493.44922	33998.0625
1496.84016	34647.1625
1500.22882	35598.0625
1503.61521	36947.6625
1506.99934	38377.6625
1510.38121	39403.3625
1513.76081	39421.7625
1517.13816	38262.4625
1520.51324	36714.8625
1523.88607	35227.0625
1527.25665	34354.2625
1530.62498	33909.5625
1533.99105	33659.6625
1537.35488	33371.4625
1540.71647	33041.7625
1544.07581	32646.9625
1547.4329	32332.4625
1550.78776	32055.7625
1554.14038	31770.3625
1557.49077	31587.9625
1560.83892	31569.9625
1564.18484	31591.3625
1567.52853	31749.6625
1570.86999	31983.9625
1574.20922	32300.3625
1577.54624	32457.5625
1580.88103	32320.3625
1584.2136	31981.0625
1587.54395	31951.3625
1590.87208	32439.6625
1594.19801	33426.9625
1597.52172	34572.8625
1600.84321	35095.0625
1604.16251	34644.9625
1607.47959	33535.5625
1610.79447	32172.3625
1614.10715	30630.9625
1617.41763	29179.6625
1620.7259	28095.8625
1624.03199	27481.1625
1627.33587	27295.1625
1630.63757	27571.6625
1633.93707	28328.2625
1637.23439	29685.0625
1640.52951	31715.2625
1643.82246	34081.8625
1647.11321	36100.5625
1650.40179	36698.2625
1653.68819	35203.6625
1656.97241	32379.4625
1660.25446	29444.3625
1663.53433	27327.8625
1666.81203	25981.3625
1670.08756	25114.5625
1673.36092	24550.5625
1676.63211	24196.7625
1679.90115	23916.4625
1683.16801	23687.7625
1686.43272	23577.7625
1689.69527	23407.2625
1692.95567	23311.8625
1696.2139	23263.3625
1699.46999	23204.7625
1702.72392	23140.0625
1705.97571	23103.7625
1709.22535	23053.2625
1712.47284	23041.5625
1715.71819	23059.5625
1718.96139	23031.6625
1722.20246	22945.7625
1725.44139	22861.9625
1728.67818	22761.8625
1731.91284	22715.2625
1735.14537	22617.8625
1738.37576	22555.1625
1741.60403	22452.5625
1744.83017	22445.5625
1748.05418	22345.8625
1751.27607	22356.8625
1754.49584	22310.4625
1757.71349	22318.6625
1760.92903	22263.7625
1764.14244	22274.4625
1767.35375	22282.6625
1770.56294	22227.8625
1773.77002	22213.2625
1776.97499	22168.2625
1780.17785	22139.9625
1783.37861	22126.7625
1786.57727	22077.1625
1789.77382	22011.2625
1792.96828	22000.2625
1796.16064	21945.5625
1799.3509	21910.0625
1802.53907	21904.7625
1805.72514	21839.0625
1808.90913	21808.8625
1812.09102	21782.8625
1815.27083	21742.3625
1818.44856	21715.8625
1821.6242	21716.0625
1824.79776	21644.0625
1827.96924	21666.4625
1831.13864	21613.6625
1834.30597	21647.3625
1837.47122	21611.8625
1840.6344	21590.6625
1843.7955	21608.5625
1846.95454	21551.4625
1850.11151	21541.0625
1853.26642	21562.5625
1856.41926	21533.7625
1859.57004	21531.6625
1862.71876	21492.3625
1865.86542	21497.2625
1869.01003	21445.4625
1872.15258	21414.2625
1875.29308	21391.8625
1878.43152	21361.8625
1881.56792	21347.1625
1884.70227	21338.7625
1887.83457	21297.4625
1890.96482	21282.4625
1894.09304	21264.4625
1897.21921	21188.8625
1900.34335	21172.4625
1903.46544	21195.2625
1906.58551	21147.2625
1909.70353	21115.5625
1912.81953	21105.0625
1915.93349	21060.6625
1919.04543	21022.8625
1922.15534	20996.5625
1925.26322	20969.5625
1928.36908	20902.2625
1931.47292	20867.4625
1934.57473	20842.6625
1937.67453	20768.5625
1940.77232	20713.4625
1943.86808	20712.8625
1946.96184	20627.3625
1950.05358	20607.2625
1953.14331	20537.2625
1956.23103	20470.6625
1959.31675	20451.0625
1962.40046	20367.4625
1965.48217	20316.3625
1968.56188	20265.1625
1971.63959	20173.0625
1974.7153	20131.8625
1977.78901	20090.4625
1980.86073	20018.4625
1983.93046	19951.9625
1986.99819	19912.2625
1990.06394	19853.4625
1993.1277	19804.5625
1996.18947	19736.5625
1999.24925	19672.7625
2002.30706	19623.9625
2005.36288	19560.4625
2008.41672	19550.0625
2011.46859	19484.2625
2014.51848	19436.2625
2017.56639	19350.5625
2020.61233	19350.8625
2023.6563	19260.2625
2026.6983	19219.8625
2029.73833	19191.4625
2032.7764	19143.4625
2035.8125	19108.3625
2038.84664	19093.9625
2041.87881	19039.8625
2044.90903	19002.3625
2047.93729	18970.3625
2050.96359	18936.5625
2053.98794	18918.3625
2057.01034	18909.1625
2060.03078	18879.7625
2063.04927	18887.1625
2066.06582	18865.7625
2069.08042	18867.1625
2072.09307	18852.8625
2075.10378	18826.0625
2078.11255	18813.8625
2081.11938	18833.6625
2084.12426	18804.3625
2087.12722	18805.4625
2090.12824	18777.2625
2093.12732	18775.4625
2096.12447	18827.3625
2099.11969	18816.2625
2102.11299	18792.6625
2105.10435	18810.8625
2108.09379	18860.8625
2111.08131	18843.5625
2114.0669	18857.5625
2117.05057	18872.8625
2120.03233	18864.3625
2123.01216	18865.9625
2125.99008	18911.5625
2128.96609	18921.9625
2131.94018	18938.3625
2134.91236	18964.6625
2137.88263	18965.1625
2140.851	18965.8625
2143.81746	19011.2625
2146.78201	19023.6625
2149.74466	19021.4625
2152.7054	18986.7625
2155.66425	18975.5625
2158.6212	19017.5625
2161.57625	18987.9625
2164.52941	19009.3625
2167.48067	19001.2625
2170.43004	18999.8625
2173.37752	18968.7625
2176.32311	18982.0625
2179.26681	18982.6625
2182.20863	18962.4625
2185.14856	18960.8625
2188.08661	18951.0625
2191.02278	18972.5625
2193.95707	18915.7625
2196.88948	18963.8625
2199.82001	18941.6625
2202.74867	18895.6625
2205.67545	18887.1625
2208.60037	18851.3625
2211.52341	18834.6625
2214.44458	18818.9625
2217.36388	18742.0625
2220.28132	18718.8625
2223.1969	18690.6625
2226.11061	18666.3625
2229.02246	18653.2625
2231.93245	18612.3625
2234.84058	18571.6625
2237.74686	18504.4625
2240.65128	18544.0625
2243.55385	18478.8625
2246.45456	18491.0625
2249.35343	18469.0625
2252.25044	18415.4625
2255.14561	18415.7625
2258.03893	18378.8625
2260.93041	18350.2625
2263.82004	18342.0625
2266.70783	18303.0625
2269.59378	18268.4625
2272.4779	18199.8625
2275.36017	18150.0625
2278.24061	18131.6625
2281.11922	18086.5625
2283.996	18067.2625
2286.87094	18051.1625
2289.74405	17993.1625
2292.61534	18000.6625
2295.4848	17965.4625
2298.35243	17987.8625
2301.21824	17945.8625
2304.08223	17953.7625
2306.94439	17912.0625
2309.80474	17920.6625
2312.66327	17932.5625
2315.51999	17888.9625
2318.37489	17897.2625
2321.22797	17834.4625
2324.07925	17843.8625
2326.92871	17798.8625
2329.77637	17741.0625
2332.62222	17728.8625
2335.46626	17706.4625
2338.3085	17666.1625
2341.14893	17679.8625
2343.98756	17689.8625
2346.8244	17657.5625
2349.65943	17597.3625
2352.49267	17578.9625
2355.32411	17646.0625
2358.15376	17590.7625
2360.98161	17576.4625
2363.80768	17571.8625
2366.63195	17562.0625
2369.45444	17550.4625
2372.27514	17580.3625
2375.09405	17537.7625
2377.91118	17508.8625
2380.72652	17444.2625
2383.54009	17401.6625
2386.35187	17392.0625
2389.16188	17364.3625
2391.97011	17325.9625
2394.77657	17316.9625
2397.58125	17277.3625
2400.38416	17236.9625
2403.18529	17190.0625
2405.98466	17178.0625
2408.78226	17161.9625
2411.57809	17116.6625
2414.37216	17139.0625
2417.16446	17128.2625
2419.955	17088.5625
2422.74378	17074.0625
2425.5308	17064.4625
2428.31606	17052.0625
2431.09956	17053.5625
2433.88131	17020.6625
2436.6613	17007.0625
2439.43954	16994.1625
2442.21603	16965.2625
2444.99077	16982.9625
2447.76377	16945.0625
2450.53501	16946.5625
2453.30451	16934.3625
2456.07226	16918.4625
2458.83827	16908.1625
2461.60254	16890.4625
2464.36507	16868.6625
2467.12586	16881.1625
2469.88492	16873.2625
2472.64224	16854.6625
2475.39782	16855.5625
2478.15167	16825.4625
2480.90379	16794.5625
2483.65417	16797.8625
2486.40283	16798.0625
2489.14976	16803.6625
2491.89497	16759.3625
2494.63845	16786.5625
2497.3802	16766.1625
2500.12024	16721.7625
2502.85855	16705.0625
2505.59514	16676.3625
2508.33002	16705.8625
2511.06318	16689.8625
2513.79462	16653.7625
2516.52435	16632.1625
2519.25237	16629.5625
2521.97867	16624.7625
2524.70327	16593.6625
2527.42616	16539.4625
2530.14734	16525.4625
2532.86681	16546.1625
2535.58458	16512.8625
2538.30065	16514.6625
2541.01501	16486.6625
2543.72768	16452.2625
2546.43864	16437.4625
2549.14791	16431.5625
2551.85548	16361.2625
2554.56136	16339.0625
2557.26554	16349.5625
2559.96803	16329.7625
2562.66883	16295.5625
2565.36794	16275.6625
2568.06536	16267.8625
2570.7611	16230.2625
2573.45514	16213.6625
2576.14751	16205.1625
2578.83819	16183.8625
2581.52719	16124.3625
2584.21451	16115.3625
2586.90015	16093.1625
2589.58411	16053.1625
2592.2664	16044.9625
2594.94701	15991.4625
2597.62594	15999.0625
2600.30321	15928.6625
2602.9788	15924.4625
2605.65273	15885.2625
2608.32498	15898.8625
2610.99557	15937.0625
2613.66449	15872.7625
2616.33175	15844.9625
2618.99734	15818.3625
2621.66128	15793.8625
2624.32355	15766.6625
2626.98416	15778.1625
2629.64311	15723.9625
2632.30041	15778.4625
2634.95605	15736.4625
2637.61004	15682.0625
2640.26238	15680.2625
2642.91306	15685.9625
2645.56209	15668.2625
2648.20948	15646.1625
2650.85521	15661.3625
2653.4993	15652.3625
2656.14175	15615.2625
2658.78255	15658.0625
2661.42171	15625.2625
2664.05923	15643.6625
2666.6951	15643.0625
2669.32934	15629.2625
2671.96194	15638.5625
2674.59291	15645.8625
2677.22224	15617.0625
2679.84993	15625.5625
2682.476	15609.9625
2685.10043	15640.6625
2687.72324	15612.3625
2690.34441	15623.5625
2692.96396	15588.5625
2695.58188	15575.2625
2698.19818	15587.0625
2700.81285	15597.0625
2703.4259	15606.6625
2706.03733	15649.9625
2708.64714	15651.2625
2711.25533	15635.5625
2713.86191	15621.9625
2716.46687	15654.6625
2719.07021	15613.6625
2721.67194	15613.7625
2724.27206	15587.0625
2726.87057	15608.4625
2729.46747	15617.5625
2732.06276	15621.6625
2734.65644	15612.1625
2737.24852	15597.3625
2739.83899	15572.6625
2742.42786	15589.9625
2745.01513	15528.9625
2747.60079	15530.9625
2750.18486	15516.0625
2752.76733	15507.5625
2755.3482	15500.0625
2757.92747	15494.2625
2760.50515	15444.6625
2763.08123	15425.9625
2765.65573	15400.7625
2768.22863	15392.0625
2770.79994	15382.0625
2773.36967	15359.4625
2775.9378	15351.0625
2778.50435	15327.8625
2781.06932	15309.4625
2783.6327	15278.2625
2786.1945	15263.5625
2788.75471	15251.7625
2791.31335	15197.7625
2793.87041	15176.9625
2796.42589	15124.8625
2798.97979	15117.0625
2801.53212	15093.4625
2804.08288	15064.6625
2806.63206	15006.6625
2809.17967	14982.3625
2811.72571	14966.8625
2814.27018	14966.8625
2816.81308	14943.5625
2819.35442	14900.4625
2821.89419	14888.6625
2824.43239	14876.8625
2826.96904	14858.6625
2829.50412	14817.3625
2832.03763	14786.2625
2834.56959	14785.8625
2837.1	14756.2625
2839.62884	14735.2625
2842.15613	14721.6625
2844.68186	14770.8625
2847.20604	14750.6625
2849.72867	14743.8625
2852.24974	14730.3625
2854.76927	14724.9625
2857.28724	14653.4625
2859.80367	14636.6625
2862.31855	14601.9625
2864.83189	14595.0625
2867.34368	14588.3625
2869.85393	14628.5625
2872.36264	14598.7625
2874.8698	14591.0625
2877.37543	14589.2625
2879.87952	14588.8625
2882.38207	14585.4625
2884.88308	14579.1625
2887.38256	14576.3625
2889.88051	14561.7625
2892.37692	14573.1625
2894.8718	14541.2625
2897.36515	14574.8625
2899.85698	14592.2625
2902.34727	14594.6625
2904.83604	14612.2625
2907.32328	14607.9625
2909.809	14557.8625
2912.29319	14609.9625
2914.77587	14605.0625
2917.25702	14592.8625
2919.73665	14592.7625
2922.21476	14589.4625
2924.69136	14527.0625
2927.16644	14536.5625
2929.64	14538.9625
2932.11205	14499.7625
2934.58258	14446.7625
2937.05161	14483.1625
2939.51912	14479.0625
2941.98513	14439.1625
2944.44962	14423.5625
2946.91261	14370.9625
2949.37409	14398.7625
2951.83407	14408.0625
2954.29254	14387.4625
2956.74951	14370.6625
2959.20498	14369.6625
2961.65895	14355.3625
2964.11142	14350.1625
2966.56239	14290.8625
2969.01186	14334.4625
2971.45984	14293.5625
2973.90632	14259.9625
2976.35131	14241.5625
2978.7948	14232.0625
2981.23681	14183.9625
2983.67732	14159.0625
2986.11635	14124.8625
2988.55388	14102.7625
2990.98993	14061.7625
2993.4245	14036.9625
2995.85758	14025.7625
2998.28917	14002.0625
3000.71928	13970.8625
3003.14791	13964.3625
3005.57506	13958.5625
3008.00073	13921.1625
3010.42493	13932.1625
3012.84764	13883.1625
3015.26888	13896.0625
3017.68865	13867.0625
3020.10694	13831.6625
3022.52376	13830.0625
3024.9391	13774.0625
3027.35298	13776.2625
3029.76539	13748.5625
3032.17632	13756.0625
3034.5858	13702.0625
3036.9938	13664.9625
3039.40034	13672.9625
3041.80542	13649.7625
3044.20903	13628.3625
3046.61118	13610.8625
3049.01187	13597.9625
3051.4111	13575.8625
3053.80888	13535.0625
3056.20519	13505.9625
3058.60005	13507.8625
3060.99345	13508.9625
3063.3854	13484.2625
3065.7759	13417.3625
3068.16494	13429.9625
3070.55254	13362.3625
3072.93868	13344.8625
3075.32338	13329.8625
3077.70662	13305.8625
3080.08842	13278.4625
3082.46878	13300.6625
3084.84769	13240.7625
3087.22515	13259.9625
3089.60118	13248.0625
3091.97576	13233.3625
3094.3489	13213.1625
3096.72061	13196.3625
3099.09087	13222.2625
3101.4597	13169.8625
3103.82709	13182.0625
3106.19305	13193.0625
3108.55757	13160.9625
3110.92066	13101.1625
3113.28232	13112.0625
3115.64255	13044.3625
3118.00134	13029.8625
3120.35871	13019.4625
3122.71466	12998.6625
3125.06917	12976.3625
3127.42226	12965.3625
3129.77393	12978.7625
3132.12417	12920.3625
3134.47299	12932.6625
3136.82039	12913.7625
3139.16636	12957.2625
3141.51092	12933.3625
3143.85406	12950.6625
3146.19579	12955.7625
3148.53609	12939.1625
3150.87499	12942.6625
3153.21246	12948.2625
3155.54853	12974.4625
3157.88318	12937.6625
3160.21642	12969.8625
3162.54826	12928.4625
3164.87868	12919.9625
3167.2077	12903.8625
3169.5353	12910.4625
3171.86151	12895.5625
3174.18631	12867.0625
3176.5097	12881.6625
3178.83169	12844.7625
3181.15228	12828.1625
3183.47147	12814.8625
3185.78926	12813.0625
3188.10565	12803.4625
3190.42065	12799.4625
3192.73424	12812.9625
3195.04645	12777.1625
3197.35725	12768.6625
3199.66667	12768.0625
3201.97469	12792.8625
3204.28132	12769.3625
3206.58656	12780.9625
3208.8904	12789.9625
3211.19287	12769.2625
3213.49394	12761.6625
3215.79363	12771.2625
3218.09193	12767.2625
3220.38884	12743.6625
3222.68438	12776.3625
3224.97853	12733.2625
3227.2713	12721.1625
3229.56269	12691.8625
3231.8527	12708.6625
3234.14133	12650.7625
3236.42858	12635.4625
3238.71446	12623.5625
3240.99896	12585.5625
3243.28209	12631.8625
3245.56384	12596.6625
3247.84423	12585.8625
3250.12324	12584.4625
3252.40088	12571.7625
3254.67715	12559.1625
3256.95205	12531.2625
3259.22558	12546.1625
3261.49775	12519.8625
3263.76855	12502.4625
3266.03799	12466.0625
3268.30606	12443.9625
3270.57277	12424.3625
3272.83812	12411.6625
3275.10211	12377.9625
3277.36474	12376.8625
3279.62601	12376.5625
3281.88593	12331.0625
3284.14448	12344.8625
3286.40168	12343.9625
3288.65753	12323.0625
3290.91202	12266.4625
3293.16516	12242.5625
3295.41695	12197.2625
3297.66738	12164.3625
3299.91647	12090.6625
3302.16421	12011.4625
3304.4106	11978.6625
3306.65564	11922.1625
3308.89933	11866.0625
3311.14169	11759.7625
3313.38269	11696.5625
3315.62236	11635.9625
3317.86068	11540.7625
3320.09766	11426.9625
3322.3333	11330.3625
3324.5676	11336.5625
3326.80056	11164.2625
3329.03219	11078.4625
3331.26248	2.9625
3333.49143	1.2625
3335.71905	-1.5375
