Data from AgNPs_FTO_APTES_UA_5uM_R6G_10uM_NaF_0.1M_Addition_RamanShift__6__12-32-37-253.txt Node

Date: Fri Dec 17 12:32:37 GMT 2021
User: TCL
Spectrometer: QEP01345
Trigger mode: 4
Integration Time (sec): 7.000000E0
Scans to average: 10
Electric dark correction enabled: true
Nonlinearity correction enabled: false
Boxcar width: 0
XAxis mode: Raman Shifts
Number of Pixels in Spectrum: 1044
>>>>>Begin Spectral Data<<<<<
46.04893	-1.6375
50.45542	-0.3375
54.85868	-1.2375
59.25871	-0.2375
63.6555	122.3625
68.04907	127.9625
72.43941	129.1625
76.82654	142.6625
81.21044	142.0625
85.59113	151.1625
89.96862	154.8625
94.34289	160.6625
98.71396	167.5625
103.08183	169.6625
107.4465	176.9625
111.80798	176.3625
116.16626	183.8625
120.52136	187.0625
124.87327	200.4625
129.222	208.4625
133.56755	219.2625
137.90993	235.1625
142.24913	259.1625
146.58517	288.1625
150.91804	327.3625
155.24774	388.4625
159.57429	480.5625
163.89768	619.6625
168.21792	811.0625
172.53501	1097.8625
176.84895	1518.2625
181.15975	2117.7625
185.46741	2968.9625
189.77193	4086.9625
194.07331	5470.5625
198.37157	7030.6625
202.6667	8699.1625
206.9587	10355.0625
211.24758	11948.8625
215.53334	13558.0625
219.81599	15223.2625
224.09553	17094.5625
228.37195	19146.9625
232.64527	21399.1625
236.91549	23803.3625
241.18261	26274.2625
245.44663	28673.2625
249.70755	30824.7625
253.96539	32674.7625
258.22014	34197.0625
262.4718	35390.8625
266.72039	36244.5625
270.96589	36652.6625
275.20832	36697.1625
279.44768	36443.8625
283.68397	36034.0625
287.91719	35700.7625
292.14735	35372.9625
296.37445	35144.9625
300.59849	35105.4625
304.81948	35138.2625
309.03742	35170.1625
313.25231	35056.1625
317.46415	34708.4625
321.67296	34282.7625
325.87872	33828.4625
330.08145	33625.7625
334.28114	33633.5625
338.47781	33904.7625
342.67145	34267.2625
346.86207	34772.8625
351.04966	35269.6625
355.23424	35900.1625
359.4158	36456.2625
363.59435	36860.7625
367.76989	37216.0625
371.94243	37477.4625
376.11196	37603.3625
380.27849	37775.8625
384.44203	37984.8625
388.60257	38319.7625
392.76012	38688.8625
396.91468	39211.9625
401.06626	39750.5625
405.21485	40142.6625
409.36047	40175.8625
413.50311	39977.5625
417.64277	39903.6625
421.77947	40148.4625
425.9132	40436.8625
430.04396	40630.9625
434.17176	40713.5625
438.2966	40858.7625
442.41849	41284.9625
446.53742	41962.7625
450.6534	42748.4625
454.76644	43365.4625
458.87653	43662.0625
462.98368	43543.8625
467.08789	43170.4625
471.18916	42613.2625
475.2875	41949.6625
479.38291	41479.2625
483.4754	41095.5625
487.56496	40760.2625
491.6516	40448.2625
495.73531	40319.7625
499.81612	40351.9625
503.89401	40726.9625
507.96899	41013.4625
512.04106	41137.1625
516.11023	40946.1625
520.1765	40655.5625
524.23987	40334.2625
528.30034	39948.2625
532.35792	39638.9625
536.41261	39356.8625
540.46441	39061.5625
544.51333	39049.3625
548.55936	39323.4625
552.60252	39907.2625
556.64279	40448.2625
560.6802	40837.6625
564.71473	41116.5625
568.7464	41532.3625
572.7752	42328.7625
576.80114	43345.1625
580.82422	44682.4625
584.84444	46375.5625
588.86181	48203.9625
592.87633	49508.1625
596.888	49034.1625
600.89682	47541.2625
604.9028	47400.5625
608.90594	49478.1625
612.90624	51486.1625
616.90371	48930.0625
620.89834	43511.3625
624.89015	41119.3625
628.87913	40844.8625
632.86528	41014.5625
636.84862	40972.9625
640.82913	40426.6625
644.80683	39751.3625
648.78172	39280.4625
652.75379	39328.1625
656.72306	39706.4625
660.68952	40166.4625
664.65319	39987.0625
668.61405	39564.4625
672.57211	39564.0625
676.52738	39764.7625
680.47986	39715.3625
684.42955	39492.7625
688.37646	39338.9625
692.32058	39609.5625
696.26192	40089.7625
700.20048	40605.8625
704.13626	40873.2625
708.06928	40807.9625
711.99952	40627.3625
715.927	40569.9625
719.85171	40667.7625
723.77365	40605.1625
727.69284	40112.2625
731.60928	39676.4625
735.52295	39373.5625
739.43388	39419.1625
743.34206	39510.8625
747.24749	39653.3625
751.15017	39972.6625
755.05012	40458.9625
758.94733	41228.1625
762.8418	42631.4625
766.73354	44555.3625
770.62254	46309.7625
774.50882	46553.2625
778.39237	45256.0625
782.27321	43281.8625
786.15132	41598.2625
790.02671	40543.6625
793.89938	39983.7625
797.76935	39803.6625
801.6366	39666.9625
805.50115	39712.3625
809.36299	39485.4625
813.22213	39229.5625
817.07857	38948.6625
820.93231	38791.1625
824.78336	38711.8625
828.63172	38621.5625
832.47738	38561.9625
836.32036	38599.4625
840.16066	38543.5625
843.99827	38601.9625
847.8332	38606.1625
851.66546	38623.5625
855.49504	38708.9625
859.32195	38747.4625
863.1462	38757.5625
866.96777	38673.8625
870.78668	38719.7625
874.60293	38791.4625
878.41652	38827.2625
882.22745	38936.1625
886.03573	39088.5625
889.84136	39177.6625
893.64433	38982.2625
897.44466	38898.2625
901.24235	38794.1625
905.0374	38630.8625
908.8298	38620.6625
912.61957	38656.2625
916.40671	38878.2625
920.19121	39270.8625
923.97308	39565.7625
927.75233	39646.1625
931.52895	39358.9625
935.30295	38955.6625
939.07433	38460.1625
942.84309	38199.3625
946.60924	38018.0625
950.37278	38013.5625
954.13371	37995.0625
957.89203	37985.4625
961.64774	37884.8625
965.40086	37883.6625
969.15137	37875.2625
972.89929	37776.8625
976.64461	37789.1625
980.38733	37850.6625
984.12747	37892.6625
987.86502	38067.5625
991.59999	38277.3625
995.33237	38563.0625
999.06217	39064.8625
1002.78939	39830.2625
1006.51404	40578.3625
1010.23611	41245.2625
1013.95561	41632.3625
1017.67255	41576.9625
1021.38692	41191.8625
1025.09872	40660.4625
1028.80796	40324.0625
1032.51465	40248.1625
1036.21877	40456.9625
1039.92035	40572.5625
1043.61937	40627.2625
1047.31584	40482.6625
1051.00976	40248.0625
1054.70114	40344.7625
1058.38998	40444.4625
1062.07627	40772.5625
1065.76003	41257.4625
1069.44126	41728.6625
1073.11995	42362.6625
1076.79611	42916.9625
1080.46974	43196.0625
1084.14085	43403.1625
1087.80943	43691.1625
1091.47549	43887.6625
1095.13903	43924.0625
1098.80005	43506.6625
1102.45857	42777.8625
1106.11456	42169.3625
1109.76805	41754.8625
1113.41903	41670.5625
1117.06751	41644.0625
1120.71348	41812.1625
1124.35696	41979.6625
1127.99793	42325.7625
1131.63641	42568.8625
1135.2724	42491.0625
1138.90589	42512.5625
1142.5369	42601.7625
1146.16542	42746.2625
1149.79145	42957.8625
1153.415	43204.9625
1157.03607	43566.3625
1160.65467	44439.7625
1164.27079	46018.2625
1167.88443	47864.6625
1171.49561	49725.8625
1175.10432	51853.2625
1178.71056	54536.3625
1182.31434	57262.0625
1185.91565	58978.6625
1189.51451	59374.1625
1193.11091	58772.7625
1196.70485	57387.5625
1200.29634	55611.5625
1203.88538	54312.6625
1207.47197	53601.8625
1211.05612	53108.1625
1214.63782	52409.2625
1218.21708	51283.5625
1221.79391	50195.2625
1225.36829	49323.7625
1228.94024	48819.9625
1232.50976	48553.9625
1236.07685	48240.2625
1239.6415	48025.3625
1243.20374	47974.7625
1246.76355	48338.2625
1250.32093	48962.8625
1253.8759	49827.9625
1257.42845	50877.7625
1260.97859	52155.0625
1264.52631	53485.9625
1268.07163	54791.4625
1271.61453	56068.9625
1275.15503	57209.0625
1278.69312	58313.0625
1282.22882	59265.7625
1285.76211	60361.9625
1289.29301	61621.4625
1292.82151	63335.2625
1296.34761	65492.8625
1299.87133	68239.9625
1303.39266	71167.1625
1306.9116	74012.3625
1310.42815	76224.7625
1313.94233	77191.2625
1317.45412	77019.4625
1320.96354	76275.2625
1324.47058	75798.2625
1327.97525	75709.2625
1331.47754	75956.3625
1334.97747	76106.8625
1338.47502	76157.7625
1341.97022	75930.1625
1345.46305	75181.5625
1348.95352	74369.4625
1352.44163	73746.5625
1355.92738	74044.3625
1359.41078	75264.1625
1362.89183	76280.6625
1366.37053	74984.2625
1369.84688	70832.4625
1373.32088	65087.2625
1376.79254	60783.6625
1380.26186	59011.4625
1383.72883	58837.6625
1387.19347	58859.1625
1390.65578	58369.7625
1394.11575	57979.3625
1397.57339	58328.9625
1401.0287	59141.8625
1404.48168	59990.6625
1407.93234	60423.4625
1411.38068	60118.7625
1414.82669	58995.4625
1418.27039	57303.7625
1421.71177	55568.4625
1425.15083	54206.0625
1428.58758	53852.2625
1432.02203	54407.6625
1435.45416	55748.4625
1438.88399	57154.9625
1442.31151	58102.5625
1445.73673	58406.5625
1449.15965	58312.6625
1452.58027	58074.0625
1455.9986	57816.7625
1459.41463	58049.5625
1462.82837	58911.1625
1466.23982	59922.6625
1469.64898	60761.6625
1473.05586	61296.1625
1476.46045	61344.7625
1479.86276	60919.2625
1483.26279	60410.9625
1486.66054	60243.7625
1490.05602	60379.3625
1493.44922	60755.9625
1496.84016	61163.4625
1500.22882	61738.1625
1503.61521	62726.0625
1506.99934	63651.3625
1510.38121	64336.4625
1513.76081	64252.5625
1517.13816	63244.2625
1520.51324	61867.5625
1523.88607	60962.3625
1527.25665	60635.8625
1530.62498	60598.3625
1533.99105	60609.1625
1537.35488	60149.9625
1540.71647	59229.0625
1544.07581	58093.5625
1547.4329	57000.9625
1550.78776	56055.5625
1554.14038	55348.0625
1557.49077	54962.5625
1560.83892	54695.0625
1564.18484	54532.7625
1567.52853	54402.9625
1570.86999	54644.1625
1574.20922	55319.9625
1577.54624	55906.8625
1580.88103	56377.8625
1584.2136	57085.8625
1587.54395	58518.3625
1590.87208	61143.1625
1594.19801	64246.8625
1597.52172	67230.0625
1600.84321	68077.4625
1604.16251	65631.0625
1607.47959	61470.3625
1610.79447	57066.1625
1614.10715	53037.9625
1617.41763	49706.3625
1620.7259	47435.4625
1624.03199	46292.4625
1627.33587	46288.0625
1630.63757	47330.4625
1633.93707	49795.8625
1637.23439	53834.4625
1640.52951	59649.3625
1643.82246	65996.1625
1647.11321	70313.8625
1650.40179	70014.8625
1653.68819	64927.6625
1656.97241	57364.8625
1660.25446	50557.4625
1663.53433	45749.4625
1666.81203	42666.7625
1670.08756	40769.0625
1673.36092	39463.5625
1676.63211	38666.3625
1679.90115	38083.1625
1683.16801	37621.8625
1686.43272	37302.2625
1689.69527	37076.5625
1692.95567	36862.8625
1696.2139	36743.7625
1699.46999	36613.5625
1702.72392	36553.5625
1705.97571	36531.6625
1709.22535	36462.0625
1712.47284	36408.4625
1715.71819	36366.6625
1718.96139	36284.9625
1722.20246	36213.0625
1725.44139	36072.4625
1728.67818	35899.0625
1731.91284	35737.4625
1735.14537	35594.6625
1738.37576	35432.4625
1741.60403	35330.4625
1744.83017	35179.2625
1748.05418	35175.9625
1751.27607	35100.1625
1754.49584	35031.0625
1757.71349	35061.9625
1760.92903	35001.2625
1764.14244	34980.0625
1767.35375	34990.7625
1770.56294	34936.5625
1773.77002	34882.6625
1776.97499	34836.1625
1780.17785	34774.2625
1783.37861	34784.4625
1786.57727	34659.6625
1789.77382	34626.5625
1792.96828	34559.9625
1796.16064	34533.5625
1799.3509	34501.0625
1802.53907	34463.3625
1805.72514	34382.1625
1808.90913	34316.4625
1812.09102	34255.4625
1815.27083	34232.1625
1818.44856	34165.6625
1821.6242	34111.3625
1824.79776	34122.3625
1827.96924	34126.0625
1831.13864	34142.1625
1834.30597	34157.9625
1837.47122	34221.8625
1840.6344	34225.9625
1843.7955	34211.3625
1846.95454	34156.4625
1850.11151	34120.6625
1853.26642	34172.2625
1856.41926	34111.0625
1859.57004	34124.6625
1862.71876	34079.2625
1865.86542	34007.7625
1869.01003	33966.4625
1872.15258	33923.4625
1875.29308	33925.1625
1878.43152	33862.6625
1881.56792	33850.0625
1884.70227	33850.3625
1887.83457	33834.4625
1890.96482	33748.8625
1894.09304	33700.0625
1897.21921	33632.8625
1900.34335	33596.0625
1903.46544	33526.2625
1906.58551	33488.5625
1909.70353	33449.8625
1912.81953	33400.7625
1915.93349	33310.8625
1919.04543	33262.4625
1922.15534	33195.6625
1925.26322	33171.8625
1928.36908	33071.7625
1931.47292	33015.9625
1934.57473	32931.3625
1937.67453	32816.9625
1940.77232	32796.0625
1943.86808	32639.5625
1946.96184	32587.1625
1950.05358	32580.5625
1953.14331	32479.3625
1956.23103	32380.0625
1959.31675	32304.5625
1962.40046	32215.1625
1965.48217	32126.9625
1968.56188	32030.5625
1971.63959	31989.5625
1974.7153	31841.1625
1977.78901	31725.2625
1980.86073	31666.8625
1983.93046	31587.8625
1986.99819	31503.8625
1990.06394	31428.9625
1993.1277	31331.5625
1996.18947	31219.1625
1999.24925	31173.6625
2002.30706	31055.6625
2005.36288	30958.0625
2008.41672	30917.5625
2011.46859	30879.6625
2014.51848	30770.1625
2017.56639	30730.2625
2020.61233	30640.6625
2023.6563	30577.9625
2026.6983	30486.6625
2029.73833	30452.3625
2032.7764	30404.6625
2035.8125	30348.8625
2038.84664	30226.3625
2041.87881	30200.0625
2044.90903	30169.8625
2047.93729	30098.4625
2050.96359	30097.3625
2053.98794	30044.4625
2057.01034	30051.9625
2060.03078	30023.1625
2063.04927	29991.8625
2066.06582	29971.5625
2069.08042	29950.2625
2072.09307	29945.5625
2075.10378	29942.5625
2078.11255	29878.0625
2081.11938	29903.4625
2084.12426	29822.5625
2087.12722	29839.6625
2090.12824	29849.0625
2093.12732	29840.4625
2096.12447	29856.3625
2099.11969	29884.6625
2102.11299	29866.9625
2105.10435	29928.7625
2108.09379	29928.7625
2111.08131	29944.5625
2114.0669	29971.9625
2117.05057	29998.4625
2120.03233	30006.6625
2123.01216	30052.8625
2125.99008	30059.6625
2128.96609	30106.9625
2131.94018	30101.1625
2134.91236	30155.8625
2137.88263	30143.7625
2140.851	30125.1625
2143.81746	30217.7625
2146.78201	30197.9625
2149.74466	30202.9625
2152.7054	30226.4625
2155.66425	30229.9625
2158.6212	30191.7625
2161.57625	30173.4625
2164.52941	30201.4625
2167.48067	30173.9625
2170.43004	30187.6625
2173.37752	30175.6625
2176.32311	30168.9625
2179.26681	30153.6625
2182.20863	30159.7625
2185.14856	30150.8625
2188.08661	30174.1625
2191.02278	30173.7625
2193.95707	30163.2625
2196.88948	30111.8625
2199.82001	30133.3625
2202.74867	30073.4625
2205.67545	30077.3625
2208.60037	30014.0625
2211.52341	29972.7625
2214.44458	29938.4625
2217.36388	29856.2625
2220.28132	29804.1625
2223.1969	29764.3625
2226.11061	29776.1625
2229.02246	29690.1625
2231.93245	29669.2625
2234.84058	29623.6625
2237.74686	29573.7625
2240.65128	29615.5625
2243.55385	29494.4625
2246.45456	29468.6625
2249.35343	29437.1625
2252.25044	29370.8625
2255.14561	29336.9625
2258.03893	29311.7625
2260.93041	29234.4625
2263.82004	29182.5625
2266.70783	29099.6625
2269.59378	29066.2625
2272.4779	29016.2625
2275.36017	28932.3625
2278.24061	28925.7625
2281.11922	28847.3625
2283.996	28816.5625
2286.87094	28773.9625
2289.74405	28705.2625
2292.61534	28705.9625
2295.4848	28666.5625
2298.35243	28704.9625
2301.21824	28647.0625
2304.08223	28651.7625
2306.94439	28642.8625
2309.80474	28625.8625
2312.66327	28652.2625
2315.51999	28593.7625
2318.37489	28563.7625
2321.22797	28571.5625
2324.07925	28527.7625
2326.92871	28495.7625
2329.77637	28462.7625
2332.62222	28416.8625
2335.46626	28409.9625
2338.3085	28343.5625
2341.14893	28380.0625
2343.98756	28314.2625
2346.8244	28371.6625
2349.65943	28351.7625
2352.49267	28306.0625
2355.32411	28281.1625
2358.15376	28260.6625
2360.98161	28224.6625
2363.80768	28221.1625
2366.63195	28186.3625
2369.45444	28094.2625
2372.27514	28112.1625
2375.09405	28102.1625
2377.91118	28068.8625
2380.72652	27977.9625
2383.54009	27927.7625
2386.35187	27903.4625
2389.16188	27840.3625
2391.97011	27775.7625
2394.77657	27730.3625
2397.58125	27682.2625
2400.38416	27722.8625
2403.18529	27658.0625
2405.98466	27650.9625
2408.78226	27559.2625
2411.57809	27554.1625
2414.37216	27535.3625
2417.16446	27512.9625
2419.955	27497.2625
2422.74378	27483.1625
2425.5308	27434.2625
2428.31606	27444.1625
2431.09956	27414.7625
2433.88131	27373.9625
2436.6613	27358.8625
2439.43954	27352.7625
2442.21603	27336.0625
2444.99077	27289.7625
2447.76377	27348.6625
2450.53501	27323.8625
2453.30451	27273.0625
2456.07226	27289.8625
2458.83827	27244.8625
2461.60254	27245.4625
2464.36507	27213.1625
2467.12586	27208.6625
2469.88492	27222.9625
2472.64224	27215.5625
2475.39782	27214.0625
2478.15167	27211.1625
2480.90379	27150.8625
2483.65417	27171.9625
2486.40283	27119.0625
2489.14976	27147.6625
2491.89497	27108.1625
2494.63845	27097.8625
2497.3802	27096.5625
2500.12024	27048.1625
2502.85855	27059.8625
2505.59514	27036.6625
2508.33002	27070.8625
2511.06318	26977.8625
2513.79462	27011.9625
2516.52435	26978.5625
2519.25237	26996.1625
2521.97867	26980.6625
2524.70327	26981.2625
2527.42616	26941.5625
2530.14734	26971.4625
2532.86681	26896.0625
2535.58458	26878.7625
2538.30065	26841.1625
2541.01501	26779.7625
2543.72768	26782.7625
2546.43864	26813.9625
2549.14791	26703.7625
2551.85548	26681.9625
2554.56136	26637.9625
2557.26554	26610.3625
2559.96803	26612.8625
2562.66883	26591.0625
2565.36794	26570.7625
2568.06536	26538.1625
2570.7611	26518.3625
2573.45514	26444.1625
2576.14751	26462.7625
2578.83819	26407.9625
2581.52719	26368.0625
2584.21451	26313.1625
2586.90015	26309.1625
2589.58411	26236.7625
2592.2664	26273.2625
2594.94701	26203.0625
2597.62594	26180.7625
2600.30321	26124.2625
2602.9788	26116.3625
2605.65273	26132.9625
2608.32498	26106.7625
2610.99557	26060.5625
2613.66449	26073.7625
2616.33175	26026.2625
2618.99734	26008.9625
2621.66128	25984.8625
2624.32355	25942.3625
2626.98416	25916.6625
2629.64311	25913.0625
2632.30041	25954.4625
2634.95605	25886.6625
2637.61004	25891.4625
2640.26238	25858.1625
2642.91306	25803.3625
2645.56209	25850.1625
2648.20948	25831.9625
2650.85521	25855.6625
2653.4993	25825.0625
2656.14175	25797.4625
2658.78255	25836.3625
2661.42171	25828.6625
2664.05923	25863.0625
2666.6951	25876.7625
2669.32934	25859.5625
2671.96194	25890.4625
2674.59291	25862.7625
2677.22224	25847.7625
2679.84993	25907.9625
2682.476	25844.0625
2685.10043	25866.3625
2687.72324	25828.4625
2690.34441	25814.1625
2692.96396	25801.5625
2695.58188	25819.5625
2698.19818	25805.2625
2700.81285	25820.6625
2703.4259	25812.8625
2706.03733	25849.8625
2708.64714	25857.1625
2711.25533	25893.4625
2713.86191	25865.2625
2716.46687	25908.9625
2719.07021	25880.6625
2721.67194	25877.0625
2724.27206	25826.5625
2726.87057	25903.6625
2729.46747	25898.6625
2732.06276	25959.5625
2734.65644	25913.2625
2737.24852	25898.2625
2739.83899	25877.7625
2742.42786	25889.4625
2745.01513	25843.5625
2747.60079	25847.9625
2750.18486	25831.1625
2752.76733	25819.1625
2755.3482	25775.9625
2757.92747	25808.2625
2760.50515	25765.4625
2763.08123	25746.5625
2765.65573	25656.9625
2768.22863	25681.3625
2770.79994	25676.6625
2773.36967	25727.9625
2775.9378	25625.0625
2778.50435	25593.4625
2781.06932	25581.8625
2783.6327	25531.2625
2786.1945	25521.6625
2788.75471	25478.3625
2791.31335	25449.6625
2793.87041	25380.0625
2796.42589	25325.9625
2798.97979	25302.0625
2801.53212	25255.1625
2804.08288	25180.3625
2806.63206	25143.8625
2809.17967	25108.7625
2811.72571	25051.4625
2814.27018	25078.8625
2816.81308	25035.9625
2819.35442	24979.6625
2821.89419	24860.8625
2824.43239	24904.1625
2826.96904	24869.3625
2829.50412	24835.1625
2832.03763	24756.7625
2834.56959	24786.6625
2837.1	24706.9625
2839.62884	24722.6625
2842.15613	24649.6625
2844.68186	24693.7625
2847.20604	24684.2625
2849.72867	24654.3625
2852.24974	24625.5625
2854.76927	24627.9625
2857.28724	24569.2625
2859.80367	24556.5625
2862.31855	24518.6625
2864.83189	24498.9625
2867.34368	24407.7625
2869.85393	24462.5625
2872.36264	24421.3625
2874.8698	24417.4625
2877.37543	24456.8625
2879.87952	24461.3625
2882.38207	24436.4625
2884.88308	24446.0625
2887.38256	24434.8625
2889.88051	24445.4625
2892.37692	24439.6625
2894.8718	24409.4625
2897.36515	24447.5625
2899.85698	24472.1625
2902.34727	24535.7625
2904.83604	24496.5625
2907.32328	24513.0625
2909.809	24481.0625
2912.29319	24521.4625
2914.77587	24515.2625
2917.25702	24494.6625
2919.73665	24447.7625
2922.21476	24467.9625
2924.69136	24451.2625
2927.16644	24445.9625
2929.64	24403.3625
2932.11205	24379.3625
2934.58258	24316.8625
2937.05161	24323.1625
2939.51912	24368.7625
2941.98513	24319.0625
2944.44962	24266.9625
2946.91261	24213.8625
2949.37409	24290.1625
2951.83407	24214.0625
2954.29254	24222.3625
2956.74951	24167.3625
2959.20498	24158.9625
2961.65895	24099.0625
2964.11142	24151.3625
2966.56239	24064.2625
2969.01186	24049.2625
2971.45984	23987.0625
2973.90632	23992.0625
2976.35131	23951.9625
2978.7948	23890.3625
2981.23681	23839.3625
2983.67732	23815.9625
2986.11635	23723.8625
2988.55388	23712.9625
2990.98993	23641.2625
2993.4245	23619.2625
2995.85758	23569.6625
2998.28917	23472.4625
3000.71928	23478.9625
3003.14791	23419.5625
3005.57506	23382.4625
3008.00073	23361.5625
3010.42493	23335.6625
3012.84764	23305.3625
3015.26888	23278.5625
3017.68865	23250.7625
3020.10694	23222.5625
3022.52376	23144.3625
3024.9391	23146.1625
3027.35298	23130.5625
3029.76539	23066.6625
3032.17632	22977.6625
3034.5858	22988.5625
3036.9938	22960.4625
3039.40034	22950.2625
3041.80542	22892.5625
3044.20903	22865.3625
3046.61118	22848.5625
3049.01187	22776.0625
3051.4111	22780.5625
3053.80888	22725.7625
3056.20519	22705.5625
3058.60005	22631.2625
3060.99345	22660.5625
3063.3854	22594.8625
3065.7759	22475.5625
3068.16494	22421.5625
3070.55254	22314.5625
3072.93868	22323.3625
3075.32338	22262.4625
3077.70662	22239.5625
3080.08842	22169.2625
3082.46878	22205.0625
3084.84769	22105.5625
3087.22515	22138.8625
3089.60118	22083.7625
3091.97576	22048.6625
3094.3489	22048.4625
3096.72061	21993.3625
3099.09087	22011.9625
3101.4597	21978.5625
3103.82709	21992.9625
3106.19305	21928.0625
3108.55757	21912.8625
3110.92066	21785.4625
3113.28232	21791.4625
3115.64255	21733.5625
3118.00134	21680.6625
3120.35871	21662.5625
3122.71466	21605.4625
3125.06917	21544.2625
3127.42226	21520.6625
3129.77393	21538.1625
3132.12417	21511.1625
3134.47299	21503.2625
3136.82039	21457.8625
3139.16636	21437.5625
3141.51092	21453.4625
3143.85406	21451.5625
3146.19579	21480.0625
3148.53609	21479.0625
3150.87499	21462.7625
3153.21246	21431.6625
3155.54853	21448.1625
3157.88318	21414.3625
3160.21642	21423.5625
3162.54826	21383.4625
3164.87868	21367.5625
3167.2077	21350.3625
3169.5353	21343.1625
3171.86151	21302.3625
3174.18631	21272.1625
3176.5097	21255.3625
3178.83169	21213.7625
3181.15228	21262.5625
3183.47147	21180.4625
3185.78926	21177.8625
3188.10565	21155.8625
3190.42065	21143.0625
3192.73424	21149.7625
3195.04645	21146.4625
3197.35725	21098.5625
3199.66667	21099.6625
3201.97469	21099.9625
3204.28132	21045.4625
3206.58656	21104.3625
3208.8904	21100.9625
3211.19287	21076.1625
3213.49394	21053.5625
3215.79363	21043.9625
3218.09193	21022.7625
3220.38884	21031.8625
3222.68438	20975.6625
3224.97853	20973.8625
3227.2713	20952.1625
3229.56269	20879.4625
3231.8527	20872.5625
3234.14133	20851.0625
3236.42858	20798.5625
3238.71446	20815.3625
3240.99896	20755.1625
3243.28209	20746.2625
3245.56384	20724.2625
3247.84423	20747.3625
3250.12324	20728.1625
3252.40088	20696.9625
3254.67715	20641.6625
3256.95205	20619.8625
3259.22558	20605.0625
3261.49775	20556.2625
3263.76855	20558.9625
3266.03799	20479.0625
3268.30606	20452.4625
3270.57277	20413.3625
3272.83812	20367.0625
3275.10211	20350.2625
3277.36474	20319.7625
3279.62601	20332.4625
3281.88593	20272.2625
3284.14448	20314.5625
3286.40168	20283.9625
3288.65753	20262.1625
3290.91202	20191.3625
3293.16516	20155.2625
3295.41695	20119.4625
3297.66738	19945.9625
3299.91647	19891.6625
3302.16421	19782.5625
3304.4106	19683.1625
3306.65564	19575.0625
3308.89933	19454.8625
3311.14169	19325.0625
3313.38269	19185.6625
3315.62236	19105.7625
3317.86068	18940.9625
3320.09766	18677.6625
3322.3333	18548.0625
3324.5676	18538.6625
3326.80056	18224.7625
3329.03219	18179.5625
3331.26248	3.5625
3333.49143	0.1625
3335.71905	0.1625
