Data from AgNPs_FTO_APTES_UA_2uM_R6G_10uM_NaF_0.1M_Addition_RamanShift__7__11-51-47-206.txt Node

Date: Fri Dec 17 11:51:47 GMT 2021
User: TCL
Spectrometer: QEP01345
Trigger mode: 4
Integration Time (sec): 7.000000E0
Scans to average: 10
Electric dark correction enabled: true
Nonlinearity correction enabled: false
Boxcar width: 0
XAxis mode: Raman Shifts
Number of Pixels in Spectrum: 1044
>>>>>Begin Spectral Data<<<<<
46.04893	-1.5375
50.45542	-1.0375
54.85868	-1.4375
59.25871	-0.1375
63.6555	122.0625
68.04907	128.7625
72.43941	135.5625
76.82654	144.9625
81.21044	147.1625
85.59113	152.0625
89.96862	158.0625
94.34289	164.1625
98.71396	165.9625
103.08183	172.8625
107.4465	178.5625
111.80798	180.9625
116.16626	184.8625
120.52136	190.8625
124.87327	202.8625
129.222	208.6625
133.56755	223.9625
137.90993	238.1625
142.24913	262.8625
146.58517	290.2625
150.91804	335.2625
155.24774	396.7625
159.57429	490.2625
163.89768	629.4625
168.21792	821.2625
172.53501	1102.1625
176.84895	1527.8625
181.15975	2155.0625
185.46741	3009.0625
189.77193	4145.5625
194.07331	5554.6625
198.37157	7148.7625
202.6667	8827.3625
206.9587	10505.6625
211.24758	12132.1625
215.53334	13755.6625
219.81599	15490.3625
224.09553	17370.6625
228.37195	19476.8625
232.64527	21777.6625
236.91549	24299.9625
241.18261	26752.6625
245.44663	29164.7625
249.70755	31339.5625
253.96539	33290.5625
258.22014	34870.4625
262.4718	36081.7625
266.72039	36992.5625
270.96589	37350.8625
275.20832	37347.8625
279.44768	37018.3625
283.68397	36582.0625
287.91719	36130.9625
292.14735	35790.0625
296.37445	35618.7625
300.59849	35500.7625
304.81948	35503.9625
309.03742	35525.6625
313.25231	35391.4625
317.46415	35075.8625
321.67296	34628.0625
325.87872	34222.2625
330.08145	34126.3625
334.28114	34106.1625
338.47781	34394.3625
342.67145	34732.5625
346.86207	35242.9625
351.04966	35848.3625
355.23424	36440.9625
359.4158	37024.3625
363.59435	37470.3625
367.76989	37809.7625
371.94243	37998.5625
376.11196	38166.1625
380.27849	38318.9625
384.44203	38543.2625
388.60257	38815.5625
392.76012	39220.8625
396.91468	39746.2625
401.06626	40311.0625
405.21485	40675.0625
409.36047	40676.0625
413.50311	40446.2625
417.64277	40334.8625
421.77947	40501.2625
425.9132	40756.0625
430.04396	40967.3625
434.17176	41100.9625
438.2966	41316.8625
442.41849	41646.2625
446.53742	42382.1625
450.6534	43216.0625
454.76644	43825.1625
458.87653	44037.2625
462.98368	44035.4625
467.08789	43699.2625
471.18916	43228.0625
475.2875	42605.3625
479.38291	42150.6625
483.4754	41840.6625
487.56496	41592.0625
491.6516	41298.0625
495.73531	41187.6625
499.81612	41182.8625
503.89401	41561.4625
507.96899	41751.4625
512.04106	41775.2625
516.11023	41650.2625
520.1765	41361.1625
524.23987	41102.2625
528.30034	40748.3625
532.35792	40510.1625
536.41261	40182.2625
540.46441	39929.9625
544.51333	39954.1625
548.55936	40174.9625
552.60252	40659.9625
556.64279	41195.4625
560.6802	41621.8625
564.71473	41883.3625
568.7464	42207.9625
572.7752	42893.1625
576.80114	43787.0625
580.82422	44921.2625
584.84444	46302.2625
588.86181	47906.0625
592.87633	49074.1625
596.888	48792.6625
600.89682	47722.7625
604.9028	47786.6625
608.90594	50188.2625
612.90624	52471.0625
616.90371	49939.8625
620.89834	44487.1625
624.89015	42034.2625
628.87913	41692.8625
632.86528	41812.1625
636.84862	41722.2625
640.82913	41244.2625
644.80683	40582.9625
648.78172	40112.2625
652.75379	40147.2625
656.72306	40530.0625
660.68952	40970.8625
664.65319	40876.5625
668.61405	40453.9625
672.57211	40537.0625
676.52738	40762.5625
680.47986	40701.6625
684.42955	40413.5625
688.37646	40289.1625
692.32058	40636.6625
696.26192	41140.4625
700.20048	41654.8625
704.13626	41849.9625
708.06928	41715.7625
711.99952	41438.1625
715.927	41445.8625
719.85171	41539.8625
723.77365	41476.0625
727.69284	40984.2625
731.60928	40556.4625
735.52295	40360.1625
739.43388	40330.8625
743.34206	40446.6625
747.24749	40669.3625
751.15017	40883.4625
755.05012	41343.5625
758.94733	42110.0625
762.8418	43424.7625
766.73354	45358.9625
770.62254	47152.9625
774.50882	47410.9625
778.39237	46156.1625
782.27321	44188.2625
786.15132	42576.6625
790.02671	41555.2625
793.89938	40983.1625
797.76935	40789.7625
801.6366	40663.2625
805.50115	40643.5625
809.36299	40488.7625
813.22213	40293.4625
817.07857	40075.6625
820.93231	39865.5625
824.78336	39742.1625
828.63172	39764.2625
832.47738	39706.4625
836.32036	39700.4625
840.16066	39721.9625
843.99827	39792.2625
847.8332	39760.4625
851.66546	39765.8625
855.49504	39820.5625
859.32195	39890.1625
863.1462	39849.8625
866.96777	39819.7625
870.78668	39828.7625
874.60293	39885.1625
878.41652	39971.2625
882.22745	40118.3625
886.03573	40307.8625
889.84136	40331.4625
893.64433	40253.9625
897.44466	40090.5625
901.24235	39940.2625
905.0374	39910.4625
908.8298	39883.8625
912.61957	39919.6625
916.40671	40091.1625
920.19121	40404.1625
923.97308	40743.8625
927.75233	40906.1625
931.52895	40636.3625
935.30295	40261.6625
939.07433	39834.2625
942.84309	39474.4625
946.60924	39355.1625
950.37278	39263.8625
954.13371	39228.6625
957.89203	39171.4625
961.64774	39185.9625
965.40086	39169.3625
969.15137	39099.0625
972.89929	39085.4625
976.64461	39058.3625
980.38733	39085.7625
984.12747	39161.5625
987.86502	39312.8625
991.59999	39507.1625
995.33237	39811.5625
999.06217	40343.8625
1002.78939	41086.7625
1006.51404	41827.3625
1010.23611	42502.5625
1013.95561	42870.9625
1017.67255	42838.5625
1021.38692	42357.8625
1025.09872	41937.0625
1028.80796	41660.7625
1032.51465	41698.6625
1036.21877	41954.0625
1039.92035	42120.6625
1043.61937	42117.3625
1047.31584	41887.9625
1051.00976	41710.8625
1054.70114	41669.8625
1058.38998	41832.9625
1062.07627	42142.4625
1065.76003	42542.7625
1069.44126	43004.0625
1073.11995	43625.2625
1076.79611	44191.5625
1080.46974	44500.3625
1084.14085	44740.4625
1087.80943	44917.3625
1091.47549	45107.8625
1095.13903	45047.7625
1098.80005	44661.5625
1102.45857	43877.8625
1106.11456	43248.4625
1109.76805	42911.6625
1113.41903	42772.3625
1117.06751	42814.0625
1120.71348	42922.4625
1124.35696	43146.8625
1127.99793	43423.7625
1131.63641	43659.3625
1135.2724	43545.7625
1138.90589	43510.7625
1142.5369	43542.7625
1146.16542	43672.7625
1149.79145	43809.7625
1153.415	43975.6625
1157.03607	44329.4625
1160.65467	45104.9625
1164.27079	46456.4625
1167.88443	48225.7625
1171.49561	50018.1625
1175.10432	52148.8625
1178.71056	54746.3625
1182.31434	57475.2625
1185.91565	59266.0625
1189.51451	59738.7625
1193.11091	59145.1625
1196.70485	57752.3625
1200.29634	56032.9625
1203.88538	54778.9625
1207.47197	53900.6625
1211.05612	53282.8625
1214.63782	52565.8625
1218.21708	51544.4625
1221.79391	50604.8625
1225.36829	49890.7625
1228.94024	49424.8625
1232.50976	49125.7625
1236.07685	48888.5625
1239.6415	48631.2625
1243.20374	48709.3625
1246.76355	49023.8625
1250.32093	49659.9625
1253.8759	50465.5625
1257.42845	51483.6625
1260.97859	52707.7625
1264.52631	54007.3625
1268.07163	55267.1625
1271.61453	56567.8625
1275.15503	57635.9625
1278.69312	58691.9625
1282.22882	59556.7625
1285.76211	60509.7625
1289.29301	61691.5625
1292.82151	63242.1625
1296.34761	65125.3625
1299.87133	67495.2625
1303.39266	70259.2625
1306.9116	72939.6625
1310.42815	74986.0625
1313.94233	76051.8625
1317.45412	75937.8625
1320.96354	75223.9625
1324.47058	74764.8625
1327.97525	74673.4625
1331.47754	74766.4625
1334.97747	74875.7625
1338.47502	74878.5625
1341.97022	74516.7625
1345.46305	73767.7625
1348.95352	73020.7625
1352.44163	72615.0625
1355.92738	73074.5625
1359.41078	74459.3625
1362.89183	75637.7625
1366.37053	74660.7625
1369.84688	70612.3625
1373.32088	65137.1625
1376.79254	60967.2625
1380.26186	59130.0625
1383.72883	58909.0625
1387.19347	58884.0625
1390.65578	58306.2625
1394.11575	57879.7625
1397.57339	58006.7625
1401.0287	58486.1625
1404.48168	59176.0625
1407.93234	59534.5625
1411.38068	59326.5625
1414.82669	58397.1625
1418.27039	56989.8625
1421.71177	55433.4625
1425.15083	54329.8625
1428.58758	53967.4625
1432.02203	54438.0625
1435.45416	55607.8625
1438.88399	56791.5625
1442.31151	57642.2625
1445.73673	57876.4625
1449.15965	57886.5625
1452.58027	57691.5625
1455.9986	57453.4625
1459.41463	57652.4625
1462.82837	58442.1625
1466.23982	59365.7625
1469.64898	60140.7625
1473.05586	60711.8625
1476.46045	60851.2625
1479.86276	60608.2625
1483.26279	60291.9625
1486.66054	60143.4625
1490.05602	60412.6625
1493.44922	60837.6625
1496.84016	61176.1625
1500.22882	61793.9625
1503.61521	62609.6625
1506.99934	63670.8625
1510.38121	64365.7625
1513.76081	64291.8625
1517.13816	63183.7625
1520.51324	61772.0625
1523.88607	60616.6625
1527.25665	60109.5625
1530.62498	59999.9625
1533.99105	59888.6625
1537.35488	59431.8625
1540.71647	58572.5625
1544.07581	57578.5625
1547.4329	56634.7625
1550.78776	55856.8625
1554.14038	55310.9625
1557.49077	54932.7625
1560.83892	54748.3625
1564.18484	54637.5625
1567.52853	54596.9625
1570.86999	54793.7625
1574.20922	55366.4625
1577.54624	56090.7625
1580.88103	56559.8625
1584.2136	57117.8625
1587.54395	58413.0625
1590.87208	60659.6625
1594.19801	63492.7625
1597.52172	66164.9625
1600.84321	66908.1625
1604.16251	64615.2625
1607.47959	60740.2625
1610.79447	56729.7625
1614.10715	52970.5625
1617.41763	49836.3625
1620.7259	47743.5625
1624.03199	46721.7625
1627.33587	46736.2625
1630.63757	47832.4625
1633.93707	50132.5625
1637.23439	53833.7625
1640.52951	59160.4625
1643.82246	64878.6625
1647.11321	68883.0625
1650.40179	68722.6625
1653.68819	64016.3625
1656.97241	57021.2625
1660.25446	50706.4625
1663.53433	46271.4625
1666.81203	43401.0625
1670.08756	41646.4625
1673.36092	40500.9625
1676.63211	39735.9625
1679.90115	39193.9625
1683.16801	38780.1625
1686.43272	38450.7625
1689.69527	38272.1625
1692.95567	38032.5625
1696.2139	37871.1625
1699.46999	37768.6625
1702.72392	37716.3625
1705.97571	37689.8625
1709.22535	37626.8625
1712.47284	37618.7625
1715.71819	37634.3625
1718.96139	37550.2625
1722.20246	37468.5625
1725.44139	37357.3625
1728.67818	37153.6625
1731.91284	37007.4625
1735.14537	36874.3625
1738.37576	36713.6625
1741.60403	36597.8625
1744.83017	36495.0625
1748.05418	36419.9625
1751.27607	36384.0625
1754.49584	36274.7625
1757.71349	36292.1625
1760.92903	36226.4625
1764.14244	36233.4625
1767.35375	36255.4625
1770.56294	36209.9625
1773.77002	36190.4625
1776.97499	36161.4625
1780.17785	36080.6625
1783.37861	36014.7625
1786.57727	36032.7625
1789.77382	35968.4625
1792.96828	35931.0625
1796.16064	35855.4625
1799.3509	35816.2625
1802.53907	35728.8625
1805.72514	35726.4625
1808.90913	35620.3625
1812.09102	35578.5625
1815.27083	35544.9625
1818.44856	35495.7625
1821.6242	35495.2625
1824.79776	35469.2625
1827.96924	35451.1625
1831.13864	35446.6625
1834.30597	35510.9625
1837.47122	35503.4625
1840.6344	35504.9625
1843.7955	35531.6625
1846.95454	35482.0625
1850.11151	35511.4625
1853.26642	35502.7625
1856.41926	35391.9625
1859.57004	35418.5625
1862.71876	35409.7625
1865.86542	35330.9625
1869.01003	35327.2625
1872.15258	35231.3625
1875.29308	35265.2625
1878.43152	35209.9625
1881.56792	35208.5625
1884.70227	35142.3625
1887.83457	35143.7625
1890.96482	35096.3625
1894.09304	35012.2625
1897.21921	34985.5625
1900.34335	34983.7625
1903.46544	34922.1625
1906.58551	34853.0625
1909.70353	34815.9625
1912.81953	34810.8625
1915.93349	34665.0625
1919.04543	34633.6625
1922.15534	34609.0625
1925.26322	34555.4625
1928.36908	34426.5625
1931.47292	34395.2625
1934.57473	34280.2625
1937.67453	34212.1625
1940.77232	34156.7625
1943.86808	34069.4625
1946.96184	34023.1625
1950.05358	33918.6625
1953.14331	33867.4625
1956.23103	33755.7625
1959.31675	33688.1625
1962.40046	33592.0625
1965.48217	33533.7625
1968.56188	33428.6625
1971.63959	33354.4625
1974.7153	33238.1625
1977.78901	33140.4625
1980.86073	33081.5625
1983.93046	32968.8625
1986.99819	32856.7625
1990.06394	32767.0625
1993.1277	32694.0625
1996.18947	32543.4625
1999.24925	32541.0625
2002.30706	32372.8625
2005.36288	32324.2625
2008.41672	32275.0625
2011.46859	32191.6625
2014.51848	32074.5625
2017.56639	32007.4625
2020.61233	31929.3625
2023.6563	31881.4625
2026.6983	31865.0625
2029.73833	31819.9625
2032.7764	31739.8625
2035.8125	31650.8625
2038.84664	31625.0625
2041.87881	31614.6625
2044.90903	31492.2625
2047.93729	31462.9625
2050.96359	31448.2625
2053.98794	31428.3625
2057.01034	31389.6625
2060.03078	31376.2625
2063.04927	31326.4625
2066.06582	31312.5625
2069.08042	31352.7625
2072.09307	31270.0625
2075.10378	31232.8625
2078.11255	31210.4625
2081.11938	31217.6625
2084.12426	31231.7625
2087.12722	31208.3625
2090.12824	31194.6625
2093.12732	31219.3625
2096.12447	31250.8625
2099.11969	31269.7625
2102.11299	31265.1625
2105.10435	31317.3625
2108.09379	31323.7625
2111.08131	31375.9625
2114.0669	31376.9625
2117.05057	31439.0625
2120.03233	31420.2625
2123.01216	31424.8625
2125.99008	31491.9625
2128.96609	31474.7625
2131.94018	31535.4625
2134.91236	31528.1625
2137.88263	31575.3625
2140.851	31563.7625
2143.81746	31606.4625
2146.78201	31597.2625
2149.74466	31681.6625
2152.7054	31626.1625
2155.66425	31640.4625
2158.6212	31652.8625
2161.57625	31634.0625
2164.52941	31659.1625
2167.48067	31613.4625
2170.43004	31658.9625
2173.37752	31639.4625
2176.32311	31649.9625
2179.26681	31666.4625
2182.20863	31607.6625
2185.14856	31657.8625
2188.08661	31611.7625
2191.02278	31644.2625
2193.95707	31625.1625
2196.88948	31594.9625
2199.82001	31639.1625
2202.74867	31561.2625
2205.67545	31573.7625
2208.60037	31539.3625
2211.52341	31486.1625
2214.44458	31405.4625
2217.36388	31350.4625
2220.28132	31312.8625
2223.1969	31270.5625
2226.11061	31229.8625
2229.02246	31162.3625
2231.93245	31171.3625
2234.84058	31099.4625
2237.74686	31065.0625
2240.65128	31052.4625
2243.55385	30970.2625
2246.45456	30927.9625
2249.35343	30898.1625
2252.25044	30873.8625
2255.14561	30860.7625
2258.03893	30779.6625
2260.93041	30728.8625
2263.82004	30654.0625
2266.70783	30583.5625
2269.59378	30559.0625
2272.4779	30527.8625
2275.36017	30455.5625
2278.24061	30406.3625
2281.11922	30327.7625
2283.996	30326.7625
2286.87094	30288.7625
2289.74405	30211.0625
2292.61534	30221.5625
2295.4848	30186.8625
2298.35243	30185.5625
2301.21824	30154.6625
2304.08223	30198.5625
2306.94439	30164.5625
2309.80474	30154.1625
2312.66327	30132.3625
2315.51999	30100.6625
2318.37489	30120.0625
2321.22797	30097.6625
2324.07925	30043.8625
2326.92871	30004.6625
2329.77637	29966.4625
2332.62222	29914.5625
2335.46626	29894.9625
2338.3085	29852.0625
2341.14893	29887.9625
2343.98756	29839.9625
2346.8244	29854.2625
2349.65943	29867.3625
2352.49267	29778.1625
2355.32411	29802.4625
2358.15376	29755.6625
2360.98161	29747.7625
2363.80768	29680.9625
2366.63195	29697.5625
2369.45444	29658.7625
2372.27514	29604.9625
2375.09405	29625.8625
2377.91118	29544.9625
2380.72652	29517.3625
2383.54009	29453.7625
2386.35187	29400.6625
2389.16188	29353.3625
2391.97011	29344.4625
2394.77657	29265.3625
2397.58125	29243.4625
2400.38416	29203.6625
2403.18529	29133.5625
2405.98466	29174.6625
2408.78226	29098.1625
2411.57809	29082.2625
2414.37216	29039.1625
2417.16446	29052.2625
2419.955	28962.2625
2422.74378	28954.9625
2425.5308	28928.7625
2428.31606	28916.3625
2431.09956	28921.7625
2433.88131	28862.7625
2436.6613	28902.7625
2439.43954	28856.8625
2442.21603	28896.1625
2444.99077	28861.0625
2447.76377	28862.7625
2450.53501	28825.5625
2453.30451	28825.7625
2456.07226	28848.8625
2458.83827	28800.1625
2461.60254	28724.4625
2464.36507	28729.4625
2467.12586	28701.2625
2469.88492	28710.1625
2472.64224	28704.8625
2475.39782	28684.8625
2478.15167	28692.9625
2480.90379	28665.0625
2483.65417	28658.3625
2486.40283	28643.2625
2489.14976	28671.4625
2491.89497	28612.4625
2494.63845	28640.0625
2497.3802	28598.9625
2500.12024	28606.8625
2502.85855	28629.3625
2505.59514	28607.2625
2508.33002	28573.0625
2511.06318	28495.1625
2513.79462	28482.3625
2516.52435	28518.5625
2519.25237	28469.1625
2521.97867	28484.8625
2524.70327	28423.0625
2527.42616	28354.4625
2530.14734	28395.4625
2532.86681	28403.9625
2535.58458	28424.7625
2538.30065	28339.9625
2541.01501	28291.2625
2543.72768	28226.1625
2546.43864	28231.8625
2549.14791	28176.8625
2551.85548	28150.3625
2554.56136	28144.2625
2557.26554	28092.4625
2559.96803	28063.2625
2562.66883	28026.4625
2565.36794	28036.9625
2568.06536	28020.0625
2570.7611	27978.3625
2573.45514	27958.9625
2576.14751	27887.8625
2578.83819	27867.2625
2581.52719	27836.7625
2584.21451	27826.9625
2586.90015	27774.4625
2589.58411	27753.5625
2592.2664	27725.9625
2594.94701	27679.5625
2597.62594	27655.8625
2600.30321	27598.5625
2602.9788	27622.3625
2605.65273	27553.1625
2608.32498	27577.1625
2610.99557	27526.3625
2613.66449	27547.8625
2616.33175	27505.8625
2618.99734	27532.8625
2621.66128	27429.5625
2624.32355	27441.7625
2626.98416	27384.1625
2629.64311	27376.4625
2632.30041	27383.8625
2634.95605	27348.8625
2637.61004	27321.4625
2640.26238	27278.3625
2642.91306	27277.8625
2645.56209	27278.3625
2648.20948	27232.1625
2650.85521	27246.6625
2653.4993	27230.9625
2656.14175	27243.7625
2658.78255	27300.4625
2661.42171	27269.4625
2664.05923	27306.2625
2666.6951	27274.6625
2669.32934	27283.6625
2671.96194	27305.0625
2674.59291	27288.5625
2677.22224	27313.6625
2679.84993	27306.7625
2682.476	27281.1625
2685.10043	27283.5625
2687.72324	27308.4625
2690.34441	27307.4625
2692.96396	27236.6625
2695.58188	27277.7625
2698.19818	27247.7625
2700.81285	27266.9625
2703.4259	27205.3625
2706.03733	27263.1625
2708.64714	27304.6625
2711.25533	27353.5625
2713.86191	27295.1625
2716.46687	27292.2625
2719.07021	27284.8625
2721.67194	27336.8625
2724.27206	27276.6625
2726.87057	27318.3625
2729.46747	27277.4625
2732.06276	27340.0625
2734.65644	27342.0625
2737.24852	27315.3625
2739.83899	27313.6625
2742.42786	27297.2625
2745.01513	27276.5625
2747.60079	27251.3625
2750.18486	27246.3625
2752.76733	27234.0625
2755.3482	27182.5625
2757.92747	27209.2625
2760.50515	27177.0625
2763.08123	27159.1625
2765.65573	27108.1625
2768.22863	27074.5625
2770.79994	27081.5625
2773.36967	27094.4625
2775.9378	27060.2625
2778.50435	27035.4625
2781.06932	27006.9625
2783.6327	26976.2625
2786.1945	26932.1625
2788.75471	26937.7625
2791.31335	26821.6625
2793.87041	26832.1625
2796.42589	26746.0625
2798.97979	26769.1625
2801.53212	26674.4625
2804.08288	26650.8625
2806.63206	26590.7625
2809.17967	26503.6625
2811.72571	26475.5625
2814.27018	26459.2625
2816.81308	26435.4625
2819.35442	26397.4625
2821.89419	26278.5625
2824.43239	26285.4625
2826.96904	26275.0625
2829.50412	26256.8625
2832.03763	26194.0625
2834.56959	26175.1625
2837.1	26128.1625
2839.62884	26150.3625
2842.15613	26083.3625
2844.68186	26092.0625
2847.20604	26083.3625
2849.72867	26060.6625
2852.24974	26038.5625
2854.76927	26011.8625
2857.28724	25950.2625
2859.80367	25923.5625
2862.31855	25933.0625
2864.83189	25924.9625
2867.34368	25882.9625
2869.85393	25926.8625
2872.36264	25865.1625
2874.8698	25878.5625
2877.37543	25872.6625
2879.87952	25858.5625
2882.38207	25927.8625
2884.88308	25887.3625
2887.38256	25909.7625
2889.88051	25905.6625
2892.37692	25924.4625
2894.8718	25903.8625
2897.36515	25933.8625
2899.85698	25898.7625
2902.34727	26023.2625
2904.83604	25968.5625
2907.32328	26034.2625
2909.809	25974.7625
2912.29319	25971.5625
2914.77587	25980.4625
2917.25702	25996.0625
2919.73665	25955.6625
2922.21476	25973.5625
2924.69136	25922.0625
2927.16644	25885.7625
2929.64	25843.4625
2932.11205	25837.1625
2934.58258	25773.1625
2937.05161	25829.9625
2939.51912	25835.2625
2941.98513	25821.1625
2944.44962	25763.4625
2946.91261	25652.4625
2949.37409	25714.2625
2951.83407	25696.9625
2954.29254	25672.9625
2956.74951	25639.8625
2959.20498	25605.6625
2961.65895	25593.4625
2964.11142	25520.8625
2966.56239	25465.8625
2969.01186	25499.0625
2971.45984	25439.7625
2973.90632	25417.7625
2976.35131	25396.5625
2978.7948	25375.8625
2981.23681	25253.8625
2983.67732	25246.6625
2986.11635	25169.1625
2988.55388	25122.5625
2990.98993	25067.7625
2993.4245	25006.6625
2995.85758	25006.7625
2998.28917	24879.2625
3000.71928	24900.5625
3003.14791	24883.4625
3005.57506	24829.3625
3008.00073	24801.1625
3010.42493	24737.2625
3012.84764	24708.4625
3015.26888	24699.4625
3017.68865	24677.9625
3020.10694	24650.1625
3022.52376	24551.5625
3024.9391	24535.4625
3027.35298	24488.4625
3029.76539	24438.4625
3032.17632	24417.8625
3034.5858	24367.0625
3036.9938	24363.6625
3039.40034	24294.7625
3041.80542	24314.5625
3044.20903	24280.7625
3046.61118	24231.1625
3049.01187	24193.5625
3051.4111	24185.8625
3053.80888	24138.6625
3056.20519	24080.7625
3058.60005	24013.2625
3060.99345	23991.0625
3063.3854	23931.3625
3065.7759	23901.0625
3068.16494	23867.1625
3070.55254	23747.2625
3072.93868	23734.5625
3075.32338	23650.1625
3077.70662	23636.0625
3080.08842	23613.0625
3082.46878	23591.3625
3084.84769	23537.2625
3087.22515	23500.6625
3089.60118	23518.2625
3091.97576	23488.5625
3094.3489	23505.4625
3096.72061	23510.9625
3099.09087	23471.7625
3101.4597	23470.1625
3103.82709	23428.0625
3106.19305	23365.1625
3108.55757	23339.8625
3110.92066	23263.7625
3113.28232	23243.9625
3115.64255	23177.4625
3118.00134	23115.4625
3120.35871	23086.7625
3122.71466	23045.6625
3125.06917	23030.3625
3127.42226	22946.8625
3129.77393	22917.4625
3132.12417	22873.0625
3134.47299	22910.6625
3136.82039	22899.4625
3139.16636	22950.5625
3141.51092	22904.1625
3143.85406	22940.3625
3146.19579	22936.8625
3148.53609	22908.3625
3150.87499	22907.5625
3153.21246	22911.0625
3155.54853	22901.6625
3157.88318	22847.4625
3160.21642	22859.9625
3162.54826	22846.7625
3164.87868	22816.4625
3167.2077	22818.8625
3169.5353	22777.5625
3171.86151	22772.0625
3174.18631	22771.4625
3176.5097	22682.3625
3178.83169	22668.9625
3181.15228	22664.8625
3183.47147	22604.9625
3185.78926	22611.3625
3188.10565	22577.9625
3190.42065	22557.4625
3192.73424	22590.7625
3195.04645	22549.1625
3197.35725	22564.0625
3199.66667	22511.6625
3201.97469	22549.5625
3204.28132	22575.2625
3206.58656	22580.9625
3208.8904	22551.0625
3211.19287	22575.1625
3213.49394	22522.6625
3215.79363	22500.2625
3218.09193	22522.6625
3220.38884	22462.0625
3222.68438	22438.9625
3224.97853	22401.7625
3227.2713	22429.5625
3229.56269	22389.0625
3231.8527	22345.1625
3234.14133	22298.2625
3236.42858	22264.7625
3238.71446	22220.4625
3240.99896	22219.9625
3243.28209	22215.0625
3245.56384	22192.1625
3247.84423	22201.5625
3250.12324	22220.8625
3252.40088	22194.8625
3254.67715	22157.2625
3256.95205	22090.6625
3259.22558	22039.6625
3261.49775	22028.3625
3263.76855	21980.7625
3266.03799	21905.7625
3268.30606	21892.0625
3270.57277	21835.1625
3272.83812	21837.2625
3275.10211	21800.0625
3277.36474	21772.1625
3279.62601	21801.0625
3281.88593	21769.9625
3284.14448	21791.9625
3286.40168	21728.4625
3288.65753	21752.3625
3290.91202	21687.2625
3293.16516	21578.2625
3295.41695	21562.4625
3297.66738	21394.0625
3299.91647	21320.2625
3302.16421	21201.8625
3304.4106	21127.6625
3306.65564	20988.1625
3308.89933	20899.2625
3311.14169	20762.4625
3313.38269	20571.8625
3315.62236	20499.6625
3317.86068	20335.2625
3320.09766	20081.0625
3322.3333	19934.3625
3324.5676	19930.2625
3326.80056	19570.2625
3329.03219	19481.9625
3331.26248	4.6625
3333.49143	1.3625
3335.71905	-0.4375
