Data from AgNPs_FTO_APTES_UA_50uM_CRN_5uM_R6G_10uM_NaF_0.1M_Addition_RamanShift__32__13-09-54-852.txt Node

Date: Mon Feb 21 13:09:54 GMT 2022
User: TCL
Spectrometer: QEP01345
Trigger mode: 4
Integration Time (sec): 7.000000E0
Scans to average: 10
Electric dark correction enabled: true
Nonlinearity correction enabled: false
Boxcar width: 0
XAxis mode: Raman Shifts
Number of Pixels in Spectrum: 1044
>>>>>Begin Spectral Data<<<<<
46.04893	0.5625
50.45542	0.5625
54.85868	-0.7375
59.25871	-2.5375
63.6555	43.5625
68.04907	48.0625
72.43941	49.1625
76.82654	53.1625
81.21044	58.6625
85.59113	60.6625
89.96862	62.2625
94.34289	68.0625
98.71396	63.1625
103.08183	71.3625
107.4465	71.8625
111.80798	70.7625
116.16626	70.9625
120.52136	68.1625
124.87327	77.9625
129.222	76.1625
133.56755	79.0625
137.90993	87.0625
142.24913	92.3625
146.58517	103.2625
150.91804	116.7625
155.24774	135.0625
159.57429	167.2625
163.89768	211.0625
168.21792	283.4625
172.53501	373.1625
176.84895	529.4625
181.15975	731.5625
185.46741	1025.2625
189.77193	1423.0625
194.07331	1905.2625
198.37157	2480.2625
202.6667	3068.5625
206.9587	3671.8625
211.24758	4287.9625
215.53334	4987.1625
219.81599	5785.0625
224.09553	6738.4625
228.37195	7817.3625
232.64527	8941.0625
236.91549	10000.4625
241.18261	10913.0625
245.44663	11553.8625
249.70755	12003.6625
253.96539	12264.0625
258.22014	12416.3625
262.4718	12479.9625
266.72039	12462.1625
270.96589	12276.5625
275.20832	11922.3625
279.44768	11474.2625
283.68397	11041.7625
287.91719	10872.5625
292.14735	11049.1625
296.37445	11731.1625
300.59849	12910.6625
304.81948	14364.2625
309.03742	15496.7625
313.25231	15642.7625
317.46415	14427.1625
321.67296	12362.5625
325.87872	10658.7625
330.08145	9894.4625
334.28114	9919.1625
338.47781	10295.2625
342.67145	10907.3625
346.86207	11875.0625
351.04966	13363.7625
355.23424	15058.5625
359.4158	16301.2625
363.59435	16681.1625
367.76989	16639.1625
371.94243	16260.7625
376.11196	15867.2625
380.27849	15478.0625
384.44203	14940.7625
388.60257	14307.8625
392.76012	13886.3625
396.91468	13877.2625
401.06626	14361.5625
405.21485	14661.0625
409.36047	13927.0625
413.50311	12324.5625
417.64277	10759.2625
421.77947	9829.2625
425.9132	9344.0625
430.04396	9159.1625
434.17176	9194.3625
438.2966	9433.1625
442.41849	9875.9625
446.53742	10379.9625
450.6534	10758.2625
454.76644	10852.8625
458.87653	10737.9625
462.98368	10483.2625
467.08789	10082.4625
471.18916	9650.4625
475.2875	9151.6625
479.38291	8703.4625
483.4754	8458.0625
487.56496	8276.8625
491.6516	8200.8625
495.73531	8203.6625
499.81612	8309.1625
503.89401	8581.8625
507.96899	8983.7625
512.04106	9485.5625
516.11023	10062.3625
520.1765	10410.3625
524.23987	10374.2625
528.30034	9986.6625
532.35792	9534.7625
536.41261	9096.9625
540.46441	8566.3625
544.51333	8244.0625
548.55936	8280.6625
552.60252	8595.3625
556.64279	9060.0625
560.6802	9277.8625
564.71473	9820.6625
568.7464	11005.7625
572.7752	11422.1625
576.80114	10183.5625
580.82422	8889.2625
584.84444	8315.7625
588.86181	8166.8625
592.87633	8192.9625
596.888	8433.9625
600.89682	9323.6625
604.9028	12437.1625
608.90594	20957.9625
612.90624	32310.4625
616.90371	30473.2625
620.89834	16671.9625
624.89015	10227.4625
628.87913	9094.6625
632.86528	9431.1625
636.84862	9985.6625
640.82913	9588.8625
644.80683	8439.5625
648.78172	7682.4625
652.75379	7741.2625
656.72306	8707.0625
660.68952	9883.0625
664.65319	9412.9625
668.61405	8066.0625
672.57211	7429.5625
676.52738	7390.9625
680.47986	7374.3625
684.42955	7165.3625
688.37646	7012.7625
692.32058	7067.2625
696.26192	7224.0625
700.20048	7477.3625
704.13626	7607.2625
708.06928	7496.3625
711.99952	7333.2625
715.927	7328.2625
719.85171	7526.5625
723.77365	7622.1625
727.69284	7500.5625
731.60928	7351.2625
735.52295	7323.8625
739.43388	7351.2625
743.34206	7433.6625
747.24749	7440.3625
751.15017	7477.4625
755.05012	7802.7625
758.94733	8923.0625
762.8418	11787.4625
766.73354	16352.7625
770.62254	20720.7625
774.50882	23302.8625
778.39237	22633.8625
782.27321	17844.4625
786.15132	12543.9625
790.02671	9542.2625
793.89938	8271.7625
797.76935	7765.5625
801.6366	7557.6625
805.50115	7427.8625
809.36299	7380.0625
813.22213	7309.8625
817.07857	7242.1625
820.93231	7212.4625
824.78336	7272.0625
828.63172	7400.5625
832.47738	7436.6625
836.32036	7327.9625
840.16066	7141.1625
843.99827	7021.3625
847.8332	6953.3625
851.66546	6944.8625
855.49504	6967.1625
859.32195	6959.4625
863.1462	6868.1625
866.96777	6813.2625
870.78668	6802.8625
874.60293	6869.0625
878.41652	6981.7625
882.22745	7152.7625
886.03573	7257.3625
889.84136	7248.7625
893.64433	7179.0625
897.44466	7216.1625
901.24235	7204.6625
905.0374	7088.7625
908.8298	6892.1625
912.61957	6749.0625
916.40671	6714.1625
920.19121	6754.8625
923.97308	6921.6625
927.75233	7254.3625
931.52895	7677.2625
935.30295	7507.0625
939.07433	6931.9625
942.84309	6424.3625
946.60924	6140.1625
950.37278	6016.7625
954.13371	5976.0625
957.89203	5951.0625
961.64774	5923.2625
965.40086	5913.8625
969.15137	5875.2625
972.89929	5868.0625
976.64461	5860.9625
980.38733	5873.7625
984.12747	5872.4625
987.86502	5917.7625
991.59999	5955.0625
995.33237	6068.3625
999.06217	6256.4625
1002.78939	6506.9625
1006.51404	6803.8625
1010.23611	7156.0625
1013.95561	7254.9625
1017.67255	7182.3625
1021.38692	7007.9625
1025.09872	6741.8625
1028.80796	6598.7625
1032.51465	6578.7625
1036.21877	6720.0625
1039.92035	6913.4625
1043.61937	7037.8625
1047.31584	7085.6625
1051.00976	7017.5625
1054.70114	6899.2625
1058.38998	6830.5625
1062.07627	6821.9625
1065.76003	6840.9625
1069.44126	6891.2625
1073.11995	7090.6625
1076.79611	7429.9625
1080.46974	8038.2625
1084.14085	8802.0625
1087.80943	9479.8625
1091.47549	9572.2625
1095.13903	9061.0625
1098.80005	8242.7625
1102.45857	7701.4625
1106.11456	7650.6625
1109.76805	8009.8625
1113.41903	8699.9625
1117.06751	9811.3625
1120.71348	11294.0625
1124.35696	12995.6625
1127.99793	13994.9625
1131.63641	13119.0625
1135.2724	11216.0625
1138.90589	9722.4625
1142.5369	8821.3625
1146.16542	8248.1625
1149.79145	7928.8625
1153.415	7796.8625
1157.03607	7933.5625
1160.65467	8246.3625
1164.27079	8879.9625
1167.88443	9931.2625
1171.49561	11629.1625
1175.10432	14626.9625
1178.71056	18703.9625
1182.31434	21775.1625
1185.91565	22173.2625
1189.51451	20608.0625
1193.11091	18112.8625
1196.70485	15659.1625
1200.29634	14110.8625
1203.88538	12865.4625
1207.47197	11122.6625
1211.05612	9615.3625
1214.63782	8725.3625
1218.21708	8288.4625
1221.79391	8117.9625
1225.36829	8130.6625
1228.94024	8125.7625
1232.50976	8122.5625
1236.07685	8193.9625
1239.6415	8327.9625
1243.20374	8462.5625
1246.76355	8558.9625
1250.32093	8722.2625
1253.8759	9099.7625
1257.42845	9623.0625
1260.97859	10333.8625
1264.52631	11157.5625
1268.07163	11914.1625
1271.61453	12446.3625
1275.15503	12682.4625
1278.69312	12667.1625
1282.22882	12780.5625
1285.76211	13465.6625
1289.29301	14427.2625
1292.82151	15363.8625
1296.34761	16416.0625
1299.87133	18254.1625
1303.39266	21627.2625
1306.9116	26781.0625
1310.42815	31857.1625
1313.94233	32891.2625
1317.45412	29304.7625
1320.96354	24165.0625
1324.47058	19578.2625
1327.97525	16281.0625
1331.47754	14556.9625
1334.97747	14088.9625
1338.47502	14585.9625
1341.97022	16085.2625
1345.46305	18700.7625
1348.95352	22213.9625
1352.44163	26512.7625
1355.92738	32728.0625
1359.41078	41544.6625
1362.89183	47481.6625
1366.37053	42874.3625
1369.84688	32603.8625
1373.32088	24205.5625
1376.79254	19094.9625
1380.26186	16164.8625
1383.72883	14228.1625
1387.19347	12675.3625
1390.65578	11283.4625
1394.11575	10329.1625
1397.57339	9823.7625
1401.0287	9668.3625
1404.48168	9662.9625
1407.93234	9711.3625
1411.38068	9891.6625
1414.82669	10134.2625
1418.27039	10289.4625
1421.71177	10182.0625
1425.15083	10011.6625
1428.58758	10089.1625
1432.02203	10352.0625
1435.45416	10504.8625
1438.88399	10414.2625
1442.31151	10358.7625
1445.73673	10378.7625
1449.15965	10470.4625
1452.58027	10354.0625
1455.9986	10104.3625
1459.41463	10059.6625
1462.82837	10353.0625
1466.23982	10883.6625
1469.64898	11316.7625
1473.05586	11487.6625
1476.46045	11651.3625
1479.86276	12010.9625
1483.26279	12662.1625
1486.66054	13577.2625
1490.05602	14927.0625
1493.44922	17035.1625
1496.84016	20430.5625
1500.22882	25805.8625
1503.61521	33192.8625
1506.99934	41225.3625
1510.38121	46945.2625
1513.76081	46779.4625
1517.13816	40240.5625
1520.51324	30996.4625
1523.88607	23251.0625
1527.25665	18606.0625
1530.62498	16035.0625
1533.99105	14622.1625
1537.35488	13715.6625
1540.71647	13333.1625
1544.07581	13367.7625
1547.4329	13582.6625
1550.78776	13863.7625
1554.14038	14091.9625
1557.49077	14313.8625
1560.83892	14852.4625
1564.18484	16017.9625
1567.52853	17595.4625
1570.86999	18865.9625
1574.20922	19461.9625
1577.54624	18954.0625
1580.88103	16610.8625
1584.2136	13723.5625
1587.54395	11987.2625
1590.87208	11751.5625
1594.19801	12702.4625
1597.52172	14196.5625
1600.84321	14696.7625
1604.16251	13900.8625
1607.47959	12563.7625
1610.79447	11190.2625
1614.10715	9874.0625
1617.41763	8925.1625
1620.7259	8409.2625
1624.03199	8239.9625
1627.33587	8369.1625
1630.63757	8809.0625
1633.93707	9647.2625
1637.23439	11127.4625
1640.52951	13660.9625
1643.82246	17687.2625
1647.11321	22685.9625
1650.40179	25994.1625
1653.68819	24505.5625
1656.97241	19209.5625
1660.25446	13934.8625
1663.53433	10514.7625
1666.81203	8640.5625
1670.08756	7620.1625
1673.36092	7017.9625
1676.63211	6638.2625
1679.90115	6369.0625
1683.16801	6166.0625
1686.43272	6008.1625
1689.69527	5901.0625
1692.95567	5786.7625
1696.2139	5652.4625
1699.46999	5555.6625
1702.72392	5512.9625
1705.97571	5572.5625
1709.22535	5681.5625
1712.47284	5750.5625
1715.71819	5769.5625
1718.96139	5783.5625
1722.20246	5720.8625
1725.44139	5635.2625
1728.67818	5517.9625
1731.91284	5405.9625
1735.14537	5330.8625
1738.37576	5265.0625
1741.60403	5225.6625
1744.83017	5166.8625
1748.05418	5116.9625
1751.27607	5077.8625
1754.49584	5005.9625
1757.71349	4928.2625
1760.92903	4850.9625
1764.14244	4827.8625
1767.35375	4795.8625
1770.56294	4753.0625
1773.77002	4723.8625
1776.97499	4730.6625
1780.17785	4746.1625
1783.37861	4741.8625
1786.57727	4717.5625
1789.77382	4718.6625
1792.96828	4714.3625
1796.16064	4717.8625
1799.3509	4697.1625
1802.53907	4678.7625
1805.72514	4661.2625
1808.90913	4634.0625
1812.09102	4616.6625
1815.27083	4576.0625
1818.44856	4558.4625
1821.6242	4542.1625
1824.79776	4524.2625
1827.96924	4507.3625
1831.13864	4487.2625
1834.30597	4483.1625
1837.47122	4452.8625
1840.6344	4450.1625
1843.7955	4424.2625
1846.95454	4439.3625
1850.11151	4417.1625
1853.26642	4418.1625
1856.41926	4410.5625
1859.57004	4430.9625
1862.71876	4419.9625
1865.86542	4429.0625
1869.01003	4424.3625
1872.15258	4424.8625
1875.29308	4421.9625
1878.43152	4438.0625
1881.56792	4430.9625
1884.70227	4439.7625
1887.83457	4414.7625
1890.96482	4429.0625
1894.09304	4426.7625
1897.21921	4431.7625
1900.34335	4424.8625
1903.46544	4419.9625
1906.58551	4425.3625
1909.70353	4442.9625
1912.81953	4433.8625
1915.93349	4440.7625
1919.04543	4417.9625
1922.15534	4380.3625
1925.26322	4367.6625
1928.36908	4345.7625
1931.47292	4282.7625
1934.57473	4268.8625
1937.67453	4244.1625
1940.77232	4206.9625
1943.86808	4191.8625
1946.96184	4188.8625
1950.05358	4176.0625
1953.14331	4156.7625
1956.23103	4117.0625
1959.31675	4136.1625
1962.40046	4123.4625
1965.48217	4111.8625
1968.56188	4135.2625
1971.63959	4131.8625
1974.7153	4126.2625
1977.78901	4101.3625
1980.86073	4070.5625
1983.93046	4053.2625
1986.99819	4011.8625
1990.06394	3975.9625
1993.1277	3965.5625
1996.18947	3939.7625
1999.24925	3926.4625
2002.30706	3911.7625
2005.36288	3881.9625
2008.41672	3866.7625
2011.46859	3856.0625
2014.51848	3848.1625
2017.56639	3830.6625
2020.61233	3818.2625
2023.6563	3800.0625
2026.6983	3780.1625
2029.73833	3787.1625
2032.7764	3766.5625
2035.8125	3752.4625
2038.84664	3764.9625
2041.87881	3756.3625
2044.90903	3738.2625
2047.93729	3744.6625
2050.96359	3722.2625
2053.98794	3706.7625
2057.01034	3719.7625
2060.03078	3696.2625
2063.04927	3686.5625
2066.06582	3671.5625
2069.08042	3664.2625
2072.09307	3671.7625
2075.10378	3661.9625
2078.11255	3654.5625
2081.11938	3659.9625
2084.12426	3668.4625
2087.12722	3650.1625
2090.12824	3656.0625
2093.12732	3645.5625
2096.12447	3662.9625
2099.11969	3642.7625
2102.11299	3659.4625
2105.10435	3656.3625
2108.09379	3665.1625
2111.08131	3654.9625
2114.0669	3663.8625
2117.05057	3662.2625
2120.03233	3686.2625
2123.01216	3681.0625
2125.99008	3705.5625
2128.96609	3691.8625
2131.94018	3705.7625
2134.91236	3701.2625
2137.88263	3695.0625
2140.851	3674.0625
2143.81746	3690.1625
2146.78201	3665.5625
2149.74466	3642.1625
2152.7054	3634.6625
2155.66425	3620.2625
2158.6212	3619.2625
2161.57625	3609.9625
2164.52941	3609.0625
2167.48067	3595.0625
2170.43004	3592.7625
2173.37752	3601.4625
2176.32311	3607.4625
2179.26681	3618.8625
2182.20863	3618.7625
2185.14856	3606.3625
2188.08661	3608.5625
2191.02278	3599.7625
2193.95707	3600.2625
2196.88948	3570.9625
2199.82001	3564.2625
2202.74867	3562.0625
2205.67545	3560.6625
2208.60037	3552.1625
2211.52341	3552.3625
2214.44458	3556.3625
2217.36388	3538.1625
2220.28132	3527.5625
2223.1969	3505.9625
2226.11061	3496.0625
2229.02246	3485.4625
2231.93245	3486.5625
2234.84058	3474.1625
2237.74686	3464.4625
2240.65128	3470.9625
2243.55385	3485.4625
2246.45456	3479.1625
2249.35343	3470.9625
2252.25044	3509.0625
2255.14561	3509.8625
2258.03893	3507.1625
2260.93041	3516.6625
2263.82004	3524.6625
2266.70783	3529.1625
2269.59378	3514.4625
2272.4779	3493.3625
2275.36017	3512.7625
2278.24061	3479.6625
2281.11922	3493.0625
2283.996	3460.9625
2286.87094	3443.0625
2289.74405	3445.1625
2292.61534	3400.6625
2295.4848	3388.9625
2298.35243	3394.1625
2301.21824	3367.9625
2304.08223	3376.7625
2306.94439	3371.6625
2309.80474	3374.4625
2312.66327	3376.4625
2315.51999	3372.0625
2318.37489	3363.8625
2321.22797	3362.8625
2324.07925	3368.9625
2326.92871	3356.1625
2329.77637	3348.3625
2332.62222	3338.1625
2335.46626	3335.0625
2338.3085	3351.9625
2341.14893	3348.2625
2343.98756	3360.1625
2346.8244	3361.5625
2349.65943	3382.0625
2352.49267	3416.2625
2355.32411	3423.9625
2358.15376	3453.2625
2360.98161	3464.4625
2363.80768	3490.2625
2366.63195	3514.2625
2369.45444	3542.4625
2372.27514	3545.6625
2375.09405	3548.0625
2377.91118	3532.2625
2380.72652	3497.6625
2383.54009	3462.7625
2386.35187	3444.3625
2389.16188	3388.1625
2391.97011	3367.3625
2394.77657	3328.4625
2397.58125	3314.1625
2400.38416	3303.4625
2403.18529	3289.4625
2405.98466	3275.1625
2408.78226	3246.6625
2411.57809	3248.0625
2414.37216	3233.5625
2417.16446	3240.9625
2419.955	3240.0625
2422.74378	3243.9625
2425.5308	3239.7625
2428.31606	3259.0625
2431.09956	3263.0625
2433.88131	3257.4625
2436.6613	3272.0625
2439.43954	3280.5625
2442.21603	3281.9625
2444.99077	3293.6625
2447.76377	3308.8625
2450.53501	3309.2625
2453.30451	3325.1625
2456.07226	3328.3625
2458.83827	3332.7625
2461.60254	3329.1625
2464.36507	3320.7625
2467.12586	3324.8625
2469.88492	3324.1625
2472.64224	3327.4625
2475.39782	3317.9625
2478.15167	3338.3625
2480.90379	3385.8625
2483.65417	3410.4625
2486.40283	3435.9625
2489.14976	3485.0625
2491.89497	3496.5625
2494.63845	3492.0625
2497.3802	3468.2625
2500.12024	3466.7625
2502.85855	3429.4625
2505.59514	3394.7625
2508.33002	3363.6625
2511.06318	3316.4625
2513.79462	3274.8625
2516.52435	3245.0625
2519.25237	3221.0625
2521.97867	3176.3625
2524.70327	3175.0625
2527.42616	3158.3625
2530.14734	3156.0625
2532.86681	3144.9625
2535.58458	3151.5625
2538.30065	3153.4625
2541.01501	3162.2625
2543.72768	3168.8625
2546.43864	3176.4625
2549.14791	3184.9625
2551.85548	3184.5625
2554.56136	3185.6625
2557.26554	3195.8625
2559.96803	3188.4625
2562.66883	3191.8625
2565.36794	3193.9625
2568.06536	3189.4625
2570.7611	3163.6625
2573.45514	3155.4625
2576.14751	3162.6625
2578.83819	3145.4625
2581.52719	3125.8625
2584.21451	3123.1625
2586.90015	3109.0625
2589.58411	3112.4625
2592.2664	3108.1625
2594.94701	3108.9625
2597.62594	3110.9625
2600.30321	3111.0625
2602.9788	3102.3625
2605.65273	3116.4625
2608.32498	3114.5625
2610.99557	3111.2625
2613.66449	3128.2625
2616.33175	3130.2625
2618.99734	3128.3625
2621.66128	3117.7625
2624.32355	3103.3625
2626.98416	3100.8625
2629.64311	3090.6625
2632.30041	3076.0625
2634.95605	3065.6625
2637.61004	3046.2625
2640.26238	3039.5625
2642.91306	3030.7625
2645.56209	3036.0625
2648.20948	3011.5625
2650.85521	3013.6625
2653.4993	3030.1625
2656.14175	3028.3625
2658.78255	3040.8625
2661.42171	3059.2625
2664.05923	3087.6625
2666.6951	3086.2625
2669.32934	3097.8625
2671.96194	3112.1625
2674.59291	3115.1625
2677.22224	3112.5625
2679.84993	3121.7625
2682.476	3117.7625
2685.10043	3089.3625
2687.72324	3094.3625
2690.34441	3093.0625
2692.96396	3104.3625
2695.58188	3098.7625
2698.19818	3092.1625
2700.81285	3090.5625
2703.4259	3068.5625
2706.03733	3005.6625
2708.64714	3035.5625
2711.25533	3080.7625
2713.86191	3081.7625
2716.46687	3123.8625
2719.07021	3128.4625
2721.67194	3128.3625
2724.27206	3148.4625
2726.87057	3139.7625
2729.46747	3132.2625
2732.06276	3134.8625
2734.65644	3121.8625
2737.24852	3103.1625
2739.83899	3095.9625
2742.42786	3078.4625
2745.01513	3068.1625
2747.60079	3062.8625
2750.18486	3057.6625
2752.76733	3039.5625
2755.3482	3034.4625
2757.92747	3027.6625
2760.50515	3030.0625
2763.08123	3022.0625
2765.65573	3018.8625
2768.22863	3010.0625
2770.79994	3006.9625
2773.36967	3021.5625
2775.9378	3025.8625
2778.50435	3021.4625
2781.06932	3037.4625
2783.6327	3031.2625
2786.1945	3037.1625
2788.75471	3055.9625
2791.31335	3058.7625
2793.87041	3061.1625
2796.42589	3069.1625
2798.97979	3082.8625
2801.53212	3074.9625
2804.08288	3096.6625
2806.63206	3117.4625
2809.17967	3115.4625
2811.72571	3149.5625
2814.27018	3156.1625
2816.81308	3183.0625
2819.35442	3198.6625
2821.89419	3225.9625
2824.43239	3237.9625
2826.96904	3243.3625
2829.50412	3261.5625
2832.03763	3250.1625
2834.56959	3261.3625
2837.1	3253.8625
2839.62884	3271.1625
2842.15613	3277.7625
2844.68186	3303.8625
2847.20604	3323.0625
2849.72867	3349.5625
2852.24974	3364.7625
2854.76927	3369.3625
2857.28724	3367.5625
2859.80367	3389.6625
2862.31855	3416.4625
2864.83189	3426.2625
2867.34368	3452.4625
2869.85393	3473.5625
2872.36264	3471.8625
2874.8698	3470.5625
2877.37543	3463.1625
2879.87952	3445.6625
2882.38207	3438.2625
2884.88308	3393.0625
2887.38256	3400.9625
2889.88051	3400.8625
2892.37692	3380.9625
2894.8718	3379.2625
2897.36515	3386.0625
2899.85698	3389.1625
2902.34727	3380.3625
2904.83604	3380.2625
2907.32328	3381.8625
2909.809	3374.1625
2912.29319	3371.9625
2914.77587	3350.0625
2917.25702	3331.1625
2919.73665	3335.7625
2922.21476	3318.9625
2924.69136	3302.2625
2927.16644	3298.4625
2929.64	3281.0625
2932.11205	3279.3625
2934.58258	3253.1625
2937.05161	3239.4625
2939.51912	3223.1625
2941.98513	3211.0625
2944.44962	3192.7625
2946.91261	3164.1625
2949.37409	3153.4625
2951.83407	3131.4625
2954.29254	3123.4625
2956.74951	3126.5625
2959.20498	3120.0625
2961.65895	3102.0625
2964.11142	3088.9625
2966.56239	3085.6625
2969.01186	3087.2625
2971.45984	3048.1625
2973.90632	3043.2625
2976.35131	3026.3625
2978.7948	3030.5625
2981.23681	3006.3625
2983.67732	3001.3625
2986.11635	2975.4625
2988.55388	2975.8625
2990.98993	2974.4625
2993.4245	2968.5625
2995.85758	2980.1625
2998.28917	2959.8625
3000.71928	2969.5625
3003.14791	2963.5625
3005.57506	2964.5625
3008.00073	2959.7625
3010.42493	2961.6625
3012.84764	2960.4625
3015.26888	2960.2625
3017.68865	2964.7625
3020.10694	2952.8625
3022.52376	2945.1625
3024.9391	2923.8625
3027.35298	2925.5625
3029.76539	2917.9625
3032.17632	2900.5625
3034.5858	2890.0625
3036.9938	2880.5625
3039.40034	2857.1625
3041.80542	2859.7625
3044.20903	2842.1625
3046.61118	2850.3625
3049.01187	2839.4625
3051.4111	2826.9625
3053.80888	2830.2625
3056.20519	2830.6625
3058.60005	2825.1625
3060.99345	2810.7625
3063.3854	2803.7625
3065.7759	2799.0625
3068.16494	2781.8625
3070.55254	2772.6625
3072.93868	2760.1625
3075.32338	2746.2625
3077.70662	2752.1625
3080.08842	2741.0625
3082.46878	2731.6625
3084.84769	2721.1625
3087.22515	2717.9625
3089.60118	2712.9625
3091.97576	2706.0625
3094.3489	2702.8625
3096.72061	2709.0625
3099.09087	2694.3625
3101.4597	2711.8625
3103.82709	2721.6625
3106.19305	2708.0625
3108.55757	2702.1625
3110.92066	2688.3625
3113.28232	2704.9625
3115.64255	2706.1625
3118.00134	2705.1625
3120.35871	2703.6625
3122.71466	2698.2625
3125.06917	2692.5625
3127.42226	2697.7625
3129.77393	2711.2625
3132.12417	2727.1625
3134.47299	2728.1625
3136.82039	2728.8625
3139.16636	2733.4625
3141.51092	2733.6625
3143.85406	2759.7625
3146.19579	2753.0625
3148.53609	2772.4625
3150.87499	2768.8625
3153.21246	2773.6625
3155.54853	2806.6625
3157.88318	2794.4625
3160.21642	2807.2625
3162.54826	2814.9625
3164.87868	2807.4625
3167.2077	2820.2625
3169.5353	2828.3625
3171.86151	2830.8625
3174.18631	2829.3625
3176.5097	2829.3625
3178.83169	2816.7625
3181.15228	2835.0625
3183.47147	2826.5625
3185.78926	2847.8625
3188.10565	2852.8625
3190.42065	2849.3625
3192.73424	2860.7625
3195.04645	2866.4625
3197.35725	2870.2625
3199.66667	2892.1625
3201.97469	2896.2625
3204.28132	2897.8625
3206.58656	2921.1625
3208.8904	2935.9625
3211.19287	2940.9625
3213.49394	2940.7625
3215.79363	2964.8625
3218.09193	2963.6625
3220.38884	2964.1625
3222.68438	2951.3625
3224.97853	2965.1625
3227.2713	2976.0625
3229.56269	2987.4625
3231.8527	2976.2625
3234.14133	2986.2625
3236.42858	2978.4625
3238.71446	2974.0625
3240.99896	2975.9625
3243.28209	2970.5625
3245.56384	2969.2625
3247.84423	2971.4625
3250.12324	2976.8625
3252.40088	2976.6625
3254.67715	2977.8625
3256.95205	2973.6625
3259.22558	2986.8625
3261.49775	2968.4625
3263.76855	2970.6625
3266.03799	2966.8625
3268.30606	2963.6625
3270.57277	2945.4625
3272.83812	2968.3625
3275.10211	2958.4625
3277.36474	2951.2625
3279.62601	2948.7625
3281.88593	2934.6625
3284.14448	2954.1625
3286.40168	2961.7625
3288.65753	2965.7625
3290.91202	2955.9625
3293.16516	2953.1625
3295.41695	2965.3625
3297.66738	2939.4625
3299.91647	2930.7625
3302.16421	2913.8625
3304.4106	2888.5625
3306.65564	2871.4625
3308.89933	2852.4625
3311.14169	2809.0625
3313.38269	2785.9625
3315.62236	2771.1625
3317.86068	2731.4625
3320.09766	2714.5625
3322.3333	2700.4625
3324.5676	2677.6625
3326.80056	2608.2625
3329.03219	2593.8625
3331.26248	-0.1375
3333.49143	-1.3375
3335.71905	1.4625
