Data from AgNPs_FTO_APTES_UA_50uM_CRN_1uM_R6G_10uM_NaF_0.1M_Addition_RamanShift__5__11-21-24-710.txt Node

Date: Mon Feb 21 11:21:24 GMT 2022
User: TCL
Spectrometer: QEP01345
Trigger mode: 4
Integration Time (sec): 7.000000E0
Scans to average: 10
Electric dark correction enabled: true
Nonlinearity correction enabled: false
Boxcar width: 0
XAxis mode: Raman Shifts
Number of Pixels in Spectrum: 1044
>>>>>Begin Spectral Data<<<<<
46.04893	0.1625
50.45542	-0.5375
54.85868	-1.6375
59.25871	-1.6375
63.6555	62.6625
68.04907	69.7625
72.43941	67.4625
76.82654	74.3625
81.21044	75.7625
85.59113	80.4625
89.96862	80.1625
94.34289	82.2625
98.71396	85.1625
103.08183	91.8625
107.4465	91.5625
111.80798	92.3625
116.16626	91.1625
120.52136	93.9625
124.87327	103.5625
129.222	103.4625
133.56755	107.8625
137.90993	117.3625
142.24913	127.2625
146.58517	144.2625
150.91804	160.4625
155.24774	193.6625
159.57429	238.9625
163.89768	302.0625
168.21792	403.4625
172.53501	546.2625
176.84895	767.9625
181.15975	1073.4625
185.46741	1508.6625
189.77193	2084.7625
194.07331	2774.7625
198.37157	3582.0625
202.6667	4431.7625
206.9587	5276.2625
211.24758	6089.3625
215.53334	6916.4625
219.81599	7787.8625
224.09553	8763.4625
228.37195	9825.7625
232.64527	11032.7625
236.91549	12250.4625
241.18261	13504.2625
245.44663	14670.5625
249.70755	15686.1625
253.96539	16571.0625
258.22014	17332.1625
262.4718	17910.9625
266.72039	18347.4625
270.96589	18554.1625
275.20832	18508.6625
279.44768	18380.0625
283.68397	18123.5625
287.91719	17914.6625
292.14735	17769.2625
296.37445	17752.8625
300.59849	17776.6625
304.81948	17859.4625
309.03742	17945.3625
313.25231	17867.2625
317.46415	17719.1625
321.67296	17429.6625
325.87872	17219.5625
330.08145	17095.9625
334.28114	17087.6625
338.47781	17145.5625
342.67145	17359.5625
346.86207	17677.6625
351.04966	18008.6625
355.23424	18347.2625
359.4158	18662.5625
363.59435	18958.0625
367.76989	19118.6625
371.94243	19235.8625
376.11196	19271.5625
380.27849	19327.8625
384.44203	19432.1625
388.60257	19586.7625
392.76012	19753.3625
396.91468	20023.3625
401.06626	20325.2625
405.21485	20490.9625
409.36047	20453.4625
413.50311	20281.0625
417.64277	20190.3625
421.77947	20261.0625
425.9132	20328.1625
430.04396	20447.9625
434.17176	20533.2625
438.2966	20608.5625
442.41849	20980.5625
446.53742	21596.4625
450.6534	22182.9625
454.76644	22635.1625
458.87653	22731.6625
462.98368	22625.3625
467.08789	22326.4625
471.18916	21922.4625
475.2875	21497.0625
479.38291	21208.8625
483.4754	21054.9625
487.56496	20937.8625
491.6516	20706.9625
495.73531	20504.0625
499.81612	20414.9625
503.89401	20484.9625
507.96899	20579.2625
512.04106	20562.6625
516.11023	20370.9625
520.1765	20249.5625
524.23987	20156.9625
528.30034	20062.9625
532.35792	19914.6625
536.41261	19705.2625
540.46441	19465.2625
544.51333	19406.4625
548.55936	19542.6625
552.60252	19874.5625
556.64279	20386.0625
560.6802	20766.6625
564.71473	21033.0625
568.7464	21334.8625
572.7752	21888.0625
576.80114	22526.5625
580.82422	23279.8625
584.84444	24278.3625
588.86181	25642.6625
592.87633	26978.2625
596.888	27055.1625
600.89682	25648.9625
604.9028	24834.5625
608.90594	25931.3625
612.90624	27418.4625
616.90371	25895.0625
620.89834	22314.6625
624.89015	20699.0625
628.87913	20468.4625
632.86528	20529.2625
636.84862	20496.2625
640.82913	20089.7625
644.80683	19665.6625
648.78172	19392.4625
652.75379	19366.2625
656.72306	19627.4625
660.68952	19959.5625
664.65319	19882.8625
668.61405	19599.4625
672.57211	19559.8625
676.52738	19689.6625
680.47986	19705.3625
684.42955	19529.3625
688.37646	19412.9625
692.32058	19584.5625
696.26192	19921.9625
700.20048	20247.5625
704.13626	20330.8625
708.06928	20278.1625
711.99952	20197.6625
715.927	20270.6625
719.85171	20390.6625
723.77365	20347.9625
727.69284	19997.6625
731.60928	19719.2625
735.52295	19607.9625
739.43388	19586.4625
743.34206	19703.2625
747.24749	19811.8625
751.15017	19987.3625
755.05012	20271.7625
758.94733	20794.3625
762.8418	21602.9625
766.73354	22880.3625
770.62254	24046.3625
774.50882	24287.6625
778.39237	23392.1625
782.27321	22085.8625
786.15132	20995.5625
790.02671	20308.2625
793.89938	19885.9625
797.76935	19748.0625
801.6366	19675.0625
805.50115	19679.9625
809.36299	19573.1625
813.22213	19437.6625
817.07857	19380.4625
820.93231	19272.6625
824.78336	19190.3625
828.63172	19089.8625
832.47738	19074.1625
836.32036	19115.5625
840.16066	19170.3625
843.99827	19173.7625
847.8332	19218.6625
851.66546	19176.4625
855.49504	19173.8625
859.32195	19211.8625
863.1462	19160.5625
866.96777	19113.7625
870.78668	19084.3625
874.60293	19104.8625
878.41652	19180.0625
882.22745	19234.6625
886.03573	19313.3625
889.84136	19310.1625
893.64433	19213.4625
897.44466	19164.4625
901.24235	19071.8625
905.0374	18993.8625
908.8298	18941.2625
912.61957	18959.8625
916.40671	19077.6625
920.19121	19295.3625
923.97308	19552.1625
927.75233	19692.0625
931.52895	19564.8625
935.30295	19262.2625
939.07433	18966.4625
942.84309	18738.3625
946.60924	18643.2625
950.37278	18629.4625
954.13371	18666.0625
957.89203	18579.3625
961.64774	18560.1625
965.40086	18571.0625
969.15137	18550.8625
972.89929	18526.0625
976.64461	18524.5625
980.38733	18561.5625
984.12747	18637.9625
987.86502	18737.0625
991.59999	18887.7625
995.33237	19096.6625
999.06217	19500.4625
1002.78939	19981.9625
1006.51404	20448.9625
1010.23611	20781.2625
1013.95561	21041.1625
1017.67255	21094.4625
1021.38692	20831.0625
1025.09872	20456.4625
1028.80796	20261.5625
1032.51465	20426.6625
1036.21877	20624.7625
1039.92035	20802.7625
1043.61937	20717.9625
1047.31584	20525.8625
1051.00976	20334.9625
1054.70114	20199.0625
1058.38998	20204.7625
1062.07627	20305.5625
1065.76003	20495.8625
1069.44126	20703.4625
1073.11995	21112.9625
1076.79611	21424.5625
1080.46974	21666.0625
1084.14085	21825.0625
1087.80943	22089.9625
1091.47549	22243.4625
1095.13903	22267.8625
1098.80005	21912.5625
1102.45857	21423.6625
1106.11456	21060.7625
1109.76805	20913.9625
1113.41903	20932.3625
1117.06751	20983.0625
1120.71348	21167.0625
1124.35696	21340.2625
1127.99793	21524.1625
1131.63641	21703.2625
1135.2724	21661.3625
1138.90589	21613.6625
1142.5369	21610.2625
1146.16542	21743.8625
1149.79145	21923.6625
1153.415	22123.0625
1157.03607	22390.9625
1160.65467	22915.9625
1164.27079	23851.8625
1167.88443	25015.2625
1171.49561	26251.1625
1175.10432	27792.0625
1178.71056	29890.5625
1182.31434	31835.3625
1185.91565	32672.9625
1189.51451	32519.2625
1193.11091	31538.2625
1196.70485	30455.3625
1200.29634	29394.0625
1203.88538	28652.3625
1207.47197	28277.4625
1211.05612	27966.1625
1214.63782	27537.8625
1218.21708	26969.6625
1221.79391	26462.4625
1225.36829	26120.6625
1228.94024	25855.1625
1232.50976	25471.1625
1236.07685	24997.6625
1239.6415	24627.5625
1243.20374	24559.2625
1246.76355	24665.2625
1250.32093	25020.1625
1253.8759	25571.9625
1257.42845	26246.9625
1260.97859	27060.9625
1264.52631	27921.6625
1268.07163	28847.4625
1271.61453	29721.9625
1275.15503	30496.0625
1278.69312	31318.9625
1282.22882	32289.4625
1285.76211	33404.4625
1289.29301	34717.8625
1292.82151	36173.1625
1296.34761	37906.8625
1299.87133	40070.5625
1303.39266	42307.2625
1306.9116	44364.1625
1310.42815	45893.0625
1313.94233	46704.2625
1317.45412	46296.8625
1320.96354	45173.1625
1324.47058	44018.2625
1327.97525	43178.3625
1331.47754	42663.7625
1334.97747	42190.7625
1338.47502	41673.7625
1341.97022	40881.2625
1345.46305	39961.8625
1348.95352	39447.9625
1352.44163	39652.0625
1355.92738	40952.7625
1359.41078	43204.9625
1362.89183	45198.6625
1366.37053	45079.8625
1369.84688	42037.8625
1373.32088	37467.4625
1376.79254	34126.4625
1380.26186	32866.7625
1383.72883	32837.8625
1387.19347	32821.0625
1390.65578	32359.8625
1394.11575	32123.6625
1397.57339	32333.4625
1401.0287	32958.7625
1404.48168	33320.7625
1407.93234	33380.2625
1411.38068	32975.3625
1414.82669	32160.8625
1418.27039	31081.4625
1421.71177	29960.2625
1425.15083	29091.4625
1428.58758	28721.2625
1432.02203	29042.6625
1435.45416	29823.0625
1438.88399	30680.7625
1442.31151	31234.1625
1445.73673	31401.2625
1449.15965	31477.8625
1452.58027	31339.1625
1455.9986	31110.2625
1459.41463	31112.4625
1462.82837	31601.4625
1466.23982	32253.5625
1469.64898	32919.6625
1473.05586	33342.0625
1476.46045	33481.7625
1479.86276	33445.4625
1483.26279	33247.3625
1486.66054	33268.9625
1490.05602	33468.2625
1493.44922	33779.3625
1496.84016	34081.8625
1500.22882	34329.3625
1503.61521	34833.9625
1506.99934	35411.7625
1510.38121	35904.1625
1513.76081	35957.0625
1517.13816	35346.9625
1520.51324	34456.9625
1523.88607	33784.1625
1527.25665	33557.0625
1530.62498	33555.0625
1533.99105	33407.5625
1537.35488	32918.7625
1540.71647	32162.6625
1544.07581	31279.2625
1547.4329	30499.0625
1550.78776	29789.5625
1554.14038	29295.0625
1557.49077	28967.8625
1560.83892	28857.4625
1564.18484	28844.1625
1567.52853	28923.2625
1570.86999	29145.4625
1574.20922	29609.4625
1577.54624	30098.4625
1580.88103	30304.6625
1584.2136	30714.6625
1587.54395	31832.1625
1590.87208	33772.2625
1594.19801	36171.0625
1597.52172	38233.7625
1600.84321	38697.0625
1604.16251	36855.3625
1607.47959	33720.7625
1610.79447	30385.8625
1614.10715	27603.3625
1617.41763	25530.9625
1620.7259	24274.1625
1624.03199	23730.9625
1627.33587	23851.6625
1630.63757	24590.4625
1633.93707	26218.1625
1637.23439	29006.8625
1640.52951	33062.3625
1643.82246	37881.4625
1647.11321	41686.2625
1650.40179	42073.1625
1653.68819	38523.2625
1656.97241	32921.5625
1660.25446	27843.3625
1663.53433	24299.7625
1666.81203	22156.4625
1670.08756	20912.0625
1673.36092	20137.8625
1676.63211	19675.3625
1679.90115	19353.6625
1683.16801	19052.0625
1686.43272	18855.3625
1689.69527	18684.7625
1692.95567	18516.1625
1696.2139	18321.2625
1699.46999	18176.5625
1702.72392	18089.2625
1705.97571	18168.8625
1709.22535	18204.7625
1712.47284	18268.2625
1715.71819	18316.7625
1718.96139	18229.0625
1722.20246	18205.3625
1725.44139	18151.1625
1728.67818	18028.1625
1731.91284	17924.2625
1735.14537	17849.9625
1738.37576	17776.5625
1741.60403	17693.5625
1744.83017	17629.2625
1748.05418	17562.3625
1751.27607	17505.6625
1754.49584	17394.8625
1757.71349	17341.8625
1760.92903	17283.5625
1764.14244	17280.6625
1767.35375	17278.0625
1770.56294	17251.0625
1773.77002	17258.5625
1776.97499	17302.9625
1780.17785	17309.0625
1783.37861	17329.3625
1786.57727	17303.6625
1789.77382	17329.8625
1792.96828	17316.3625
1796.16064	17307.9625
1799.3509	17270.1625
1802.53907	17237.8625
1805.72514	17188.9625
1808.90913	17134.0625
1812.09102	17129.6625
1815.27083	17134.9625
1818.44856	17090.7625
1821.6242	17065.7625
1824.79776	17085.0625
1827.96924	17031.0625
1831.13864	17076.6625
1834.30597	17124.9625
1837.47122	17060.0625
1840.6344	17072.1625
1843.7955	17049.6625
1846.95454	17050.4625
1850.11151	17076.9625
1853.26642	17013.3625
1856.41926	16985.7625
1859.57004	16976.5625
1862.71876	16983.2625
1865.86542	17007.6625
1869.01003	16981.7625
1872.15258	16952.5625
1875.29308	16921.8625
1878.43152	16920.5625
1881.56792	16926.1625
1884.70227	16899.8625
1887.83457	16872.3625
1890.96482	16876.8625
1894.09304	16828.9625
1897.21921	16829.4625
1900.34335	16806.2625
1903.46544	16800.7625
1906.58551	16783.4625
1909.70353	16773.6625
1912.81953	16739.0625
1915.93349	16706.5625
1919.04543	16683.8625
1922.15534	16659.9625
1925.26322	16618.9625
1928.36908	16570.4625
1931.47292	16511.6625
1934.57473	16479.6625
1937.67453	16484.2625
1940.77232	16458.4625
1943.86808	16397.2625
1946.96184	16397.6625
1950.05358	16345.4625
1953.14331	16287.0625
1956.23103	16249.6625
1959.31675	16214.9625
1962.40046	16131.8625
1965.48217	16120.5625
1968.56188	16110.3625
1971.63959	16047.7625
1974.7153	16037.6625
1977.78901	15978.2625
1980.86073	15921.8625
1983.93046	15847.1625
1986.99819	15813.9625
1990.06394	15784.4625
1993.1277	15741.6625
1996.18947	15717.0625
1999.24925	15690.6625
2002.30706	15608.3625
2005.36288	15592.3625
2008.41672	15569.3625
2011.46859	15485.8625
2014.51848	15444.5625
2017.56639	15417.1625
2020.61233	15410.5625
2023.6563	15358.4625
2026.6983	15349.8625
2029.73833	15293.1625
2032.7764	15268.8625
2035.8125	15259.8625
2038.84664	15272.9625
2041.87881	15236.0625
2044.90903	15226.6625
2047.93729	15145.5625
2050.96359	15159.6625
2053.98794	15123.8625
2057.01034	15136.8625
2060.03078	15119.5625
2063.04927	15081.8625
2066.06582	15093.8625
2069.08042	15105.8625
2072.09307	15128.9625
2075.10378	15100.1625
2078.11255	15099.2625
2081.11938	15073.9625
2084.12426	15069.3625
2087.12722	15100.1625
2090.12824	15085.1625
2093.12732	15122.5625
2096.12447	15077.8625
2099.11969	15076.9625
2102.11299	15066.5625
2105.10435	15079.2625
2108.09379	15073.5625
2111.08131	15116.3625
2114.0669	15140.3625
2117.05057	15152.4625
2120.03233	15168.3625
2123.01216	15194.2625
2125.99008	15205.7625
2128.96609	15209.3625
2131.94018	15204.6625
2134.91236	15218.2625
2137.88263	15234.7625
2140.851	15242.0625
2143.81746	15258.6625
2146.78201	15270.6625
2149.74466	15271.3625
2152.7054	15255.5625
2155.66425	15252.2625
2158.6212	15286.9625
2161.57625	15287.2625
2164.52941	15243.6625
2167.48067	15281.9625
2170.43004	15244.9625
2173.37752	15220.9625
2176.32311	15259.4625
2179.26681	15241.4625
2182.20863	15270.9625
2185.14856	15279.5625
2188.08661	15311.3625
2191.02278	15270.2625
2193.95707	15245.1625
2196.88948	15273.6625
2199.82001	15230.1625
2202.74867	15262.8625
2205.67545	15232.4625
2208.60037	15174.2625
2211.52341	15188.5625
2214.44458	15180.1625
2217.36388	15141.4625
2220.28132	15202.8625
2223.1969	15110.7625
2226.11061	15102.2625
2229.02246	15094.0625
2231.93245	15067.1625
2234.84058	15053.2625
2237.74686	15022.5625
2240.65128	15031.5625
2243.55385	15014.6625
2246.45456	14998.2625
2249.35343	14955.3625
2252.25044	14918.7625
2255.14561	14930.9625
2258.03893	14889.6625
2260.93041	14838.6625
2263.82004	14819.1625
2266.70783	14816.3625
2269.59378	14780.2625
2272.4779	14742.8625
2275.36017	14721.4625
2278.24061	14733.1625
2281.11922	14714.4625
2283.996	14654.7625
2286.87094	14656.6625
2289.74405	14645.9625
2292.61534	14629.1625
2295.4848	14628.7625
2298.35243	14620.8625
2301.21824	14605.6625
2304.08223	14657.7625
2306.94439	14627.7625
2309.80474	14613.6625
2312.66327	14604.6625
2315.51999	14595.9625
2318.37489	14617.0625
2321.22797	14607.7625
2324.07925	14587.2625
2326.92871	14546.5625
2329.77637	14555.8625
2332.62222	14526.6625
2335.46626	14491.2625
2338.3085	14506.4625
2341.14893	14521.9625
2343.98756	14516.5625
2346.8244	14519.2625
2349.65943	14472.9625
2352.49267	14482.4625
2355.32411	14466.2625
2358.15376	14466.8625
2360.98161	14490.8625
2363.80768	14460.1625
2366.63195	14450.2625
2369.45444	14444.6625
2372.27514	14447.4625
2375.09405	14422.6625
2377.91118	14392.3625
2380.72652	14367.2625
2383.54009	14359.0625
2386.35187	14320.2625
2389.16188	14319.6625
2391.97011	14294.8625
2394.77657	14287.8625
2397.58125	14279.9625
2400.38416	14218.8625
2403.18529	14248.8625
2405.98466	14245.0625
2408.78226	14213.1625
2411.57809	14189.7625
2414.37216	14165.1625
2417.16446	14164.4625
2419.955	14169.7625
2422.74378	14167.0625
2425.5308	14122.1625
2428.31606	14140.0625
2431.09956	14085.2625
2433.88131	14119.2625
2436.6613	14109.7625
2439.43954	14113.5625
2442.21603	14119.8625
2444.99077	14095.3625
2447.76377	14129.1625
2450.53501	14080.1625
2453.30451	14107.1625
2456.07226	14098.1625
2458.83827	14086.6625
2461.60254	14079.5625
2464.36507	14069.8625
2467.12586	14058.0625
2469.88492	14058.9625
2472.64224	14092.8625
2475.39782	14053.5625
2478.15167	14045.7625
2480.90379	14065.3625
2483.65417	14106.2625
2486.40283	14089.6625
2489.14976	14106.5625
2491.89497	14101.6625
2494.63845	14087.7625
2497.3802	14069.1625
2500.12024	14119.1625
2502.85855	14094.6625
2505.59514	14072.6625
2508.33002	14071.1625
2511.06318	14069.0625
2513.79462	14047.4625
2516.52435	14031.7625
2519.25237	14016.0625
2521.97867	14009.6625
2524.70327	14003.4625
2527.42616	14004.8625
2530.14734	13992.1625
2532.86681	14027.0625
2535.58458	14029.0625
2538.30065	14021.0625
2541.01501	14014.8625
2543.72768	13960.5625
2546.43864	13961.2625
2549.14791	13940.6625
2551.85548	13974.9625
2554.56136	13961.9625
2557.26554	13912.4625
2559.96803	13917.9625
2562.66883	13895.6625
2565.36794	13873.9625
2568.06536	13871.3625
2570.7611	13853.0625
2573.45514	13868.6625
2576.14751	13868.9625
2578.83819	13827.0625
2581.52719	13820.8625
2584.21451	13834.2625
2586.90015	13826.4625
2589.58411	13795.3625
2592.2664	13814.2625
2594.94701	13792.4625
2597.62594	13804.2625
2600.30321	13807.3625
2602.9788	13775.4625
2605.65273	13766.4625
2608.32498	13765.2625
2610.99557	13769.5625
2613.66449	13780.7625
2616.33175	13742.8625
2618.99734	13746.8625
2621.66128	13724.9625
2624.32355	13700.5625
2626.98416	13711.4625
2629.64311	13707.8625
2632.30041	13710.4625
2634.95605	13696.1625
2637.61004	13674.1625
2640.26238	13648.5625
2642.91306	13673.9625
2645.56209	13663.4625
2648.20948	13645.1625
2650.85521	13630.4625
2653.4993	13630.2625
2656.14175	13671.0625
2658.78255	13707.6625
2661.42171	13677.6625
2664.05923	13725.5625
2666.6951	13720.9625
2669.32934	13716.8625
2671.96194	13720.4625
2674.59291	13724.1625
2677.22224	13740.7625
2679.84993	13704.2625
2682.476	13704.6625
2685.10043	13736.9625
2687.72324	13738.1625
2690.34441	13719.5625
2692.96396	13711.0625
2695.58188	13713.8625
2698.19818	13703.0625
2700.81285	13706.9625
2703.4259	13674.7625
2706.03733	13602.2625
2708.64714	13637.6625
2711.25533	13702.4625
2713.86191	13739.9625
2716.46687	13808.3625
2719.07021	13820.9625
2721.67194	13825.4625
2724.27206	13821.1625
2726.87057	13841.6625
2729.46747	13855.0625
2732.06276	13847.1625
2734.65644	13859.9625
2737.24852	13865.7625
2739.83899	13842.9625
2742.42786	13870.1625
2745.01513	13860.1625
2747.60079	13859.1625
2750.18486	13824.1625
2752.76733	13806.4625
2755.3482	13799.7625
2757.92747	13752.0625
2760.50515	13742.5625
2763.08123	13789.3625
2765.65573	13754.4625
2768.22863	13713.8625
2770.79994	13748.1625
2773.36967	13743.4625
2775.9378	13740.4625
2778.50435	13706.0625
2781.06932	13731.3625
2783.6327	13739.9625
2786.1945	13745.1625
2788.75471	13745.4625
2791.31335	13710.3625
2793.87041	13702.1625
2796.42589	13650.0625
2798.97979	13631.5625
2801.53212	13587.3625
2804.08288	13613.5625
2806.63206	13598.7625
2809.17967	13573.9625
2811.72571	13522.5625
2814.27018	13510.8625
2816.81308	13504.2625
2819.35442	13481.2625
2821.89419	13448.4625
2824.43239	13429.1625
2826.96904	13416.2625
2829.50412	13437.6625
2832.03763	13380.4625
2834.56959	13386.1625
2837.1	13366.3625
2839.62884	13395.5625
2842.15613	13370.2625
2844.68186	13381.5625
2847.20604	13375.6625
2849.72867	13346.2625
2852.24974	13332.7625
2854.76927	13339.6625
2857.28724	13275.2625
2859.80367	13251.9625
2862.31855	13282.1625
2864.83189	13261.6625
2867.34368	13231.9625
2869.85393	13261.4625
2872.36264	13252.6625
2874.8698	13265.5625
2877.37543	13278.2625
2879.87952	13267.3625
2882.38207	13269.2625
2884.88308	13269.0625
2887.38256	13276.5625
2889.88051	13257.0625
2892.37692	13285.4625
2894.8718	13296.4625
2897.36515	13297.3625
2899.85698	13309.6625
2902.34727	13321.1625
2904.83604	13332.2625
2907.32328	13337.2625
2909.809	13340.9625
2912.29319	13393.8625
2914.77587	13376.7625
2917.25702	13339.9625
2919.73665	13341.4625
2922.21476	13346.7625
2924.69136	13353.6625
2927.16644	13371.0625
2929.64	13315.7625
2932.11205	13306.6625
2934.58258	13285.9625
2937.05161	13298.6625
2939.51912	13294.2625
2941.98513	13288.3625
2944.44962	13275.4625
2946.91261	13234.9625
2949.37409	13241.3625
2951.83407	13277.4625
2954.29254	13248.1625
2956.74951	13237.8625
2959.20498	13244.3625
2961.65895	13237.6625
2964.11142	13218.6625
2966.56239	13203.7625
2969.01186	13207.0625
2971.45984	13184.8625
2973.90632	13185.0625
2976.35131	13172.4625
2978.7948	13117.7625
2981.23681	13119.4625
2983.67732	13107.1625
2986.11635	13071.3625
2988.55388	13025.4625
2990.98993	13008.7625
2993.4245	12954.0625
2995.85758	12967.3625
2998.28917	12924.1625
3000.71928	12910.1625
3003.14791	12885.6625
3005.57506	12864.0625
3008.00073	12846.0625
3010.42493	12827.9625
3012.84764	12817.7625
3015.26888	12817.0625
3017.68865	12793.5625
3020.10694	12753.7625
3022.52376	12726.4625
3024.9391	12711.5625
3027.35298	12696.4625
3029.76539	12722.6625
3032.17632	12735.1625
3034.5858	12683.8625
3036.9938	12693.8625
3039.40034	12655.0625
3041.80542	12655.5625
3044.20903	12595.0625
3046.61118	12609.9625
3049.01187	12603.4625
3051.4111	12585.0625
3053.80888	12552.8625
3056.20519	12525.8625
3058.60005	12530.2625
3060.99345	12497.2625
3063.3854	12488.0625
3065.7759	12444.3625
3068.16494	12424.4625
3070.55254	12409.8625
3072.93868	12369.7625
3075.32338	12305.6625
3077.70662	12289.3625
3080.08842	12276.7625
3082.46878	12243.8625
3084.84769	12236.1625
3087.22515	12244.1625
3089.60118	12242.2625
3091.97576	12253.3625
3094.3489	12232.3625
3096.72061	12292.3625
3099.09087	12267.2625
3101.4597	12227.5625
3103.82709	12225.6625
3106.19305	12211.5625
3108.55757	12221.1625
3110.92066	12167.1625
3113.28232	12163.9625
3115.64255	12149.7625
3118.00134	12143.7625
3120.35871	12103.3625
3122.71466	12063.0625
3125.06917	12022.2625
3127.42226	12013.8625
3129.77393	12021.1625
3132.12417	12026.9625
3134.47299	12015.7625
3136.82039	12019.0625
3139.16636	12048.3625
3141.51092	12001.7625
3143.85406	11975.3625
3146.19579	12020.5625
3148.53609	12027.5625
3150.87499	12006.5625
3153.21246	12022.2625
3155.54853	12026.1625
3157.88318	11994.6625
3160.21642	12032.9625
3162.54826	11999.3625
3164.87868	12037.6625
3167.2077	11999.5625
3169.5353	12031.9625
3171.86151	12003.8625
3174.18631	11987.1625
3176.5097	11977.1625
3178.83169	11954.3625
3181.15228	11970.0625
3183.47147	11917.4625
3185.78926	11927.7625
3188.10565	11927.7625
3190.42065	11874.9625
3192.73424	11856.8625
3195.04645	11854.1625
3197.35725	11866.7625
3199.66667	11861.5625
3201.97469	11883.5625
3204.28132	11874.2625
3206.58656	11891.9625
3208.8904	11891.7625
3211.19287	11883.0625
3213.49394	11897.7625
3215.79363	11914.1625
3218.09193	11902.3625
3220.38884	11887.3625
3222.68438	11866.6625
3224.97853	11872.2625
3227.2713	11888.0625
3229.56269	11891.7625
3231.8527	11885.1625
3234.14133	11869.8625
3236.42858	11854.2625
3238.71446	11829.6625
3240.99896	11796.7625
3243.28209	11795.9625
3245.56384	11776.5625
3247.84423	11783.7625
3250.12324	11764.5625
3252.40088	11734.1625
3254.67715	11731.4625
3256.95205	11723.5625
3259.22558	11738.7625
3261.49775	11694.8625
3263.76855	11676.0625
3266.03799	11657.2625
3268.30606	11664.2625
3270.57277	11651.0625
3272.83812	11614.7625
3275.10211	11585.0625
3277.36474	11593.3625
3279.62601	11578.6625
3281.88593	11539.9625
3284.14448	11564.0625
3286.40168	11568.7625
3288.65753	11573.2625
3290.91202	11551.5625
3293.16516	11509.5625
3295.41695	11526.0625
3297.66738	11428.6625
3299.91647	11384.9625
3302.16421	11331.8625
3304.4106	11290.5625
3306.65564	11220.1625
3308.89933	11137.2625
3311.14169	11056.1625
3313.38269	10976.4625
3315.62236	10900.9625
3317.86068	10848.7625
3320.09766	10727.9625
3322.3333	10647.0625
3324.5676	10614.4625
3326.80056	10414.5625
3329.03219	10411.5625
3331.26248	2.4625
3333.49143	0.5625
3335.71905	-0.2375
