Data from AgNPs_FTO_APTES_UA_50uM_CRN_2uM_R6G_10uM_NaF_0.1M_Addition_RamanShift__23__12-20-54-789.txt Node

Date: Mon Feb 21 12:20:54 GMT 2022
User: TCL
Spectrometer: QEP01345
Trigger mode: 4
Integration Time (sec): 7.000000E0
Scans to average: 10
Electric dark correction enabled: true
Nonlinearity correction enabled: false
Boxcar width: 0
XAxis mode: Raman Shifts
Number of Pixels in Spectrum: 1044
>>>>>Begin Spectral Data<<<<<
46.04893	1.0625
50.45542	-0.8375
54.85868	-0.8375
59.25871	-1.4375
63.6555	74.9625
68.04907	79.6625
72.43941	79.3625
76.82654	86.1625
81.21044	87.5625
85.59113	93.4625
89.96862	96.4625
94.34289	102.1625
98.71396	100.3625
103.08183	104.5625
107.4465	108.4625
111.80798	108.4625
116.16626	109.5625
120.52136	113.9625
124.87327	124.1625
129.222	121.7625
133.56755	126.6625
137.90993	145.2625
142.24913	152.4625
146.58517	171.9625
150.91804	195.6625
155.24774	233.6625
159.57429	290.5625
163.89768	373.8625
168.21792	494.0625
172.53501	678.1625
176.84895	945.7625
181.15975	1337.2625
185.46741	1866.3625
189.77193	2574.6625
194.07331	3427.3625
198.37157	4426.6625
202.6667	5463.8625
206.9587	6491.6625
211.24758	7542.1625
215.53334	8580.3625
219.81599	9742.9625
224.09553	11027.5625
228.37195	12446.8625
232.64527	14039.2625
236.91549	15640.8625
241.18261	17169.9625
245.44663	18520.0625
249.70755	19661.5625
253.96539	20642.5625
258.22014	21527.1625
262.4718	22233.9625
266.72039	22768.9625
270.96589	23013.0625
275.20832	23006.3625
279.44768	22803.5625
283.68397	22515.2625
287.91719	22289.2625
292.14735	22293.5625
296.37445	22421.4625
300.59849	22817.7625
304.81948	23277.0625
309.03742	23582.0625
313.25231	23406.0625
317.46415	22699.7625
321.67296	21621.9625
325.87872	20767.8625
330.08145	20312.7625
334.28114	20298.6625
338.47781	20550.4625
342.67145	20915.9625
346.86207	21490.7625
351.04966	22223.7625
355.23424	23168.8625
359.4158	23920.6625
363.59435	24350.5625
367.76989	24517.5625
371.94243	24595.7625
376.11196	24584.8625
380.27849	24618.1625
384.44203	24589.1625
388.60257	24537.7625
392.76012	24536.0625
396.91468	24824.0625
401.06626	25301.0625
405.21485	25627.9625
409.36047	25429.2625
413.50311	24649.5625
417.64277	23948.4625
421.77947	23592.0625
425.9132	23521.3625
430.04396	23589.9625
434.17176	23680.1625
438.2966	23935.3625
442.41849	24395.1625
446.53742	25116.6625
450.6534	25892.3625
454.76644	26442.9625
458.87653	26650.5625
462.98368	26478.5625
467.08789	26114.3625
471.18916	25630.3625
475.2875	25148.1625
479.38291	24835.1625
483.4754	24540.5625
487.56496	24258.9625
491.6516	23961.4625
495.73531	23677.2625
499.81612	23595.8625
503.89401	23732.5625
507.96899	23853.4625
512.04106	23891.8625
516.11023	23947.3625
520.1765	24001.6625
524.23987	23866.3625
528.30034	23654.1625
532.35792	23410.1625
536.41261	23106.7625
540.46441	22777.2625
544.51333	22668.4625
548.55936	22860.2625
552.60252	23357.5625
556.64279	23912.2625
560.6802	24321.3625
564.71473	24596.0625
568.7464	25197.6625
572.7752	25787.2625
576.80114	25782.8625
580.82422	25636.4625
584.84444	25708.8625
588.86181	26000.4625
592.87633	26414.3625
596.888	26750.1625
600.89682	27027.7625
604.9028	28583.1625
608.90594	33242.1625
612.90624	38808.0625
616.90371	36692.2625
620.89834	28479.5625
624.89015	24755.1625
628.87913	24197.1625
632.86528	24302.8625
636.84862	24363.1625
640.82913	23912.4625
644.80683	23020.9625
648.78172	22372.4625
652.75379	22263.0625
656.72306	22797.0625
660.68952	23550.7625
664.65319	23441.9625
668.61405	22729.9625
672.57211	22463.9625
676.52738	22470.8625
680.47986	22479.8625
684.42955	22353.8625
688.37646	22259.9625
692.32058	22397.2625
696.26192	22618.8625
700.20048	22845.8625
704.13626	23034.9625
708.06928	22879.9625
711.99952	22679.5625
715.927	22671.0625
719.85171	22741.2625
723.77365	22729.9625
727.69284	22499.9625
731.60928	22221.1625
735.52295	22178.1625
739.43388	22231.6625
743.34206	22315.2625
747.24749	22433.0625
751.15017	22660.0625
755.05012	22961.1625
758.94733	23825.4625
762.8418	25705.8625
766.73354	28744.8625
770.62254	31757.4625
774.50882	32841.8625
778.39237	31311.7625
782.27321	28129.2625
786.15132	25201.4625
790.02671	23467.2625
793.89938	22675.8625
797.76935	22351.5625
801.6366	22201.6625
805.50115	22131.5625
809.36299	22041.5625
813.22213	21915.3625
817.07857	21839.5625
820.93231	21802.5625
824.78336	21743.9625
828.63172	21759.6625
832.47738	21775.1625
836.32036	21790.7625
840.16066	21791.1625
843.99827	21833.1625
847.8332	21804.1625
851.66546	21761.5625
855.49504	21687.5625
859.32195	21617.2625
863.1462	21545.2625
866.96777	21466.4625
870.78668	21432.1625
874.60293	21471.0625
878.41652	21499.8625
882.22745	21635.1625
886.03573	21710.9625
889.84136	21690.1625
893.64433	21578.9625
897.44466	21476.6625
901.24235	21381.6625
905.0374	21293.2625
908.8298	21199.9625
912.61957	21175.7625
916.40671	21309.1625
920.19121	21566.9625
923.97308	21828.1625
927.75233	22026.2625
931.52895	22064.9625
935.30295	21839.5625
939.07433	21379.6625
942.84309	21009.1625
946.60924	20823.1625
950.37278	20728.8625
954.13371	20604.8625
957.89203	20468.6625
961.64774	20423.6625
965.40086	20372.3625
969.15137	20305.8625
972.89929	20247.8625
976.64461	20143.7625
980.38733	20206.3625
984.12747	20300.1625
987.86502	20496.2625
991.59999	20746.6625
995.33237	21242.2625
999.06217	21972.0625
1002.78939	22801.6625
1006.51404	23450.9625
1010.23611	23868.6625
1013.95561	24028.2625
1017.67255	24035.8625
1021.38692	23777.3625
1025.09872	23531.4625
1028.80796	23651.8625
1032.51465	24288.8625
1036.21877	24838.5625
1039.92035	24996.3625
1043.61937	24692.2625
1047.31584	24130.9625
1051.00976	23402.1625
1054.70114	22910.3625
1058.38998	22796.8625
1062.07627	22832.2625
1065.76003	22907.7625
1069.44126	23043.8625
1073.11995	23331.9625
1076.79611	23623.3625
1080.46974	23917.1625
1084.14085	24382.6625
1087.80943	24775.2625
1091.47549	24973.5625
1095.13903	24779.8625
1098.80005	24228.1625
1102.45857	23686.6625
1106.11456	23430.6625
1109.76805	23430.8625
1113.41903	23758.9625
1117.06751	24257.6625
1120.71348	24849.6625
1124.35696	25489.2625
1127.99793	26013.1625
1131.63641	26017.1625
1135.2724	25430.3625
1138.90589	24791.4625
1142.5369	24423.4625
1146.16542	24185.5625
1149.79145	24102.3625
1153.415	24164.5625
1157.03607	24394.0625
1160.65467	24985.0625
1164.27079	25915.8625
1167.88443	27264.7625
1171.49561	29268.6625
1175.10432	32150.1625
1178.71056	35907.4625
1182.31434	39250.1625
1185.91565	40748.8625
1189.51451	40290.4625
1193.11091	38445.6625
1196.70485	36200.4625
1200.29634	34202.6625
1203.88538	32623.0625
1207.47197	31164.9625
1211.05612	29915.4625
1214.63782	29282.5625
1218.21708	28969.2625
1221.79391	29081.3625
1225.36829	29120.9625
1228.94024	28923.7625
1232.50976	28454.6625
1236.07685	28122.6625
1239.6415	27891.6625
1243.20374	27852.3625
1246.76355	28034.4625
1250.32093	28419.7625
1253.8759	29033.6625
1257.42845	29929.5625
1260.97859	30943.8625
1264.52631	31915.4625
1268.07163	32889.9625
1271.61453	33871.3625
1275.15503	34848.9625
1278.69312	35824.4625
1282.22882	36599.8625
1285.76211	37434.2625
1289.29301	38439.0625
1292.82151	39643.9625
1296.34761	41215.2625
1299.87133	43432.5625
1303.39266	46673.4625
1306.9116	50823.3625
1310.42815	55126.8625
1313.94233	57487.3625
1317.45412	56726.5625
1320.96354	54334.5625
1324.47058	51594.7625
1327.97525	49249.7625
1331.47754	47861.1625
1334.97747	47417.8625
1338.47502	47620.8625
1341.97022	48059.8625
1345.46305	48445.4625
1348.95352	48829.0625
1352.44163	49809.9625
1355.92738	52106.9625
1359.41078	56579.5625
1362.89183	60939.2625
1366.37053	59355.9625
1369.84688	52193.0625
1373.32088	44821.8625
1376.79254	40155.1625
1380.26186	37913.6625
1383.72883	36924.8625
1387.19347	36269.4625
1390.65578	35666.6625
1394.11575	35368.8625
1397.57339	35633.7625
1401.0287	36285.1625
1404.48168	36964.7625
1407.93234	37496.8625
1411.38068	37665.7625
1414.82669	37289.9625
1418.27039	36263.3625
1421.71177	34982.5625
1425.15083	33819.9625
1428.58758	33283.6625
1432.02203	33316.9625
1435.45416	33807.6625
1438.88399	34275.8625
1442.31151	34736.2625
1445.73673	35076.9625
1449.15965	35460.2625
1452.58027	35706.9625
1455.9986	35660.5625
1459.41463	35740.6625
1462.82837	36250.8625
1466.23982	36940.5625
1469.64898	37715.6625
1473.05586	38106.1625
1476.46045	38240.1625
1479.86276	38355.0625
1483.26279	38497.8625
1486.66054	38814.4625
1490.05602	39418.7625
1493.44922	40342.4625
1496.84016	41508.0625
1500.22882	43447.0625
1503.61521	46428.6625
1506.99934	50211.6625
1510.38121	53170.7625
1513.76081	53535.5625
1517.13816	50787.4625
1520.51324	46281.0625
1523.88607	42339.7625
1527.25665	39827.1625
1530.62498	38480.9625
1533.99105	37768.3625
1537.35488	37276.2625
1540.71647	36863.0625
1544.07581	36404.0625
1547.4329	35933.8625
1550.78776	35546.7625
1554.14038	35341.5625
1557.49077	35302.0625
1560.83892	35475.9625
1564.18484	35779.7625
1567.52853	36260.1625
1570.86999	36648.5625
1574.20922	36997.0625
1577.54624	37038.3625
1580.88103	36272.0625
1584.2136	35465.3625
1587.54395	35650.7625
1590.87208	37221.1625
1594.19801	39833.4625
1597.52172	42617.5625
1600.84321	43690.1625
1604.16251	42070.8625
1607.47959	38961.7625
1610.79447	35565.2625
1614.10715	32380.1625
1617.41763	29884.6625
1620.7259	28195.1625
1624.03199	27402.5625
1627.33587	27403.2625
1630.63757	28294.0625
1633.93707	30080.0625
1637.23439	32846.1625
1640.52951	36654.1625
1643.82246	41127.3625
1647.11321	45099.3625
1650.40179	46513.4625
1653.68819	43663.8625
1656.97241	37649.4625
1660.25446	31667.8625
1663.53433	27400.4625
1666.81203	24761.7625
1670.08756	23228.3625
1673.36092	22312.5625
1676.63211	21685.3625
1679.90115	21202.8625
1683.16801	20866.1625
1686.43272	20606.8625
1689.69527	20428.2625
1692.95567	20252.9625
1696.2139	20039.9625
1699.46999	19842.2625
1702.72392	19803.4625
1705.97571	19782.9625
1709.22535	19886.7625
1712.47284	19893.7625
1715.71819	19906.5625
1718.96139	19861.3625
1722.20246	19780.6625
1725.44139	19668.6625
1728.67818	19532.4625
1731.91284	19439.2625
1735.14537	19327.6625
1738.37576	19259.4625
1741.60403	19178.5625
1744.83017	19091.8625
1748.05418	19017.3625
1751.27607	18933.0625
1754.49584	18832.8625
1757.71349	18761.9625
1760.92903	18753.2625
1764.14244	18749.6625
1767.35375	18732.0625
1770.56294	18673.8625
1773.77002	18683.9625
1776.97499	18691.6625
1780.17785	18688.3625
1783.37861	18700.2625
1786.57727	18678.7625
1789.77382	18658.8625
1792.96828	18663.2625
1796.16064	18640.8625
1799.3509	18619.3625
1802.53907	18546.0625
1805.72514	18490.4625
1808.90913	18441.4625
1812.09102	18422.4625
1815.27083	18384.4625
1818.44856	18396.6625
1821.6242	18358.3625
1824.79776	18367.5625
1827.96924	18308.2625
1831.13864	18278.3625
1834.30597	18312.2625
1837.47122	18314.3625
1840.6344	18292.9625
1843.7955	18312.6625
1846.95454	18271.4625
1850.11151	18300.4625
1853.26642	18283.5625
1856.41926	18328.1625
1859.57004	18313.8625
1862.71876	18301.2625
1865.86542	18293.9625
1869.01003	18312.1625
1872.15258	18301.9625
1875.29308	18295.0625
1878.43152	18262.8625
1881.56792	18282.1625
1884.70227	18294.9625
1887.83457	18284.4625
1890.96482	18266.8625
1894.09304	18247.6625
1897.21921	18234.7625
1900.34335	18278.4625
1903.46544	18242.9625
1906.58551	18245.9625
1909.70353	18219.5625
1912.81953	18219.9625
1915.93349	18173.8625
1919.04543	18156.2625
1922.15534	18122.4625
1925.26322	18066.2625
1928.36908	18025.3625
1931.47292	17941.4625
1934.57473	17891.2625
1937.67453	17880.6625
1940.77232	17820.8625
1943.86808	17742.5625
1946.96184	17689.0625
1950.05358	17608.4625
1953.14331	17575.3625
1956.23103	17460.3625
1959.31675	17457.4625
1962.40046	17372.8625
1965.48217	17344.0625
1968.56188	17333.6625
1971.63959	17275.5625
1974.7153	17217.8625
1977.78901	17175.9625
1980.86073	17100.2625
1983.93046	17094.0625
1986.99819	17023.6625
1990.06394	16968.7625
1993.1277	16929.3625
1996.18947	16883.7625
1999.24925	16810.9625
2002.30706	16742.1625
2005.36288	16689.6625
2008.41672	16671.8625
2011.46859	16601.5625
2014.51848	16570.5625
2017.56639	16530.2625
2020.61233	16502.1625
2023.6563	16460.0625
2026.6983	16428.7625
2029.73833	16392.6625
2032.7764	16386.0625
2035.8125	16335.4625
2038.84664	16351.2625
2041.87881	16338.3625
2044.90903	16292.9625
2047.93729	16255.4625
2050.96359	16247.4625
2053.98794	16227.5625
2057.01034	16208.7625
2060.03078	16191.8625
2063.04927	16169.7625
2066.06582	16160.6625
2069.08042	16143.5625
2072.09307	16110.7625
2075.10378	16106.8625
2078.11255	16089.4625
2081.11938	16107.6625
2084.12426	16082.9625
2087.12722	16083.9625
2090.12824	16062.4625
2093.12732	16060.3625
2096.12447	16070.0625
2099.11969	16085.9625
2102.11299	16077.1625
2105.10435	16084.8625
2108.09379	16052.1625
2111.08131	16102.0625
2114.0669	16128.0625
2117.05057	16094.4625
2120.03233	16118.7625
2123.01216	16142.0625
2125.99008	16152.5625
2128.96609	16185.6625
2131.94018	16192.5625
2134.91236	16204.6625
2137.88263	16203.1625
2140.851	16204.3625
2143.81746	16224.6625
2146.78201	16213.7625
2149.74466	16203.6625
2152.7054	16195.9625
2155.66425	16214.3625
2158.6212	16216.9625
2161.57625	16192.2625
2164.52941	16215.9625
2167.48067	16218.8625
2170.43004	16180.8625
2173.37752	16184.1625
2176.32311	16171.5625
2179.26681	16189.2625
2182.20863	16172.1625
2185.14856	16247.0625
2188.08661	16228.5625
2191.02278	16219.4625
2193.95707	16187.5625
2196.88948	16179.0625
2199.82001	16156.0625
2202.74867	16181.7625
2205.67545	16167.3625
2208.60037	16159.8625
2211.52341	16136.5625
2214.44458	16140.6625
2217.36388	16117.3625
2220.28132	16093.8625
2223.1969	16091.0625
2226.11061	16069.6625
2229.02246	16034.2625
2231.93245	16012.0625
2234.84058	15936.3625
2237.74686	15918.9625
2240.65128	15924.0625
2243.55385	15903.6625
2246.45456	15878.4625
2249.35343	15899.3625
2252.25044	15855.9625
2255.14561	15845.1625
2258.03893	15849.1625
2260.93041	15791.1625
2263.82004	15777.6625
2266.70783	15749.7625
2269.59378	15732.0625
2272.4779	15702.2625
2275.36017	15627.4625
2278.24061	15598.2625
2281.11922	15562.6625
2283.996	15533.0625
2286.87094	15515.2625
2289.74405	15517.5625
2292.61534	15504.8625
2295.4848	15469.8625
2298.35243	15502.8625
2301.21824	15486.8625
2304.08223	15544.4625
2306.94439	15506.8625
2309.80474	15503.9625
2312.66327	15522.5625
2315.51999	15497.9625
2318.37489	15549.0625
2321.22797	15532.1625
2324.07925	15497.5625
2326.92871	15472.2625
2329.77637	15506.6625
2332.62222	15508.1625
2335.46626	15508.9625
2338.3085	15486.3625
2341.14893	15508.8625
2343.98756	15561.2625
2346.8244	15533.8625
2349.65943	15563.4625
2352.49267	15529.4625
2355.32411	15565.4625
2358.15376	15548.4625
2360.98161	15524.1625
2363.80768	15517.5625
2366.63195	15517.4625
2369.45444	15491.0625
2372.27514	15450.6625
2375.09405	15436.5625
2377.91118	15396.9625
2380.72652	15313.8625
2383.54009	15295.0625
2386.35187	15251.2625
2389.16188	15237.3625
2391.97011	15223.6625
2394.77657	15197.6625
2397.58125	15166.1625
2400.38416	15148.0625
2403.18529	15114.0625
2405.98466	15102.6625
2408.78226	15074.4625
2411.57809	15001.8625
2414.37216	14988.6625
2417.16446	15007.2625
2419.955	14963.3625
2422.74378	14962.8625
2425.5308	14963.2625
2428.31606	14953.1625
2431.09956	14939.5625
2433.88131	14961.0625
2436.6613	14948.8625
2439.43954	14964.7625
2442.21603	14931.7625
2444.99077	14954.5625
2447.76377	14963.9625
2450.53501	14950.5625
2453.30451	14974.1625
2456.07226	14937.0625
2458.83827	14937.7625
2461.60254	14910.5625
2464.36507	14924.0625
2467.12586	14893.1625
2469.88492	14931.5625
2472.64224	14921.7625
2475.39782	14959.3625
2478.15167	14978.6625
2480.90379	14990.6625
2483.65417	15053.4625
2486.40283	15038.7625
2489.14976	15064.1625
2491.89497	15052.0625
2494.63845	15084.7625
2497.3802	15045.2625
2500.12024	15104.5625
2502.85855	15065.1625
2505.59514	15006.7625
2508.33002	15007.9625
2511.06318	15037.3625
2513.79462	14987.0625
2516.52435	14938.6625
2519.25237	14929.6625
2521.97867	14886.6625
2524.70327	14888.8625
2527.42616	14856.7625
2530.14734	14848.2625
2532.86681	14883.3625
2535.58458	14862.9625
2538.30065	14879.7625
2541.01501	14896.5625
2543.72768	14882.4625
2546.43864	14837.3625
2549.14791	14843.3625
2551.85548	14831.7625
2554.56136	14801.7625
2557.26554	14792.8625
2559.96803	14798.7625
2562.66883	14767.0625
2565.36794	14767.5625
2568.06536	14767.9625
2570.7611	14750.8625
2573.45514	14730.5625
2576.14751	14722.1625
2578.83819	14701.6625
2581.52719	14744.6625
2584.21451	14711.5625
2586.90015	14745.3625
2589.58411	14715.8625
2592.2664	14694.0625
2594.94701	14719.6625
2597.62594	14690.6625
2600.30321	14701.2625
2602.9788	14694.0625
2605.65273	14685.6625
2608.32498	14684.9625
2610.99557	14682.8625
2613.66449	14708.0625
2616.33175	14693.9625
2618.99734	14704.3625
2621.66128	14722.9625
2624.32355	14717.5625
2626.98416	14742.0625
2629.64311	14736.0625
2632.30041	14747.4625
2634.95605	14703.7625
2637.61004	14658.6625
2640.26238	14639.3625
2642.91306	14630.8625
2645.56209	14649.4625
2648.20948	14638.4625
2650.85521	14605.6625
2653.4993	14601.0625
2656.14175	14630.8625
2658.78255	14656.0625
2661.42171	14672.5625
2664.05923	14661.8625
2666.6951	14675.0625
2669.32934	14725.4625
2671.96194	14693.4625
2674.59291	14698.9625
2677.22224	14753.0625
2679.84993	14721.0625
2682.476	14717.7625
2685.10043	14724.7625
2687.72324	14703.1625
2690.34441	14657.2625
2692.96396	14670.8625
2695.58188	14667.2625
2698.19818	14633.1625
2700.81285	14631.6625
2703.4259	14562.5625
2706.03733	14523.1625
2708.64714	14578.1625
2711.25533	14631.1625
2713.86191	14654.9625
2716.46687	14696.1625
2719.07021	14695.9625
2721.67194	14711.8625
2724.27206	14729.9625
2726.87057	14734.5625
2729.46747	14742.7625
2732.06276	14740.2625
2734.65644	14725.2625
2737.24852	14759.7625
2739.83899	14726.5625
2742.42786	14744.4625
2745.01513	14723.0625
2747.60079	14729.7625
2750.18486	14710.0625
2752.76733	14687.3625
2755.3482	14661.3625
2757.92747	14723.7625
2760.50515	14675.8625
2763.08123	14668.6625
2765.65573	14646.6625
2768.22863	14656.9625
2770.79994	14627.5625
2773.36967	14662.1625
2775.9378	14617.2625
2778.50435	14649.0625
2781.06932	14627.4625
2783.6327	14638.3625
2786.1945	14660.0625
2788.75471	14654.1625
2791.31335	14612.2625
2793.87041	14601.4625
2796.42589	14562.5625
2798.97979	14546.8625
2801.53212	14552.3625
2804.08288	14531.1625
2806.63206	14502.6625
2809.17967	14468.4625
2811.72571	14429.3625
2814.27018	14417.2625
2816.81308	14428.1625
2819.35442	14428.5625
2821.89419	14397.2625
2824.43239	14428.4625
2826.96904	14395.0625
2829.50412	14406.1625
2832.03763	14394.7625
2834.56959	14373.9625
2837.1	14353.9625
2839.62884	14353.2625
2842.15613	14320.3625
2844.68186	14318.3625
2847.20604	14312.3625
2849.72867	14319.5625
2852.24974	14311.4625
2854.76927	14299.9625
2857.28724	14263.9625
2859.80367	14250.2625
2862.31855	14260.2625
2864.83189	14258.2625
2867.34368	14226.7625
2869.85393	14246.0625
2872.36264	14284.6625
2874.8698	14288.9625
2877.37543	14293.7625
2879.87952	14294.9625
2882.38207	14293.5625
2884.88308	14237.1625
2887.38256	14266.2625
2889.88051	14295.4625
2892.37692	14302.8625
2894.8718	14267.8625
2897.36515	14310.1625
2899.85698	14302.4625
2902.34727	14319.4625
2904.83604	14343.7625
2907.32328	14368.2625
2909.809	14348.4625
2912.29319	14409.4625
2914.77587	14382.9625
2917.25702	14367.2625
2919.73665	14377.2625
2922.21476	14326.6625
2924.69136	14338.1625
2927.16644	14309.5625
2929.64	14267.3625
2932.11205	14226.3625
2934.58258	14216.2625
2937.05161	14229.2625
2939.51912	14248.6625
2941.98513	14206.4625
2944.44962	14173.5625
2946.91261	14133.5625
2949.37409	14148.6625
2951.83407	14134.2625
2954.29254	14173.1625
2956.74951	14130.3625
2959.20498	14134.3625
2961.65895	14141.4625
2964.11142	14142.7625
2966.56239	14105.6625
2969.01186	14098.4625
2971.45984	14081.5625
2973.90632	14063.6625
2976.35131	13998.3625
2978.7948	13980.2625
2981.23681	13959.4625
2983.67732	13917.2625
2986.11635	13899.6625
2988.55388	13856.5625
2990.98993	13829.4625
2993.4245	13827.7625
2995.85758	13821.0625
2998.28917	13746.3625
3000.71928	13746.1625
3003.14791	13702.3625
3005.57506	13710.2625
3008.00073	13651.7625
3010.42493	13619.2625
3012.84764	13624.2625
3015.26888	13633.1625
3017.68865	13583.1625
3020.10694	13578.9625
3022.52376	13516.3625
3024.9391	13503.1625
3027.35298	13506.1625
3029.76539	13465.9625
3032.17632	13467.1625
3034.5858	13441.7625
3036.9938	13427.0625
3039.40034	13433.9625
3041.80542	13418.5625
3044.20903	13404.7625
3046.61118	13389.5625
3049.01187	13355.8625
3051.4111	13343.3625
3053.80888	13317.2625
3056.20519	13319.6625
3058.60005	13254.9625
3060.99345	13219.9625
3063.3854	13180.9625
3065.7759	13153.9625
3068.16494	13104.7625
3070.55254	13086.7625
3072.93868	13052.4625
3075.32338	12980.3625
3077.70662	12959.4625
3080.08842	12944.2625
3082.46878	12939.3625
3084.84769	12903.6625
3087.22515	12886.1625
3089.60118	12895.8625
3091.97576	12866.1625
3094.3489	12895.0625
3096.72061	12896.1625
3099.09087	12904.5625
3101.4597	12844.9625
3103.82709	12833.0625
3106.19305	12800.9625
3108.55757	12792.6625
3110.92066	12753.7625
3113.28232	12755.9625
3115.64255	12718.7625
3118.00134	12680.2625
3120.35871	12674.0625
3122.71466	12637.0625
3125.06917	12618.4625
3127.42226	12604.6625
3129.77393	12598.7625
3132.12417	12541.7625
3134.47299	12543.7625
3136.82039	12539.7625
3139.16636	12519.3625
3141.51092	12531.8625
3143.85406	12536.9625
3146.19579	12536.9625
3148.53609	12541.6625
3150.87499	12513.0625
3153.21246	12505.7625
3155.54853	12533.1625
3157.88318	12537.1625
3160.21642	12536.8625
3162.54826	12556.5625
3164.87868	12564.3625
3167.2077	12549.3625
3169.5353	12561.5625
3171.86151	12519.6625
3174.18631	12500.3625
3176.5097	12504.1625
3178.83169	12497.8625
3181.15228	12481.0625
3183.47147	12457.9625
3185.78926	12446.7625
3188.10565	12434.2625
3190.42065	12445.1625
3192.73424	12432.2625
3195.04645	12410.7625
3197.35725	12450.3625
3199.66667	12445.1625
3201.97469	12450.8625
3204.28132	12431.3625
3206.58656	12458.1625
3208.8904	12445.4625
3211.19287	12434.3625
3213.49394	12450.7625
3215.79363	12454.3625
3218.09193	12482.1625
3220.38884	12441.4625
3222.68438	12442.7625
3224.97853	12469.4625
3227.2713	12463.8625
3229.56269	12466.5625
3231.8527	12464.0625
3234.14133	12424.9625
3236.42858	12411.1625
3238.71446	12382.6625
3240.99896	12335.9625
3243.28209	12355.6625
3245.56384	12323.2625
3247.84423	12313.5625
3250.12324	12301.1625
3252.40088	12318.6625
3254.67715	12277.4625
3256.95205	12283.8625
3259.22558	12303.4625
3261.49775	12309.2625
3263.76855	12252.8625
3266.03799	12234.3625
3268.30606	12267.8625
3270.57277	12259.5625
3272.83812	12215.1625
3275.10211	12164.1625
3277.36474	12158.5625
3279.62601	12154.4625
3281.88593	12124.7625
3284.14448	12168.1625
3286.40168	12167.3625
3288.65753	12176.6625
3290.91202	12121.5625
3293.16516	12123.2625
3295.41695	12082.2625
3297.66738	12030.7625
3299.91647	11993.2625
3302.16421	11928.4625
3304.4106	11880.3625
3306.65564	11821.2625
3308.89933	11719.1625
3311.14169	11615.7625
3313.38269	11503.9625
3315.62236	11485.9625
3317.86068	11381.1625
3320.09766	11297.3625
3322.3333	11212.1625
3324.5676	11160.7625
3326.80056	10968.1625
3329.03219	10913.6625
3331.26248	2.6625
3333.49143	-1.7375
3335.71905	1.0625
