EXPLAIN
TAG	CHRONOA
TITLE	LABEL	Chronoamperometry Scan	Test Identifier
DATE	LABEL	17/8/2022	Date
TIME	LABEL	14:56:19	Time
NOTES	NOTES	1	Notes...
	
PSTAT	PSTAT	IFC1010-21051	Potentiostat
VPRESTEP	POTEN	-7.50000E-001	F	Pre-step Voltage (V)
TPRESTEP	QUANT	5.00000E-001	Pre-step Delay Time (s)
VSTEP1	POTEN	-8.00000E-001	F	Step 1 Voltage (V)
TSTEP1	QUANT	3.00000E+002	Step 1 Time (s)
VSTEP2	POTEN	-7.50000E-001	F	Step 2 Voltage (V)
TSTEP2	QUANT	1.00000E+000	Step 2 Time (s)
SAMPLETIME	QUANT	1.00000E-001	Sample Period (s)
DECIMATE	TOGGLE	T	Decimate
ILIMIT	QUANT	1.00000E+000	Limit I (mA/cm^2)
IMODE	SELECTOR	1	I/E Range Mode
IRANGE	QUANT	3.00000E-001	Max Current (mA)
EQDELAY	QUANT	5.00000E+000	Equil. Time (s)
SAMPLINGMODE	SELECTOR	1	Sampling Mode
AREA	QUANT	1.00000E+000	Sample Area (cm^2)
IRCOMP	SELECTOR	0	IRComp
PFCOR	QUANT	5.00000E+001	PF Corr. (ohm)
SEQUENCER	TOGGLE	TRUE	Run as Sequence
PSTATMODEL	IQUANT	64	Pstat Model
PSTATSECTION	LABEL	IFC1010-21051	Pstat Section
PSTATSERIALNO	LABEL	21051	Pstat Serial Number
CTRLMODE	IQUANT	1	Control Mode
ELECTROMETER	IQUANT	0	RE=0 or CS=1
IESTAB	IQUANT	0	I/E Stability
CASPEED	IQUANT	4	Control Amp Speed
CONVENTION	IQUANT	1	Current Convention
ICHRANGE	IQUANT	2	Ich Range
ICHRANGEMODE	TOGGLE	T	Ich Auto Range
ICHOFFSETENABLE	TOGGLE	F	Ich Offset Enable
ICHOFFSET	QUANT	0	Ich Offset (V)
ICHFILTER	IQUANT	3	Ich Filter
VCHRANGE	IQUANT	3	Vch Range
VCHRANGEMODE	TOGGLE	T	Vch Auto Range
VCHOFFSETENABLE	TOGGLE	F	Vch Offset Enable
VCHOFFSET	QUANT	0	Vch Offset (V)
VCHFILTER	IQUANT	3	Vch Filter
IERANGELOWERLIMIT	IQUANT	4	I/E Range Lower Limit
IERANGEMODE	TOGGLE	F	I/E AutoRange
IERANGE	IQUANT	9	I/E Range
ACHSELECT	IQUANT	0	Ach Select
ACHRANGE	IQUANT	2	Ach Range
ACHOFFSETENABLE	TOGGLE	F	Ach Offset Enable
ACHOFFSET	QUANT	0	Ach Offset (V)
ACHFILTER	IQUANT	1	Ach Filter
SENSECABLEID	IQUANT	14	Sense Cable ID
PWRCABLEID	IQUANT	14	Power Cable ID
DCCALDATE	LABEL	7/12/2022	DC Calibration Date
ACCALDATE	LABEL	4/2/2018	AC Calibration Date
FRAMEWORKVERSION	QUANT	7.06	Framework Version
INSTRUMENTVERSION	LABEL	4.30	Instrument Version
CURVE	TABLE	98
	Pt	T	Vf	Im	Vu	Sig	Ach	IERange	Over	Temp
	#	s	V vs. Ref.	A	V	V	V	#	bits	deg C
	0	-0.4	-7.50771E-001	-1.48781E-004	0.00000E+000	-7.50046E-001	0.00000E+000	9	...........	1425.95
	1	-0.3	-7.51029E-001	-1.48404E-004	0.00000E+000	-7.50046E-001	0.00000E+000	9	...........	1425.95
	2	-0.2	-7.51036E-001	-1.47862E-004	0.00000E+000	-7.50046E-001	0.00000E+000	9	...........	1425.95
	3	-0.1	-7.51040E-001	-1.47513E-004	0.00000E+000	-7.50046E-001	0.00000E+000	9	...........	1425.95
	4	0	-7.51040E-001	-1.47080E-004	0.00000E+000	-7.50046E-001	0.00000E+000	9	...........	1425.95
	5	0.1	-8.01052E-001	-3.98732E-004	0.00000E+000	-8.00059E-001	0.00000E+000	9	...........	1425.95
	6	0.2	-8.01048E-001	-3.36896E-004	0.00000E+000	-8.00059E-001	0.00000E+000	9	...........	1425.95
	7	0.3	-8.01047E-001	-2.99945E-004	0.00000E+000	-8.00059E-001	0.00000E+000	9	...........	1425.95
	8	0.4	-8.01047E-001	-2.74843E-004	0.00000E+000	-8.00059E-001	0.00000E+000	9	...........	1425.95
	9	0.5	-8.01039E-001	-2.56497E-004	0.00000E+000	-8.00059E-001	0.00000E+000	9	...........	1425.51
	10	0.6	-8.01034E-001	-2.42660E-004	0.00000E+000	-8.00059E-001	0.00000E+000	9	...........	1425.51
	11	0.7	-8.01037E-001	-2.31550E-004	0.00000E+000	-8.00059E-001	0.00000E+000	9	...........	1425.51
	12	0.8	-8.01042E-001	-2.22638E-004	0.00000E+000	-8.00059E-001	0.00000E+000	9	...........	1425.51
	13	0.9	-8.01047E-001	-2.15244E-004	0.00000E+000	-8.00059E-001	0.00000E+000	9	...........	1425.51
	14	1	-8.01047E-001	-2.09064E-004	0.00000E+000	-8.00059E-001	0.00000E+000	9	...........	1425.51
	15	1.1	-8.01044E-001	-2.03738E-004	0.00000E+000	-8.00059E-001	0.00000E+000	9	...........	1425.51
	16	1.2	-8.01048E-001	-1.99109E-004	0.00000E+000	-8.00059E-001	0.00000E+000	9	...........	1425.51
	17	1.3	-8.01047E-001	-1.95096E-004	0.00000E+000	-8.00059E-001	0.00000E+000	9	...........	1425.51
	18	1.4	-8.01042E-001	-1.91628E-004	0.00000E+000	-8.00059E-001	0.00000E+000	9	...........	1425.51
	19	1.5	-8.01040E-001	-1.88431E-004	0.00000E+000	-8.00059E-001	0.00000E+000	9	...........	1425.78
	20	1.6	-8.01045E-001	-1.85625E-004	0.00000E+000	-8.00059E-001	0.00000E+000	9	...........	1425.78
	21	1.7	-8.01038E-001	-1.82961E-004	0.00000E+000	-8.00059E-001	0.00000E+000	9	...........	1425.78
	22	1.8	-8.01046E-001	-1.80731E-004	0.00000E+000	-8.00059E-001	0.00000E+000	9	...........	1425.78
	23	1.9	-8.01059E-001	-1.78455E-004	0.00000E+000	-8.00059E-001	0.00000E+000	9	...........	1425.78
	24	2	-8.01046E-001	-1.76539E-004	0.00000E+000	-8.00059E-001	0.00000E+000	9	...........	1425.78
	25	2.1	-8.01055E-001	-1.74780E-004	0.00000E+000	-8.00059E-001	0.00000E+000	9	...........	1425.78
	26	2.2	-8.01050E-001	-1.73084E-004	0.00000E+000	-8.00059E-001	0.00000E+000	9	...........	1425.78
	27	2.3	-8.01059E-001	-1.71485E-004	0.00000E+000	-8.00059E-001	0.00000E+000	9	...........	1425.78
	28	2.4	-8.01050E-001	-1.70021E-004	0.00000E+000	-8.00059E-001	0.00000E+000	9	...........	1425.78
	29	2.5	-8.01038E-001	-1.68604E-004	0.00000E+000	-8.00059E-001	0.00000E+000	9	...........	1425.78
	30	2.6	-8.01042E-001	-1.67519E-004	0.00000E+000	-8.00059E-001	0.00000E+000	9	...........	1425.78
	31	2.7	-8.01049E-001	-1.66358E-004	0.00000E+000	-8.00059E-001	0.00000E+000	9	...........	1425.78
	32	2.8	-8.01044E-001	-1.65219E-004	0.00000E+000	-8.00059E-001	0.00000E+000	9	...........	1425.78
	33	2.9	-8.01036E-001	-1.64170E-004	0.00000E+000	-8.00059E-001	0.00000E+000	9	...........	1425.78
	34	3	-8.01040E-001	-1.63149E-004	0.00000E+000	-8.00059E-001	0.00000E+000	9	...........	1425.78
	35	3.1	-8.01041E-001	-1.62205E-004	0.00000E+000	-8.00059E-001	0.00000E+000	9	...........	1425.78
	36	3.2	-8.01042E-001	-1.61374E-004	0.00000E+000	-8.00059E-001	0.00000E+000	9	...........	1425.78
	37	3.3	-8.01037E-001	-1.60466E-004	0.00000E+000	-8.00059E-001	0.00000E+000	9	...........	1425.78
	38	3.4	-8.01032E-001	-1.59674E-004	0.00000E+000	-8.00059E-001	0.00000E+000	9	...........	1425.78
	39	3.5	-8.01033E-001	-1.58904E-004	0.00000E+000	-8.00059E-001	0.00000E+000	9	...........	1425.78
	40	3.6	-8.01046E-001	-1.58180E-004	0.00000E+000	-8.00059E-001	0.00000E+000	9	...........	1425.78
	41	3.7	-8.01045E-001	-1.57524E-004	0.00000E+000	-8.00059E-001	0.00000E+000	9	...........	1425.78
	42	3.8	-8.01043E-001	-1.56883E-004	0.00000E+000	-8.00059E-001	0.00000E+000	9	...........	1425.78
	43	3.9	-8.01048E-001	-1.56235E-004	0.00000E+000	-8.00059E-001	0.00000E+000	9	...........	1425.78
	44	4	-8.01045E-001	-1.55613E-004	0.00000E+000	-8.00059E-001	0.00000E+000	9	...........	1425.78
	45	4.1	-8.01054E-001	-1.55153E-004	0.00000E+000	-8.00059E-001	0.00000E+000	9	...........	1425.78
	46	4.2	-8.01051E-001	-1.54535E-004	0.00000E+000	-8.00059E-001	0.00000E+000	9	...........	1425.78
	47	4.3	-8.01049E-001	-1.53993E-004	0.00000E+000	-8.00059E-001	0.00000E+000	9	...........	1425.78
	48	4.4	-8.01044E-001	-1.53527E-004	0.00000E+000	-8.00059E-001	0.00000E+000	9	...........	1425.78
	49	4.5	-8.01052E-001	-1.53078E-004	0.00000E+000	-8.00059E-001	0.00000E+000	9	...........	1425.78
	50	4.6	-8.01039E-001	-1.52491E-004	0.00000E+000	-8.00059E-001	0.00000E+000	9	...........	1425.78
	51	4.7	-8.01056E-001	-1.52125E-004	0.00000E+000	-8.00059E-001	0.00000E+000	9	...........	1425.78
	52	4.8	-8.01064E-001	-1.51816E-004	0.00000E+000	-8.00059E-001	0.00000E+000	9	...........	1425.78
	53	4.9	-8.01046E-001	-1.51395E-004	0.00000E+000	-8.00059E-001	0.00000E+000	9	...........	1425.78
	54	5	-8.01044E-001	-1.50954E-004	0.00000E+000	-8.00059E-001	0.00000E+000	9	...........	1425.78
	55	5.1	-8.01049E-001	-1.50544E-004	0.00000E+000	-8.00059E-001	0.00000E+000	9	...........	1425.78
	56	5.2	-8.01058E-001	-1.50185E-004	0.00000E+000	-8.00059E-001	0.00000E+000	9	...........	1425.78
	57	5.3	-8.01048E-001	-1.49842E-004	0.00000E+000	-8.00059E-001	0.00000E+000	9	...........	1425.78
	58	5.4	-8.01047E-001	-1.49427E-004	0.00000E+000	-8.00059E-001	0.00000E+000	9	...........	1425.78
	59	5.5	-8.01047E-001	-1.49212E-004	0.00000E+000	-8.00059E-001	0.00000E+000	9	...........	1425.78
	60	5.6	-8.01044E-001	-1.48767E-004	0.00000E+000	-8.00059E-001	0.00000E+000	9	...........	1425.78
	61	5.7	-8.01045E-001	-1.48584E-004	0.00000E+000	-8.00059E-001	0.00000E+000	9	...........	1425.78
	62	5.8	-8.01050E-001	-1.48273E-004	0.00000E+000	-8.00059E-001	0.00000E+000	9	...........	1425.78
	63	5.9	-8.01048E-001	-1.47984E-004	0.00000E+000	-8.00059E-001	0.00000E+000	9	...........	1425.78
	64	6	-8.01021E-001	-1.47605E-004	0.00000E+000	-8.00059E-001	0.00000E+000	9	...........	1425.78
	65	6.1	-8.01051E-001	-1.47436E-004	0.00000E+000	-8.00059E-001	0.00000E+000	9	...........	1425.78
	66	7.1	-8.01040E-001	-1.45134E-004	0.00000E+000	-8.00059E-001	0.00000E+000	9	...........	1425.78
	67	8.1	-8.01056E-001	-1.43625E-004	0.00000E+000	-8.00059E-001	0.00000E+000	9	...........	1425.78
	68	9.1	-8.01052E-001	-1.42750E-004	0.00000E+000	-8.00059E-001	0.00000E+000	9	...........	1425.87
	69	10.1	-8.01041E-001	-1.41753E-004	0.00000E+000	-8.00059E-001	0.00000E+000	9	...........	1425.87
	70	11.1	-8.01049E-001	-1.40908E-004	0.00000E+000	-8.00059E-001	0.00000E+000	9	...........	1425.87
	71	12.1	-8.01041E-001	-1.40052E-004	0.00000E+000	-8.00059E-001	0.00000E+000	9	...........	1425.87
	72	13.1	-8.01048E-001	-1.39472E-004	0.00000E+000	-8.00059E-001	0.00000E+000	9	...........	1425.87
	73	14.1	-8.01038E-001	-1.38821E-004	0.00000E+000	-8.00059E-001	0.00000E+000	9	...........	1425.87
	74	15.1	-8.01037E-001	-1.38311E-004	0.00000E+000	-8.00059E-001	0.00000E+000	9	...........	1425.87
	75	16.1	-8.01052E-001	-1.37818E-004	0.00000E+000	-8.00059E-001	0.00000E+000	9	...........	1425.87
	76	26.1	-8.01054E-001	-1.34984E-004	0.00000E+000	-8.00059E-001	0.00000E+000	9	...........	1425.87
	77	36.1	-8.01052E-001	-1.33734E-004	0.00000E+000	-8.00059E-001	0.00000E+000	9	...........	1425.87
	78	46.1	-8.01050E-001	-1.32815E-004	0.00000E+000	-8.00059E-001	0.00000E+000	9	...........	1425.87
	79	56.1	-8.01060E-001	-1.32428E-004	0.00000E+000	-8.00059E-001	0.00000E+000	9	...........	1425.87
	80	66.1	-8.01051E-001	-1.32328E-004	0.00000E+000	-8.00059E-001	0.00000E+000	9	...........	1425.87
	81	76.1	-8.01062E-001	-1.31717E-004	0.00000E+000	-8.00059E-001	0.00000E+000	9	...........	1425.87
	82	86.1	-8.01061E-001	-1.31831E-004	0.00000E+000	-8.00059E-001	0.00000E+000	9	...........	1425.87
	83	96.1	-8.01053E-001	-1.31660E-004	0.00000E+000	-8.00059E-001	0.00000E+000	9	...........	1425.87
	84	106.1	-8.01047E-001	-1.31440E-004	0.00000E+000	-8.00059E-001	0.00000E+000	9	...........	1425.95
	85	116.1	-8.01037E-001	-1.31201E-004	0.00000E+000	-8.00059E-001	0.00000E+000	9	...........	1425.87
	86	216.1	-8.01053E-001	-1.32202E-004	0.00000E+000	-8.00059E-001	0.00000E+000	9	...........	1425.95
	87	300	-8.01044E-001	-1.34385E-004	0.00000E+000	-8.00059E-001	0.00000E+000	9	...........	1425.95
	88	300.1	-7.51031E-001	8.77216E-005	0.00000E+000	-7.50046E-001	0.00000E+000	9	...........	1425.95
	89	300.2	-7.51043E-001	1.54654E-005	0.00000E+000	-7.50046E-001	0.00000E+000	9	...........	1425.95
	90	300.3	-7.51049E-001	-2.59050E-005	0.00000E+000	-7.50046E-001	0.00000E+000	9	...........	1425.95
	91	300.4	-7.51041E-001	-5.15785E-005	0.00000E+000	-7.50046E-001	0.00000E+000	9	...........	1425.95
	92	300.5	-7.51049E-001	-6.85373E-005	0.00000E+000	-7.50046E-001	0.00000E+000	9	...........	1425.95
	93	300.6	-7.51041E-001	-8.00732E-005	0.00000E+000	-7.50046E-001	0.00000E+000	9	...........	1425.95
	94	300.7	-7.51040E-001	-8.83744E-005	0.00000E+000	-7.50046E-001	0.00000E+000	9	...........	1425.95
	95	300.8	-7.51026E-001	-9.43607E-005	0.00000E+000	-7.50046E-001	0.00000E+000	9	...........	1425.95
	96	300.9	-7.51030E-001	-9.87959E-005	0.00000E+000	-7.50046E-001	0.00000E+000	9	...........	1425.95
	97	301	-7.51031E-001	-1.02341E-004	0.00000E+000	-7.50046E-001	0.00000E+000	9	...........	1425.95
