EXPLAIN
TAG	CHRONOA
TITLE	LABEL	Chronoamperometry Scan	Test Identifier
DATE	LABEL	17/8/2022	Date
TIME	LABEL	15:05:29	Time
NOTES	NOTES	1	Notes...
	
PSTAT	PSTAT	IFC1010-21051	Potentiostat
VPRESTEP	POTEN	5.00000E-002	F	Pre-step Voltage (V)
TPRESTEP	QUANT	5.00000E-001	Pre-step Delay Time (s)
VSTEP1	POTEN	0.00000E+000	F	Step 1 Voltage (V)
TSTEP1	QUANT	3.00000E+002	Step 1 Time (s)
VSTEP2	POTEN	-5.00000E-002	F	Step 2 Voltage (V)
TSTEP2	QUANT	1.00000E+000	Step 2 Time (s)
SAMPLETIME	QUANT	1.00000E-001	Sample Period (s)
DECIMATE	TOGGLE	T	Decimate
ILIMIT	QUANT	1.00000E+000	Limit I (mA/cm^2)
IMODE	SELECTOR	1	I/E Range Mode
IRANGE	QUANT	3.00000E-001	Max Current (mA)
EQDELAY	QUANT	5.00000E+000	Equil. Time (s)
SAMPLINGMODE	SELECTOR	1	Sampling Mode
AREA	QUANT	1.00000E+000	Sample Area (cm^2)
IRCOMP	SELECTOR	0	IRComp
PFCOR	QUANT	5.00000E+001	PF Corr. (ohm)
SEQUENCER	TOGGLE	TRUE	Run as Sequence
PSTATMODEL	IQUANT	64	Pstat Model
PSTATSECTION	LABEL	IFC1010-21051	Pstat Section
PSTATSERIALNO	LABEL	21051	Pstat Serial Number
CTRLMODE	IQUANT	1	Control Mode
ELECTROMETER	IQUANT	0	RE=0 or CS=1
IESTAB	IQUANT	0	I/E Stability
CASPEED	IQUANT	4	Control Amp Speed
CONVENTION	IQUANT	1	Current Convention
ICHRANGE	IQUANT	2	Ich Range
ICHRANGEMODE	TOGGLE	T	Ich Auto Range
ICHOFFSETENABLE	TOGGLE	F	Ich Offset Enable
ICHOFFSET	QUANT	0	Ich Offset (V)
ICHFILTER	IQUANT	3	Ich Filter
VCHRANGE	IQUANT	3	Vch Range
VCHRANGEMODE	TOGGLE	T	Vch Auto Range
VCHOFFSETENABLE	TOGGLE	F	Vch Offset Enable
VCHOFFSET	QUANT	0	Vch Offset (V)
VCHFILTER	IQUANT	3	Vch Filter
IERANGELOWERLIMIT	IQUANT	4	I/E Range Lower Limit
IERANGEMODE	TOGGLE	F	I/E AutoRange
IERANGE	IQUANT	9	I/E Range
ACHSELECT	IQUANT	0	Ach Select
ACHRANGE	IQUANT	2	Ach Range
ACHOFFSETENABLE	TOGGLE	F	Ach Offset Enable
ACHOFFSET	QUANT	0	Ach Offset (V)
ACHFILTER	IQUANT	1	Ach Filter
SENSECABLEID	IQUANT	14	Sense Cable ID
PWRCABLEID	IQUANT	14	Power Cable ID
DCCALDATE	LABEL	7/12/2022	DC Calibration Date
ACCALDATE	LABEL	4/2/2018	AC Calibration Date
FRAMEWORKVERSION	QUANT	7.06	Framework Version
INSTRUMENTVERSION	LABEL	4.30	Instrument Version
CURVE	TABLE	98
	Pt	T	Vf	Im	Vu	Sig	Ach	IERange	Over	Temp
	#	s	V vs. Ref.	A	V	V	V	#	bits	deg C
	0	-0.4	4.99852E-002	-2.69780E-006	0.00000E+000	4.99998E-002	0.00000E+000	9	...........	1425.87
	1	-0.3	5.00075E-002	-2.67264E-006	0.00000E+000	4.99998E-002	0.00000E+000	9	...........	1425.87
	2	-0.2	5.00259E-002	-2.65990E-006	0.00000E+000	4.99998E-002	0.00000E+000	9	...........	1425.87
	3	-0.1	5.00250E-002	-2.63754E-006	0.00000E+000	4.99998E-002	0.00000E+000	9	...........	1425.87
	4	0	5.00255E-002	-2.62736E-006	0.00000E+000	4.99998E-002	0.00000E+000	9	...........	1425.87
	5	0.1	6.26031E-006	-8.97039E-005	0.00000E+000	0.00000E+000	0.00000E+000	9	...........	1425.87
	6	0.2	7.07430E-006	-3.51641E-005	0.00000E+000	0.00000E+000	0.00000E+000	9	...........	1425.87
	7	0.3	5.53040E-006	-2.18962E-005	0.00000E+000	0.00000E+000	0.00000E+000	9	...........	1425.87
	8	0.4	4.95870E-006	-1.71534E-005	0.00000E+000	0.00000E+000	0.00000E+000	9	...........	1425.87
	9	0.5	6.26731E-006	-1.48431E-005	0.00000E+000	0.00000E+000	0.00000E+000	9	...........	1425.87
	10	0.6	6.34340E-006	-1.34575E-005	0.00000E+000	0.00000E+000	0.00000E+000	9	...........	1425.87
	11	0.7	6.65879E-006	-1.25092E-005	0.00000E+000	0.00000E+000	0.00000E+000	9	...........	1425.87
	12	0.8	6.30535E-006	-1.18147E-005	0.00000E+000	0.00000E+000	0.00000E+000	9	...........	1425.87
	13	0.9	6.65678E-006	-1.12782E-005	0.00000E+000	0.00000E+000	0.00000E+000	9	...........	1425.87
	14	1	5.95793E-006	-1.08426E-005	0.00000E+000	0.00000E+000	0.00000E+000	9	...........	1425.87
	15	1.1	5.42628E-006	-1.04617E-005	0.00000E+000	0.00000E+000	0.00000E+000	9	...........	1425.87
	16	1.2	5.44529E-006	-1.01632E-005	0.00000E+000	0.00000E+000	0.00000E+000	9	...........	1425.87
	17	1.3	5.46833E-006	-9.88185E-006	0.00000E+000	0.00000E+000	0.00000E+000	9	...........	1426.22
	18	1.4	5.53441E-006	-9.65158E-006	0.00000E+000	0.00000E+000	0.00000E+000	9	...........	1426.22
	19	1.5	4.79350E-006	-9.44306E-006	0.00000E+000	0.00000E+000	0.00000E+000	9	...........	1426.22
	20	1.6	4.98573E-006	-9.24693E-006	0.00000E+000	0.00000E+000	0.00000E+000	9	...........	1426.22
	21	1.7	6.23126E-006	-9.07164E-006	0.00000E+000	0.00000E+000	0.00000E+000	9	...........	1426.22
	22	1.8	5.29912E-006	-8.91915E-006	0.00000E+000	0.00000E+000	0.00000E+000	9	...........	1426.22
	23	1.9	4.56521E-006	-8.78492E-006	0.00000E+000	0.00000E+000	0.00000E+000	9	...........	1426.22
	24	2	5.13492E-006	-8.64597E-006	0.00000E+000	0.00000E+000	0.00000E+000	9	...........	1426.22
	25	2.1	4.90964E-006	-8.54033E-006	0.00000E+000	0.00000E+000	0.00000E+000	9	...........	1426.22
	26	2.2	5.94391E-006	-8.41760E-006	0.00000E+000	0.00000E+000	0.00000E+000	9	...........	1426.22
	27	2.3	5.97395E-006	-8.31273E-006	0.00000E+000	0.00000E+000	0.00000E+000	9	...........	1426.22
	28	2.4	6.11813E-006	-8.21483E-006	0.00000E+000	0.00000E+000	0.00000E+000	9	...........	1426.22
	29	2.5	5.75568E-006	-8.12987E-006	0.00000E+000	0.00000E+000	0.00000E+000	9	...........	1426.22
	30	2.6	5.91287E-006	-8.05109E-006	0.00000E+000	0.00000E+000	0.00000E+000	9	...........	1426.22
	31	2.7	5.87382E-006	-7.95973E-006	0.00000E+000	0.00000E+000	0.00000E+000	9	...........	1426.22
	32	2.8	5.75368E-006	-7.88212E-006	0.00000E+000	0.00000E+000	0.00000E+000	9	...........	1426.22
	33	2.9	5.94091E-006	-7.80297E-006	0.00000E+000	0.00000E+000	0.00000E+000	9	...........	1426.22
	34	3	6.22525E-006	-7.73066E-006	0.00000E+000	0.00000E+000	0.00000E+000	9	...........	1426.22
	35	3.1	5.65155E-006	-7.66699E-006	0.00000E+000	0.00000E+000	0.00000E+000	9	...........	1426.22
	36	3.2	8.14362E-006	-7.59506E-006	0.00000E+000	0.00000E+000	0.00000E+000	9	...........	1426.22
	37	3.3	6.60473E-006	-7.53239E-006	0.00000E+000	0.00000E+000	0.00000E+000	9	...........	1426.13
	38	3.4	6.30436E-006	-7.47807E-006	0.00000E+000	0.00000E+000	0.00000E+000	9	...........	1426.13
	39	3.5	7.40671E-006	-7.41594E-006	0.00000E+000	0.00000E+000	0.00000E+000	9	...........	1426.13
	40	3.6	5.14193E-006	-7.36131E-006	0.00000E+000	0.00000E+000	0.00000E+000	9	...........	1426.13
	41	3.7	5.55443E-006	-7.30993E-006	0.00000E+000	0.00000E+000	0.00000E+000	9	...........	1426.13
	42	3.8	5.21401E-006	-7.25634E-006	0.00000E+000	0.00000E+000	0.00000E+000	9	...........	1426.13
	43	3.9	4.28687E-006	-7.21463E-006	0.00000E+000	0.00000E+000	0.00000E+000	9	...........	1426.13
	44	4	6.02501E-006	-7.14836E-006	0.00000E+000	0.00000E+000	0.00000E+000	9	...........	1426.13
	45	4.1	6.39146E-006	-7.10785E-006	0.00000E+000	0.00000E+000	0.00000E+000	9	...........	1426.13
	46	4.2	5.38323E-006	-7.06294E-006	0.00000E+000	0.00000E+000	0.00000E+000	9	...........	1426.13
	47	4.3	5.64454E-006	-7.00551E-006	0.00000E+000	0.00000E+000	0.00000E+000	9	...........	1426.13
	48	4.4	5.20500E-006	-6.97859E-006	0.00000E+000	0.00000E+000	0.00000E+000	9	...........	1426.13
	49	4.5	6.33239E-006	-6.93627E-006	0.00000E+000	0.00000E+000	0.00000E+000	9	...........	1426.13
	50	4.6	5.58347E-006	-6.90187E-006	0.00000E+000	0.00000E+000	0.00000E+000	9	...........	1426.13
	51	4.7	7.02524E-006	-6.85933E-006	0.00000E+000	0.00000E+000	0.00000E+000	9	...........	1426.13
	52	4.8	5.76569E-006	-6.82753E-006	0.00000E+000	0.00000E+000	0.00000E+000	9	...........	1426.13
	53	4.9	6.91410E-006	-6.78001E-006	0.00000E+000	0.00000E+000	0.00000E+000	9	...........	1426.13
	54	5	5.83077E-006	-6.76823E-006	0.00000E+000	0.00000E+000	0.00000E+000	9	...........	1426.13
	55	5.1	5.70261E-006	-6.73250E-006	0.00000E+000	0.00000E+000	0.00000E+000	9	...........	1426.13
	56	5.2	5.74467E-006	-6.69573E-006	0.00000E+000	0.00000E+000	0.00000E+000	9	...........	1426.13
	57	5.3	5.90887E-006	-6.66216E-006	0.00000E+000	0.00000E+000	0.00000E+000	9	...........	1426.13
	58	5.4	6.57369E-006	-6.63510E-006	0.00000E+000	0.00000E+000	0.00000E+000	9	...........	1426.13
	59	5.5	6.10211E-006	-6.61007E-006	0.00000E+000	0.00000E+000	0.00000E+000	9	...........	1426.13
	60	5.6	6.14917E-006	-6.58855E-006	0.00000E+000	0.00000E+000	0.00000E+000	9	...........	1426.13
	61	5.7	6.56368E-006	-6.55965E-006	0.00000E+000	0.00000E+000	0.00000E+000	9	...........	1426.13
	62	5.8	6.46054E-006	-6.52221E-006	0.00000E+000	0.00000E+000	0.00000E+000	9	...........	1426.13
	63	5.9	6.08207E-006	-6.50700E-006	0.00000E+000	0.00000E+000	0.00000E+000	9	...........	1426.13
	64	6	5.36620E-006	-6.47727E-006	0.00000E+000	0.00000E+000	0.00000E+000	9	...........	1426.13
	65	6.1	6.55265E-006	-6.45565E-006	0.00000E+000	0.00000E+000	0.00000E+000	9	...........	1426.13
	66	7.1	6.05405E-006	-6.22944E-006	0.00000E+000	0.00000E+000	0.00000E+000	9	...........	1426.13
	67	8.1	5.97595E-006	-6.03258E-006	0.00000E+000	0.00000E+000	0.00000E+000	9	...........	1426.22
	68	9.1	5.70762E-006	-5.87601E-006	0.00000E+000	0.00000E+000	0.00000E+000	9	...........	1426.22
	69	10.1	4.45007E-006	-5.72953E-006	0.00000E+000	0.00000E+000	0.00000E+000	9	...........	1426.31
	70	11.1	5.78671E-006	-5.60870E-006	0.00000E+000	0.00000E+000	0.00000E+000	9	...........	1426.22
	71	12.1	5.27609E-006	-5.52579E-006	0.00000E+000	0.00000E+000	0.00000E+000	9	...........	1426.22
	72	13.1	4.93066E-006	-5.44290E-006	0.00000E+000	0.00000E+000	0.00000E+000	9	...........	1426.22
	73	14.1	5.30312E-006	-5.38868E-006	0.00000E+000	0.00000E+000	0.00000E+000	9	...........	1426.22
	74	15.1	4.70439E-006	-5.35271E-006	0.00000E+000	0.00000E+000	0.00000E+000	9	...........	1426.22
	75	16.1	6.56668E-006	-5.29381E-006	0.00000E+000	0.00000E+000	0.00000E+000	9	...........	1426.22
	76	26.1	5.49636E-006	-4.93918E-006	0.00000E+000	0.00000E+000	0.00000E+000	9	...........	1426.22
	77	36.1	5.62552E-006	-4.36189E-006	0.00000E+000	0.00000E+000	0.00000E+000	9	...........	1426.22
	78	46.1	6.91911E-006	-4.29845E-006	0.00000E+000	0.00000E+000	0.00000E+000	9	...........	1426.22
	79	56.1	5.30212E-006	-4.19021E-006	0.00000E+000	0.00000E+000	0.00000E+000	9	...........	1426.22
	80	66.1	5.42527E-006	-3.99574E-006	0.00000E+000	0.00000E+000	0.00000E+000	9	...........	1426.22
	81	76.1	6.86204E-006	-3.75626E-006	0.00000E+000	0.00000E+000	0.00000E+000	9	...........	1426.22
	82	86.1	5.40625E-006	-3.69570E-006	0.00000E+000	0.00000E+000	0.00000E+000	9	...........	1426.13
	83	96.1	5.58547E-006	-3.80931E-006	0.00000E+000	0.00000E+000	0.00000E+000	9	...........	1426.22
	84	106.1	6.07107E-006	-3.73450E-006	0.00000E+000	0.00000E+000	0.00000E+000	9	...........	1426.22
	85	116.1	5.32014E-006	-3.49803E-006	0.00000E+000	0.00000E+000	0.00000E+000	9	...........	1426.22
	86	216.1	4.35796E-006	-3.39495E-006	0.00000E+000	0.00000E+000	0.00000E+000	9	...........	1426.22
	87	300	3.95646E-006	-3.25014E-006	0.00000E+000	0.00000E+000	0.00000E+000	9	...........	1426.22
	88	300.1	-3.28713E-002	-8.73015E-005	0.00000E+000	-4.99998E-002	0.00000E+000	9	.........v.	1426.22
	89	300.2	-5.00070E-002	-3.27370E-005	0.00000E+000	-4.99998E-002	0.00000E+000	9	...........	1426.22
	90	300.3	-5.00063E-002	-2.08826E-005	0.00000E+000	-4.99998E-002	0.00000E+000	9	...........	1426.22
	91	300.4	-5.00075E-002	-1.72671E-005	0.00000E+000	-4.99998E-002	0.00000E+000	9	...........	1426.22
	92	300.5	-5.00063E-002	-1.57273E-005	0.00000E+000	-4.99998E-002	0.00000E+000	9	...........	1426.22
	93	300.6	-5.00048E-002	-1.48826E-005	0.00000E+000	-4.99998E-002	0.00000E+000	9	...........	1426.22
	94	300.7	-5.00036E-002	-1.43477E-005	0.00000E+000	-4.99998E-002	0.00000E+000	9	...........	1426.22
	95	300.8	-5.00053E-002	-1.39491E-005	0.00000E+000	-4.99998E-002	0.00000E+000	9	...........	1426.22
	96	300.9	-5.00027E-002	-1.36546E-005	0.00000E+000	-4.99998E-002	0.00000E+000	9	...........	1426.22
	97	301	-5.00028E-002	-1.34400E-005	0.00000E+000	-4.99998E-002	0.00000E+000	9	...........	1426.22
