EXPLAIN
TAG	CHRONOA
TITLE	LABEL	Chronoamperometry Scan	Test Identifier
DATE	LABEL	17/8/2022	Date
TIME	LABEL	14:39:53	Time
NOTES	NOTES	1	Notes...
	
PSTAT	PSTAT	IFC1010-21051	Potentiostat
VPRESTEP	POTEN	5.00000E-002	F	Pre-step Voltage (V)
TPRESTEP	QUANT	5.00000E-001	Pre-step Delay Time (s)
VSTEP1	POTEN	0.00000E+000	F	Step 1 Voltage (V)
TSTEP1	QUANT	6.00000E+001	Step 1 Time (s)
VSTEP2	POTEN	-5.00000E-002	F	Step 2 Voltage (V)
TSTEP2	QUANT	1.00000E+000	Step 2 Time (s)
SAMPLETIME	QUANT	1.00000E-002	Sample Period (s)
DECIMATE	TOGGLE	T	Decimate
ILIMIT	QUANT	1.00000E+000	Limit I (mA/cm^2)
IMODE	SELECTOR	1	I/E Range Mode
IRANGE	QUANT	3.00000E-001	Max Current (mA)
EQDELAY	QUANT	5.00000E+000	Equil. Time (s)
SAMPLINGMODE	SELECTOR	1	Sampling Mode
AREA	QUANT	1.00000E+000	Sample Area (cm^2)
IRCOMP	SELECTOR	0	IRComp
PFCOR	QUANT	5.00000E+001	PF Corr. (ohm)
SEQUENCER	TOGGLE	TRUE	Run as Sequence
PSTATMODEL	IQUANT	64	Pstat Model
PSTATSECTION	LABEL	IFC1010-21051	Pstat Section
PSTATSERIALNO	LABEL	21051	Pstat Serial Number
CTRLMODE	IQUANT	1	Control Mode
ELECTROMETER	IQUANT	0	RE=0 or CS=1
IESTAB	IQUANT	0	I/E Stability
CASPEED	IQUANT	4	Control Amp Speed
CONVENTION	IQUANT	1	Current Convention
ICHRANGE	IQUANT	2	Ich Range
ICHRANGEMODE	TOGGLE	T	Ich Auto Range
ICHOFFSETENABLE	TOGGLE	F	Ich Offset Enable
ICHOFFSET	QUANT	0	Ich Offset (V)
ICHFILTER	IQUANT	3	Ich Filter
VCHRANGE	IQUANT	3	Vch Range
VCHRANGEMODE	TOGGLE	T	Vch Auto Range
VCHOFFSETENABLE	TOGGLE	F	Vch Offset Enable
VCHOFFSET	QUANT	0	Vch Offset (V)
VCHFILTER	IQUANT	3	Vch Filter
IERANGELOWERLIMIT	IQUANT	4	I/E Range Lower Limit
IERANGEMODE	TOGGLE	F	I/E AutoRange
IERANGE	IQUANT	9	I/E Range
ACHSELECT	IQUANT	0	Ach Select
ACHRANGE	IQUANT	2	Ach Range
ACHOFFSETENABLE	TOGGLE	F	Ach Offset Enable
ACHOFFSET	QUANT	0	Ach Offset (V)
ACHFILTER	IQUANT	1	Ach Filter
SENSECABLEID	IQUANT	14	Sense Cable ID
PWRCABLEID	IQUANT	14	Power Cable ID
DCCALDATE	LABEL	7/12/2022	DC Calibration Date
ACCALDATE	LABEL	4/2/2018	AC Calibration Date
FRAMEWORKVERSION	QUANT	7.06	Framework Version
INSTRUMENTVERSION	LABEL	4.30	Instrument Version
CURVE	TABLE	201
	Pt	T	Vf	Im	Vu	Sig	Ach	IERange	Over	Temp
	#	s	V vs. Ref.	A	V	V	V	#	bits	deg C
	0	-0.49	5.00528E-002	-1.08438E-004	0.00000E+000	4.99998E-002	0.00000E+000	9	...........	1425.78
	1	-0.48	5.00104E-002	-1.07326E-004	0.00000E+000	4.99998E-002	0.00000E+000	9	...........	1425.78
	2	-0.47	5.00283E-002	-1.08126E-004	0.00000E+000	4.99998E-002	0.00000E+000	9	...........	1425.78
	3	-0.46	5.00281E-002	-1.06990E-004	0.00000E+000	4.99998E-002	0.00000E+000	9	...........	1425.78
	4	-0.45	5.00262E-002	-1.07825E-004	0.00000E+000	4.99998E-002	0.00000E+000	9	...........	1425.78
	5	-0.44	5.00261E-002	-1.06660E-004	0.00000E+000	4.99998E-002	0.00000E+000	9	...........	1425.78
	6	-0.43	5.00281E-002	-1.07489E-004	0.00000E+000	4.99998E-002	0.00000E+000	9	...........	1425.78
	7	-0.42	5.00283E-002	-1.06348E-004	0.00000E+000	4.99998E-002	0.00000E+000	9	...........	1425.78
	8	-0.41	5.00298E-002	-1.07174E-004	0.00000E+000	4.99998E-002	0.00000E+000	9	...........	1425.78
	9	-0.4	5.00299E-002	-1.06010E-004	0.00000E+000	4.99998E-002	0.00000E+000	9	...........	1425.78
	10	-0.39	5.00301E-002	-1.06872E-004	0.00000E+000	4.99998E-002	0.00000E+000	9	...........	1425.78
	11	-0.38	5.00283E-002	-1.05676E-004	0.00000E+000	4.99998E-002	0.00000E+000	9	...........	1425.78
	12	-0.37	5.00273E-002	-1.06549E-004	0.00000E+000	4.99998E-002	0.00000E+000	9	...........	1425.78
	13	-0.36	5.00265E-002	-1.05354E-004	0.00000E+000	4.99998E-002	0.00000E+000	9	...........	1425.78
	14	-0.35	5.00265E-002	-1.06245E-004	0.00000E+000	4.99998E-002	0.00000E+000	9	...........	1425.78
	15	-0.34	5.00285E-002	-1.05030E-004	0.00000E+000	4.99998E-002	0.00000E+000	9	...........	1425.78
	16	-0.33	5.00291E-002	-1.05931E-004	0.00000E+000	4.99998E-002	0.00000E+000	9	...........	1425.78
	17	-0.32	5.00281E-002	-1.04715E-004	0.00000E+000	4.99998E-002	0.00000E+000	9	...........	1425.78
	18	-0.31	5.00292E-002	-1.05630E-004	0.00000E+000	4.99998E-002	0.00000E+000	9	...........	1425.78
	19	-0.3	5.00293E-002	-1.04413E-004	0.00000E+000	4.99998E-002	0.00000E+000	9	...........	1425.78
	20	-0.29	5.00278E-002	-1.05343E-004	0.00000E+000	4.99998E-002	0.00000E+000	9	...........	1425.78
	21	-0.28	5.00294E-002	-1.04096E-004	0.00000E+000	4.99998E-002	0.00000E+000	9	...........	1425.78
	22	-0.27	5.00264E-002	-1.05055E-004	0.00000E+000	4.99998E-002	0.00000E+000	9	...........	1425.78
	23	-0.26	5.00244E-002	-1.03792E-004	0.00000E+000	4.99998E-002	0.00000E+000	9	...........	1425.78
	24	-0.25	5.00275E-002	-1.04762E-004	0.00000E+000	4.99998E-002	0.00000E+000	9	...........	1425.78
	25	-0.24	5.00288E-002	-1.03466E-004	0.00000E+000	4.99998E-002	0.00000E+000	9	...........	1425.78
	26	-0.23	5.00257E-002	-1.04477E-004	0.00000E+000	4.99998E-002	0.00000E+000	9	...........	1425.78
	27	-0.22	5.00302E-002	-1.03167E-004	0.00000E+000	4.99998E-002	0.00000E+000	9	...........	1425.78
	28	-0.21	5.00263E-002	-1.04187E-004	0.00000E+000	4.99998E-002	0.00000E+000	9	...........	1425.78
	29	-0.2	5.00272E-002	-1.02858E-004	0.00000E+000	4.99998E-002	0.00000E+000	9	...........	1425.78
	30	-0.19	5.00276E-002	-1.03895E-004	0.00000E+000	4.99998E-002	0.00000E+000	9	...........	1425.78
	31	-0.18	5.00259E-002	-1.02553E-004	0.00000E+000	4.99998E-002	0.00000E+000	9	...........	1425.78
	32	-0.17	5.00245E-002	-1.03600E-004	0.00000E+000	4.99998E-002	0.00000E+000	9	...........	1425.78
	33	-0.16	5.00248E-002	-1.02251E-004	0.00000E+000	4.99998E-002	0.00000E+000	9	...........	1425.78
	34	-0.15	5.00282E-002	-1.03327E-004	0.00000E+000	4.99998E-002	0.00000E+000	9	...........	1425.78
	35	-0.14	5.00291E-002	-1.01956E-004	0.00000E+000	4.99998E-002	0.00000E+000	9	...........	1425.78
	36	-0.13	5.00256E-002	-1.03050E-004	0.00000E+000	4.99998E-002	0.00000E+000	9	...........	1425.78
	37	-0.12	5.00265E-002	-1.01668E-004	0.00000E+000	4.99998E-002	0.00000E+000	9	...........	1425.78
	38	-0.11	5.00283E-002	-1.02760E-004	0.00000E+000	4.99998E-002	0.00000E+000	9	...........	1425.78
	39	-0.1	5.00301E-002	-1.01360E-004	0.00000E+000	4.99998E-002	0.00000E+000	9	...........	1425.78
	40	-0.09	5.00287E-002	-1.02466E-004	0.00000E+000	4.99998E-002	0.00000E+000	9	...........	1425.78
	41	-0.08	5.00317E-002	-1.01055E-004	0.00000E+000	4.99998E-002	0.00000E+000	9	...........	1425.78
	42	-0.07	5.00279E-002	-1.02199E-004	0.00000E+000	4.99998E-002	0.00000E+000	9	...........	1425.78
	43	-0.06	5.00291E-002	-1.00774E-004	0.00000E+000	4.99998E-002	0.00000E+000	9	...........	1425.78
	44	-0.05	5.00283E-002	-1.01917E-004	0.00000E+000	4.99998E-002	0.00000E+000	9	...........	1425.78
	45	-0.04	5.00252E-002	-1.00503E-004	0.00000E+000	4.99998E-002	0.00000E+000	9	...........	1425.78
	46	-0.03	5.00274E-002	-1.01657E-004	0.00000E+000	4.99998E-002	0.00000E+000	9	...........	1425.78
	47	-0.02	5.00280E-002	-1.00224E-004	0.00000E+000	4.99998E-002	0.00000E+000	9	...........	1425.78
	48	-0.01	5.00272E-002	-1.01386E-004	0.00000E+000	4.99998E-002	0.00000E+000	9	...........	1425.78
	49	0	5.00307E-002	-9.99305E-005	0.00000E+000	4.99998E-002	0.00000E+000	9	...........	1425.78
	50	0.01	1.08526E-005	-4.03288E-004	0.00000E+000	0.00000E+000	0.00000E+000	9	...........	1425.78
	51	0.02	6.69451E-006	-3.62872E-004	0.00000E+000	0.00000E+000	0.00000E+000	9	...........	1425.78
	52	0.03	8.31315E-006	-3.35762E-004	0.00000E+000	0.00000E+000	0.00000E+000	9	...........	1425.78
	53	0.04	7.83757E-006	-3.11652E-004	0.00000E+000	0.00000E+000	0.00000E+000	9	...........	1425.78
	54	0.05	9.52298E-006	-2.94018E-004	0.00000E+000	0.00000E+000	0.00000E+000	9	...........	1425.78
	55	0.06	1.16172E-005	-2.76708E-004	0.00000E+000	0.00000E+000	0.00000E+000	9	...........	1425.78
	56	0.07	9.38949E-006	-2.64350E-004	0.00000E+000	0.00000E+000	0.00000E+000	9	...........	1425.78
	57	0.08	8.14629E-006	-2.51208E-004	0.00000E+000	0.00000E+000	0.00000E+000	9	...........	1425.78
	58	0.09	9.53967E-006	-2.42223E-004	0.00000E+000	0.00000E+000	0.00000E+000	9	...........	1425.78
	59	0.1	7.96273E-006	-2.31874E-004	0.00000E+000	0.00000E+000	0.00000E+000	9	...........	1425.78
	60	0.11	8.20470E-006	-2.25219E-004	0.00000E+000	0.00000E+000	0.00000E+000	9	...........	1425.78
	61	0.12	8.77205E-006	-2.16827E-004	0.00000E+000	0.00000E+000	0.00000E+000	9	...........	1425.78
	62	0.13	1.00903E-005	-2.11849E-004	0.00000E+000	0.00000E+000	0.00000E+000	9	...........	1425.78
	63	0.14	9.32274E-006	-2.04895E-004	0.00000E+000	0.00000E+000	0.00000E+000	9	...........	1425.78
	64	0.15	1.16005E-005	-2.01155E-004	0.00000E+000	0.00000E+000	0.00000E+000	9	...........	1425.78
	65	0.16	1.06911E-005	-1.95256E-004	0.00000E+000	0.00000E+000	0.00000E+000	9	...........	1425.78
	66	0.17	7.63733E-006	-1.92435E-004	0.00000E+000	0.00000E+000	0.00000E+000	9	...........	1425.78
	67	0.18	7.37033E-006	-1.87352E-004	0.00000E+000	0.00000E+000	0.00000E+000	9	...........	1425.78
	68	0.19	8.23806E-006	-1.85234E-004	0.00000E+000	0.00000E+000	0.00000E+000	9	...........	1425.78
	69	0.2	6.96149E-006	-1.80767E-004	0.00000E+000	0.00000E+000	0.00000E+000	9	...........	1425.78
	70	0.21	7.56223E-006	-1.79177E-004	0.00000E+000	0.00000E+000	0.00000E+000	9	...........	1425.78
	71	0.22	9.84003E-006	-1.75189E-004	0.00000E+000	0.00000E+000	0.00000E+000	9	...........	1425.78
	72	0.23	8.80543E-006	-1.74037E-004	0.00000E+000	0.00000E+000	0.00000E+000	9	...........	1425.78
	73	0.24	9.10580E-006	-1.70431E-004	0.00000E+000	0.00000E+000	0.00000E+000	9	...........	1425.78
	74	0.25	6.96984E-006	-1.69634E-004	0.00000E+000	0.00000E+000	0.00000E+000	9	...........	1425.78
	75	0.26	1.02822E-005	-1.66338E-004	0.00000E+000	0.00000E+000	0.00000E+000	9	...........	1425.78
	76	0.27	8.78040E-006	-1.65793E-004	0.00000E+000	0.00000E+000	0.00000E+000	9	...........	1425.78
	77	0.28	1.12084E-005	-1.62761E-004	0.00000E+000	0.00000E+000	0.00000E+000	9	...........	1425.78
	78	0.29	1.02906E-005	-1.62406E-004	0.00000E+000	0.00000E+000	0.00000E+000	9	...........	1425.78
	79	0.3	8.90555E-006	-1.59593E-004	0.00000E+000	0.00000E+000	0.00000E+000	9	...........	1425.78
	80	0.31	9.77328E-006	-1.59442E-004	0.00000E+000	0.00000E+000	0.00000E+000	9	...........	1425.78
	81	0.32	7.67905E-006	-1.56778E-004	0.00000E+000	0.00000E+000	0.00000E+000	9	...........	1425.78
	82	0.33	6.96149E-006	-1.56756E-004	0.00000E+000	0.00000E+000	0.00000E+000	9	...........	1425.78
	83	0.34	8.59683E-006	-1.54216E-004	0.00000E+000	0.00000E+000	0.00000E+000	9	...........	1425.78
	84	0.35	9.40617E-006	-1.54333E-004	0.00000E+000	0.00000E+000	0.00000E+000	9	...........	1425.78
	85	0.36	1.14253E-005	-1.51944E-004	0.00000E+000	0.00000E+000	0.00000E+000	9	...........	1425.78
	86	0.37	1.15088E-005	-1.52159E-004	0.00000E+000	0.00000E+000	0.00000E+000	9	...........	1425.78
	87	0.38	5.46799E-006	-1.49877E-004	0.00000E+000	0.00000E+000	0.00000E+000	9	...........	1425.78
	88	0.39	7.64567E-006	-1.50151E-004	0.00000E+000	0.00000E+000	0.00000E+000	9	...........	1425.78
	89	0.4	1.01404E-005	-1.47942E-004	0.00000E+000	0.00000E+000	0.00000E+000	9	...........	1425.78
	90	0.41	8.93893E-006	-1.48321E-004	0.00000E+000	0.00000E+000	0.00000E+000	9	...........	1425.78
	91	0.42	8.14629E-006	-1.46188E-004	0.00000E+000	0.00000E+000	0.00000E+000	9	...........	1425.78
	92	0.43	1.03323E-005	-1.46584E-004	0.00000E+000	0.00000E+000	0.00000E+000	9	...........	1425.78
	93	0.44	7.61230E-006	-1.44545E-004	0.00000E+000	0.00000E+000	0.00000E+000	9	...........	1425.78
	94	0.45	9.25598E-006	-1.44996E-004	0.00000E+000	0.00000E+000	0.00000E+000	9	...........	1425.78
	95	0.46	7.98776E-006	-1.43011E-004	0.00000E+000	0.00000E+000	0.00000E+000	9	...........	1425.78
	96	0.47	9.63145E-006	-1.43512E-004	0.00000E+000	0.00000E+000	0.00000E+000	9	...........	1425.78
	97	0.48	1.08746E-005	-1.41570E-004	0.00000E+000	0.00000E+000	0.00000E+000	9	...........	1425.78
	98	0.49	9.75660E-006	-1.42100E-004	0.00000E+000	0.00000E+000	0.00000E+000	9	...........	1425.78
	99	0.5	1.10916E-005	-1.40215E-004	0.00000E+000	0.00000E+000	0.00000E+000	9	...........	1425.78
	100	0.51	1.14670E-005	-1.40762E-004	0.00000E+000	0.00000E+000	0.00000E+000	9	...........	1425.78
	101	0.52	8.38826E-006	-1.38950E-004	0.00000E+000	0.00000E+000	0.00000E+000	9	...........	1425.78
	102	0.53	9.13918E-006	-1.39528E-004	0.00000E+000	0.00000E+000	0.00000E+000	9	...........	1425.78
	103	0.54	9.91512E-006	-1.37742E-004	0.00000E+000	0.00000E+000	0.00000E+000	9	...........	1425.78
	104	0.55	1.04575E-005	-1.38318E-004	0.00000E+000	0.00000E+000	0.00000E+000	9	...........	1425.78
	105	0.56	5.71830E-006	-1.36613E-004	0.00000E+000	0.00000E+000	0.00000E+000	9	...........	1425.78
	106	0.57	1.23431E-005	-1.37196E-004	0.00000E+000	0.00000E+000	0.00000E+000	9	...........	1425.78
	107	0.58	8.36322E-006	-1.35529E-004	0.00000E+000	0.00000E+000	0.00000E+000	9	...........	1425.78
	108	0.59	9.47291E-006	-1.36104E-004	0.00000E+000	0.00000E+000	0.00000E+000	9	...........	1425.78
	109	0.6	6.64444E-006	-1.34478E-004	0.00000E+000	0.00000E+000	0.00000E+000	9	...........	1425.78
	110	0.61	1.06076E-005	-1.35073E-004	0.00000E+000	0.00000E+000	0.00000E+000	9	...........	1425.78
	111	0.71	1.07495E-005	-1.30441E-004	0.00000E+000	0.00000E+000	0.00000E+000	9	...........	1425.78
	112	0.81	8.30481E-006	-1.26538E-004	0.00000E+000	0.00000E+000	0.00000E+000	9	...........	1425.78
	113	0.91	6.66947E-006	-1.23104E-004	0.00000E+000	0.00000E+000	0.00000E+000	9	...........	1425.78
	114	1.01	9.28936E-006	-1.20063E-004	0.00000E+000	0.00000E+000	0.00000E+000	9	...........	1425.78
	115	1.11	9.85673E-006	-1.17263E-004	0.00000E+000	0.00000E+000	0.00000E+000	9	...........	1425.69
	116	1.21	1.04241E-005	-1.14743E-004	0.00000E+000	0.00000E+000	0.00000E+000	9	...........	1425.69
	117	1.31	8.63856E-006	-1.12438E-004	0.00000E+000	0.00000E+000	0.00000E+000	9	...........	1425.69
	118	1.41	1.01571E-005	-1.10296E-004	0.00000E+000	0.00000E+000	0.00000E+000	9	...........	1425.69
	119	1.51	6.36910E-006	-1.08282E-004	0.00000E+000	0.00000E+000	0.00000E+000	9	...........	1425.69
	120	1.61	7.97107E-006	-1.06393E-004	0.00000E+000	0.00000E+000	0.00000E+000	9	...........	1425.69
	121	2.61	1.00737E-005	-9.21291E-005	0.00000E+000	0.00000E+000	0.00000E+000	9	...........	1426.04
	122	3.61	1.15004E-005	-8.19219E-005	0.00000E+000	0.00000E+000	0.00000E+000	9	...........	1426.13
	123	4.61	9.44789E-006	-7.42101E-005	0.00000E+000	0.00000E+000	0.00000E+000	9	...........	1426.13
	124	5.61	8.78040E-006	-6.76942E-005	0.00000E+000	0.00000E+000	0.00000E+000	9	...........	1426.13
	125	6.61	8.27979E-006	-6.27374E-005	0.00000E+000	0.00000E+000	0.00000E+000	9	...........	1426.22
	126	7.61	8.48837E-006	-5.82759E-005	0.00000E+000	0.00000E+000	0.00000E+000	9	...........	1426.13
	127	8.61	6.90309E-006	-5.46254E-005	0.00000E+000	0.00000E+000	0.00000E+000	9	...........	1426.13
	128	9.61	8.20470E-006	-5.17310E-005	0.00000E+000	0.00000E+000	0.00000E+000	9	...........	1426.13
	129	10.61	7.57892E-006	-4.89270E-005	0.00000E+000	0.00000E+000	0.00000E+000	9	...........	1426.13
	130	11.61	7.37033E-006	-4.64397E-005	0.00000E+000	0.00000E+000	0.00000E+000	9	...........	1426.13
	131	21.61	1.12501E-005	-3.00806E-005	0.00000E+000	0.00000E+000	0.00000E+000	9	...........	1426.13
	132	31.61	8.07954E-006	-2.25462E-005	0.00000E+000	0.00000E+000	0.00000E+000	9	...........	1426.13
	133	41.61	8.19635E-006	-1.82785E-005	0.00000E+000	0.00000E+000	0.00000E+000	9	...........	1426.13
	134	51.61	9.33942E-006	-1.50020E-005	0.00000E+000	0.00000E+000	0.00000E+000	9	...........	1426.13
	135	60	6.13548E-006	-1.24594E-005	0.00000E+000	0.00000E+000	0.00000E+000	9	...........	1426.13
	136	60.01	-3.28713E-002	-3.15614E-004	0.00000E+000	-4.99998E-002	0.00000E+000	9	.........v.	1426.13
	137	60.02	-5.00019E-002	-2.66467E-004	0.00000E+000	-4.99998E-002	0.00000E+000	9	...........	1426.13
	138	60.03	-5.00002E-002	-2.32032E-004	0.00000E+000	-4.99998E-002	0.00000E+000	9	...........	1426.13
	139	60.04	-5.00002E-002	-2.03094E-004	0.00000E+000	-4.99998E-002	0.00000E+000	9	...........	1426.13
	140	60.05	-5.00044E-002	-1.80788E-004	0.00000E+000	-4.99998E-002	0.00000E+000	9	...........	1426.13
	141	60.06	-5.00006E-002	-1.60752E-004	0.00000E+000	-4.99998E-002	0.00000E+000	9	...........	1426.13
	142	60.07	-5.00004E-002	-1.45341E-004	0.00000E+000	-4.99998E-002	0.00000E+000	9	...........	1426.13
	143	60.08	-5.00049E-002	-1.30832E-004	0.00000E+000	-4.99998E-002	0.00000E+000	9	...........	1426.13
	144	60.09	-5.00029E-002	-1.19916E-004	0.00000E+000	-4.99998E-002	0.00000E+000	9	...........	1426.13
	145	60.1	-5.00034E-002	-1.09120E-004	0.00000E+000	-4.99998E-002	0.00000E+000	9	...........	1426.13
	146	60.11	-5.00019E-002	-1.01244E-004	0.00000E+000	-4.99998E-002	0.00000E+000	9	...........	1426.13
	147	60.12	-5.00004E-002	-9.30378E-005	0.00000E+000	-4.99998E-002	0.00000E+000	9	...........	1426.13
	148	60.13	-5.00028E-002	-8.73419E-005	0.00000E+000	-4.99998E-002	0.00000E+000	9	...........	1426.13
	149	60.14	-5.00026E-002	-8.09893E-005	0.00000E+000	-4.99998E-002	0.00000E+000	9	...........	1426.13
	150	60.15	-5.00030E-002	-7.68514E-005	0.00000E+000	-4.99998E-002	0.00000E+000	9	...........	1426.13
	151	60.16	-5.00009E-002	-7.18259E-005	0.00000E+000	-4.99998E-002	0.00000E+000	9	...........	1426.13
	152	60.17	-5.00039E-002	-6.88031E-005	0.00000E+000	-4.99998E-002	0.00000E+000	9	...........	1426.13
	153	60.18	-5.00025E-002	-6.47675E-005	0.00000E+000	-4.99998E-002	0.00000E+000	9	...........	1426.13
	154	60.19	-5.00036E-002	-6.25767E-005	0.00000E+000	-4.99998E-002	0.00000E+000	9	...........	1426.13
	155	60.2	-5.00028E-002	-5.92449E-005	0.00000E+000	-4.99998E-002	0.00000E+000	9	...........	1426.13
	156	60.21	-4.99986E-002	-5.76630E-005	0.00000E+000	-4.99998E-002	0.00000E+000	9	...........	1426.13
	157	60.22	-5.00018E-002	-5.48985E-005	0.00000E+000	-4.99998E-002	0.00000E+000	9	...........	1426.13
	158	60.23	-5.00045E-002	-5.38035E-005	0.00000E+000	-4.99998E-002	0.00000E+000	9	...........	1426.13
	159	60.24	-5.00013E-002	-5.14438E-005	0.00000E+000	-4.99998E-002	0.00000E+000	9	...........	1426.13
	160	60.25	-5.00005E-002	-5.06844E-005	0.00000E+000	-4.99998E-002	0.00000E+000	9	...........	1426.13
	161	60.26	-5.00021E-002	-4.86423E-005	0.00000E+000	-4.99998E-002	0.00000E+000	9	...........	1426.13
	162	60.27	-5.00029E-002	-4.81610E-005	0.00000E+000	-4.99998E-002	0.00000E+000	9	...........	1426.13
	163	60.28	-5.00028E-002	-4.63722E-005	0.00000E+000	-4.99998E-002	0.00000E+000	9	...........	1426.13
	164	60.29	-4.99999E-002	-4.60855E-005	0.00000E+000	-4.99998E-002	0.00000E+000	9	...........	1426.13
	165	60.3	-5.00027E-002	-4.45183E-005	0.00000E+000	-4.99998E-002	0.00000E+000	9	...........	1426.13
	166	60.31	-5.00019E-002	-4.43759E-005	0.00000E+000	-4.99998E-002	0.00000E+000	9	...........	1426.13
	167	60.32	-5.00001E-002	-4.29189E-005	0.00000E+000	-4.99998E-002	0.00000E+000	9	...........	1426.13
	168	60.33	-5.00008E-002	-4.29303E-005	0.00000E+000	-4.99998E-002	0.00000E+000	9	...........	1426.13
	169	60.34	-5.00024E-002	-4.16178E-005	0.00000E+000	-4.99998E-002	0.00000E+000	9	...........	1426.13
	170	60.35	-5.00032E-002	-4.17188E-005	0.00000E+000	-4.99998E-002	0.00000E+000	9	...........	1426.13
	171	60.36	-5.00004E-002	-4.05072E-005	0.00000E+000	-4.99998E-002	0.00000E+000	9	...........	1426.13
	172	60.37	-5.00018E-002	-4.06852E-005	0.00000E+000	-4.99998E-002	0.00000E+000	9	...........	1426.13
	173	60.38	-5.00016E-002	-3.95462E-005	0.00000E+000	-4.99998E-002	0.00000E+000	9	...........	1426.13
	174	60.39	-5.00017E-002	-3.97720E-005	0.00000E+000	-4.99998E-002	0.00000E+000	9	...........	1426.13
	175	60.4	-4.99994E-002	-3.86926E-005	0.00000E+000	-4.99998E-002	0.00000E+000	9	...........	1426.13
	176	60.41	-5.00007E-002	-3.90018E-005	0.00000E+000	-4.99998E-002	0.00000E+000	9	...........	1426.13
	177	60.42	-5.00024E-002	-3.79988E-005	0.00000E+000	-4.99998E-002	0.00000E+000	9	...........	1426.13
	178	60.43	-4.99975E-002	-3.83066E-005	0.00000E+000	-4.99998E-002	0.00000E+000	9	...........	1426.13
	179	60.44	-5.00011E-002	-3.73365E-005	0.00000E+000	-4.99998E-002	0.00000E+000	9	...........	1426.13
	180	60.45	-5.00010E-002	-3.77266E-005	0.00000E+000	-4.99998E-002	0.00000E+000	9	...........	1426.13
	181	60.46	-5.00033E-002	-3.67887E-005	0.00000E+000	-4.99998E-002	0.00000E+000	9	...........	1426.13
	182	60.47	-5.00039E-002	-3.72105E-005	0.00000E+000	-4.99998E-002	0.00000E+000	9	...........	1426.13
	183	60.48	-5.00014E-002	-3.62706E-005	0.00000E+000	-4.99998E-002	0.00000E+000	9	...........	1426.13
	184	60.49	-4.99992E-002	-3.67111E-005	0.00000E+000	-4.99998E-002	0.00000E+000	9	...........	1426.13
	185	60.5	-5.00018E-002	-3.58294E-005	0.00000E+000	-4.99998E-002	0.00000E+000	9	...........	1426.13
	186	60.51	-4.99997E-002	-3.62798E-005	0.00000E+000	-4.99998E-002	0.00000E+000	9	...........	1426.13
	187	60.52	-5.00045E-002	-3.54164E-005	0.00000E+000	-4.99998E-002	0.00000E+000	9	...........	1426.13
	188	60.53	-5.00020E-002	-3.58852E-005	0.00000E+000	-4.99998E-002	0.00000E+000	9	...........	1426.13
	189	60.54	-5.00033E-002	-3.50536E-005	0.00000E+000	-4.99998E-002	0.00000E+000	9	...........	1426.13
	190	60.55	-5.00047E-002	-3.55663E-005	0.00000E+000	-4.99998E-002	0.00000E+000	9	...........	1426.13
	191	60.56	-4.99989E-002	-3.46882E-005	0.00000E+000	-4.99998E-002	0.00000E+000	9	...........	1426.13
	192	60.57	-5.00024E-002	-3.52385E-005	0.00000E+000	-4.99998E-002	0.00000E+000	9	...........	1426.13
	193	60.58	-5.00031E-002	-3.43820E-005	0.00000E+000	-4.99998E-002	0.00000E+000	9	...........	1426.13
	194	60.59	-5.00016E-002	-3.49312E-005	0.00000E+000	-4.99998E-002	0.00000E+000	9	...........	1426.13
	195	60.6	-5.00019E-002	-3.40864E-005	0.00000E+000	-4.99998E-002	0.00000E+000	9	...........	1426.13
	196	60.61	-5.00013E-002	-3.46462E-005	0.00000E+000	-4.99998E-002	0.00000E+000	9	...........	1426.13
	197	60.71	-5.00005E-002	-3.35186E-005	0.00000E+000	-4.99998E-002	0.00000E+000	9	...........	1426.13
	198	60.81	-4.99992E-002	-3.26908E-005	0.00000E+000	-4.99998E-002	0.00000E+000	9	...........	1426.13
	199	60.91	-4.99986E-002	-3.20488E-005	0.00000E+000	-4.99998E-002	0.00000E+000	9	...........	1426.13
	200	61	-5.00014E-002	-3.07413E-005	0.00000E+000	-4.99998E-002	0.00000E+000	9	...........	1426.13
