EXPLAIN
TAG	CHRONOA
TITLE	LABEL	Chronoamperometry Scan	Test Identifier
DATE	LABEL	17/8/2022	Date
TIME	LABEL	14:13:35	Time
NOTES	NOTES	1	Notes...
	
PSTAT	PSTAT	IFC1010-21051	Potentiostat
VPRESTEP	POTEN	-7.50000E-001	F	Pre-step Voltage (V)
TPRESTEP	QUANT	5.00000E-001	Pre-step Delay Time (s)
VSTEP1	POTEN	-8.00000E-001	F	Step 1 Voltage (V)
TSTEP1	QUANT	3.00000E+002	Step 1 Time (s)
VSTEP2	POTEN	-7.50000E-001	F	Step 2 Voltage (V)
TSTEP2	QUANT	1.00000E+000	Step 2 Time (s)
SAMPLETIME	QUANT	1.00000E-001	Sample Period (s)
DECIMATE	TOGGLE	T	Decimate
ILIMIT	QUANT	1.00000E+000	Limit I (mA/cm^2)
IMODE	SELECTOR	1	I/E Range Mode
IRANGE	QUANT	3.00000E-001	Max Current (mA)
EQDELAY	QUANT	5.00000E+000	Equil. Time (s)
SAMPLINGMODE	SELECTOR	1	Sampling Mode
AREA	QUANT	1.00000E+000	Sample Area (cm^2)
IRCOMP	SELECTOR	0	IRComp
PFCOR	QUANT	5.00000E+001	PF Corr. (ohm)
SEQUENCER	TOGGLE	TRUE	Run as Sequence
PSTATMODEL	IQUANT	64	Pstat Model
PSTATSECTION	LABEL	IFC1010-21051	Pstat Section
PSTATSERIALNO	LABEL	21051	Pstat Serial Number
CTRLMODE	IQUANT	1	Control Mode
ELECTROMETER	IQUANT	0	RE=0 or CS=1
IESTAB	IQUANT	0	I/E Stability
CASPEED	IQUANT	4	Control Amp Speed
CONVENTION	IQUANT	1	Current Convention
ICHRANGE	IQUANT	2	Ich Range
ICHRANGEMODE	TOGGLE	T	Ich Auto Range
ICHOFFSETENABLE	TOGGLE	F	Ich Offset Enable
ICHOFFSET	QUANT	0	Ich Offset (V)
ICHFILTER	IQUANT	3	Ich Filter
VCHRANGE	IQUANT	3	Vch Range
VCHRANGEMODE	TOGGLE	T	Vch Auto Range
VCHOFFSETENABLE	TOGGLE	F	Vch Offset Enable
VCHOFFSET	QUANT	0	Vch Offset (V)
VCHFILTER	IQUANT	3	Vch Filter
IERANGELOWERLIMIT	IQUANT	4	I/E Range Lower Limit
IERANGEMODE	TOGGLE	F	I/E AutoRange
IERANGE	IQUANT	9	I/E Range
ACHSELECT	IQUANT	0	Ach Select
ACHRANGE	IQUANT	2	Ach Range
ACHOFFSETENABLE	TOGGLE	F	Ach Offset Enable
ACHOFFSET	QUANT	0	Ach Offset (V)
ACHFILTER	IQUANT	1	Ach Filter
SENSECABLEID	IQUANT	14	Sense Cable ID
PWRCABLEID	IQUANT	14	Power Cable ID
DCCALDATE	LABEL	7/12/2022	DC Calibration Date
ACCALDATE	LABEL	4/2/2018	AC Calibration Date
FRAMEWORKVERSION	QUANT	7.06	Framework Version
INSTRUMENTVERSION	LABEL	4.30	Instrument Version
CURVE	TABLE	98
	Pt	T	Vf	Im	Vu	Sig	Ach	IERange	Over	Temp
	#	s	V vs. Ref.	A	V	V	V	#	bits	deg C
	0	-0.4	-7.50741E-001	-1.59944E-004	0.00000E+000	-7.50046E-001	0.00000E+000	9	...........	1425.78
	1	-0.3	-7.51029E-001	-1.59370E-004	0.00000E+000	-7.50046E-001	0.00000E+000	9	...........	1425.78
	2	-0.2	-7.51018E-001	-1.58634E-004	0.00000E+000	-7.50046E-001	0.00000E+000	9	...........	1425.78
	3	-0.1	-7.51029E-001	-1.57996E-004	0.00000E+000	-7.50046E-001	0.00000E+000	9	...........	1425.78
	4	0	-7.51027E-001	-1.57393E-004	0.00000E+000	-7.50046E-001	0.00000E+000	9	...........	1425.78
	5	0.1	-8.01025E-001	-3.91892E-004	0.00000E+000	-8.00059E-001	0.00000E+000	9	...........	1425.78
	6	0.2	-8.01024E-001	-3.41974E-004	0.00000E+000	-8.00059E-001	0.00000E+000	9	...........	1425.78
	7	0.3	-8.01042E-001	-3.10667E-004	0.00000E+000	-8.00059E-001	0.00000E+000	9	...........	1425.78
	8	0.4	-8.01042E-001	-2.88402E-004	0.00000E+000	-8.00059E-001	0.00000E+000	9	...........	1425.78
	9	0.5	-8.01035E-001	-2.71602E-004	0.00000E+000	-8.00059E-001	0.00000E+000	9	...........	1425.78
	10	0.6	-8.01019E-001	-2.58377E-004	0.00000E+000	-8.00059E-001	0.00000E+000	9	...........	1425.78
	11	0.7	-8.01043E-001	-2.47753E-004	0.00000E+000	-8.00059E-001	0.00000E+000	9	...........	1425.78
	12	0.8	-8.01032E-001	-2.38983E-004	0.00000E+000	-8.00059E-001	0.00000E+000	9	...........	1425.78
	13	0.9	-8.01025E-001	-2.31586E-004	0.00000E+000	-8.00059E-001	0.00000E+000	9	...........	1425.78
	14	1	-8.01031E-001	-2.25234E-004	0.00000E+000	-8.00059E-001	0.00000E+000	9	...........	1425.78
	15	1.1	-8.01022E-001	-2.19699E-004	0.00000E+000	-8.00059E-001	0.00000E+000	9	...........	1425.78
	16	1.2	-8.01029E-001	-2.14871E-004	0.00000E+000	-8.00059E-001	0.00000E+000	9	...........	1425.78
	17	1.3	-8.01027E-001	-2.10693E-004	0.00000E+000	-8.00059E-001	0.00000E+000	9	...........	1425.69
	18	1.4	-8.01038E-001	-2.06931E-004	0.00000E+000	-8.00059E-001	0.00000E+000	9	...........	1425.69
	19	1.5	-8.01048E-001	-2.03492E-004	0.00000E+000	-8.00059E-001	0.00000E+000	9	...........	1425.69
	20	1.6	-8.01048E-001	-2.00532E-004	0.00000E+000	-8.00059E-001	0.00000E+000	9	...........	1425.69
	21	1.7	-8.01030E-001	-1.97743E-004	0.00000E+000	-8.00059E-001	0.00000E+000	9	...........	1425.69
	22	1.8	-8.01032E-001	-1.95209E-004	0.00000E+000	-8.00059E-001	0.00000E+000	9	...........	1425.69
	23	1.9	-8.01032E-001	-1.92914E-004	0.00000E+000	-8.00059E-001	0.00000E+000	9	...........	1425.69
	24	2	-8.01032E-001	-1.90762E-004	0.00000E+000	-8.00059E-001	0.00000E+000	9	...........	1425.69
	25	2.1	-8.01028E-001	-1.88836E-004	0.00000E+000	-8.00059E-001	0.00000E+000	9	...........	1425.69
	26	2.2	-8.01025E-001	-1.86894E-004	0.00000E+000	-8.00059E-001	0.00000E+000	9	...........	1425.69
	27	2.3	-8.01029E-001	-1.85385E-004	0.00000E+000	-8.00059E-001	0.00000E+000	9	...........	1425.69
	28	2.4	-8.01031E-001	-1.83835E-004	0.00000E+000	-8.00059E-001	0.00000E+000	9	...........	1425.69
	29	2.5	-8.01020E-001	-1.82333E-004	0.00000E+000	-8.00059E-001	0.00000E+000	9	...........	1425.69
	30	2.6	-8.01022E-001	-1.80967E-004	0.00000E+000	-8.00059E-001	0.00000E+000	9	...........	1425.69
	31	2.7	-8.01022E-001	-1.79707E-004	0.00000E+000	-8.00059E-001	0.00000E+000	9	...........	1425.69
	32	2.8	-8.01016E-001	-1.78449E-004	0.00000E+000	-8.00059E-001	0.00000E+000	9	...........	1425.69
	33	2.9	-8.01038E-001	-1.77374E-004	0.00000E+000	-8.00059E-001	0.00000E+000	9	...........	1425.69
	34	3	-8.01035E-001	-1.76321E-004	0.00000E+000	-8.00059E-001	0.00000E+000	9	...........	1425.69
	35	3.1	-8.01026E-001	-1.75257E-004	0.00000E+000	-8.00059E-001	0.00000E+000	9	...........	1425.69
	36	3.2	-8.01030E-001	-1.74326E-004	0.00000E+000	-8.00059E-001	0.00000E+000	9	...........	1425.69
	37	3.3	-8.01034E-001	-1.73495E-004	0.00000E+000	-8.00059E-001	0.00000E+000	9	...........	1425.69
	38	3.4	-8.01035E-001	-1.72625E-004	0.00000E+000	-8.00059E-001	0.00000E+000	9	...........	1425.69
	39	3.5	-8.01036E-001	-1.71801E-004	0.00000E+000	-8.00059E-001	0.00000E+000	9	...........	1425.69
	40	3.6	-8.01026E-001	-1.70922E-004	0.00000E+000	-8.00059E-001	0.00000E+000	9	...........	1425.69
	41	3.7	-8.01023E-001	-1.70339E-004	0.00000E+000	-8.00059E-001	0.00000E+000	9	...........	1425.69
	42	3.8	-8.01022E-001	-1.69615E-004	0.00000E+000	-8.00059E-001	0.00000E+000	9	...........	1425.69
	43	3.9	-8.01029E-001	-1.68947E-004	0.00000E+000	-8.00059E-001	0.00000E+000	9	...........	1425.69
	44	4	-8.01031E-001	-1.68378E-004	0.00000E+000	-8.00059E-001	0.00000E+000	9	...........	1425.69
	45	4.1	-8.01017E-001	-1.67698E-004	0.00000E+000	-8.00059E-001	0.00000E+000	9	...........	1425.69
	46	4.2	-8.01034E-001	-1.67152E-004	0.00000E+000	-8.00059E-001	0.00000E+000	9	...........	1425.69
	47	4.3	-8.01030E-001	-1.66556E-004	0.00000E+000	-8.00059E-001	0.00000E+000	9	...........	1425.69
	48	4.4	-8.01035E-001	-1.66109E-004	0.00000E+000	-8.00059E-001	0.00000E+000	9	...........	1425.69
	49	4.5	-8.01027E-001	-1.65509E-004	0.00000E+000	-8.00059E-001	0.00000E+000	9	...........	1425.69
	50	4.6	-8.01031E-001	-1.65086E-004	0.00000E+000	-8.00059E-001	0.00000E+000	9	...........	1425.69
	51	4.7	-8.01027E-001	-1.64666E-004	0.00000E+000	-8.00059E-001	0.00000E+000	9	...........	1425.69
	52	4.8	-8.01024E-001	-1.64201E-004	0.00000E+000	-8.00059E-001	0.00000E+000	9	...........	1425.69
	53	4.9	-8.01033E-001	-1.63741E-004	0.00000E+000	-8.00059E-001	0.00000E+000	9	...........	1425.69
	54	5	-8.01036E-001	-1.63338E-004	0.00000E+000	-8.00059E-001	0.00000E+000	9	...........	1425.69
	55	5.1	-8.01024E-001	-1.62978E-004	0.00000E+000	-8.00059E-001	0.00000E+000	9	...........	1425.69
	56	5.2	-8.01027E-001	-1.62496E-004	0.00000E+000	-8.00059E-001	0.00000E+000	9	...........	1425.69
	57	5.3	-8.01030E-001	-1.62255E-004	0.00000E+000	-8.00059E-001	0.00000E+000	9	...........	1425.69
	58	5.4	-8.01035E-001	-1.61753E-004	0.00000E+000	-8.00059E-001	0.00000E+000	9	...........	1425.69
	59	5.5	-8.01035E-001	-1.61463E-004	0.00000E+000	-8.00059E-001	0.00000E+000	9	...........	1425.69
	60	5.6	-8.01044E-001	-1.61129E-004	0.00000E+000	-8.00059E-001	0.00000E+000	9	...........	1425.69
	61	5.7	-8.01037E-001	-1.60854E-004	0.00000E+000	-8.00059E-001	0.00000E+000	9	...........	1425.69
	62	5.8	-8.01023E-001	-1.60438E-004	0.00000E+000	-8.00059E-001	0.00000E+000	9	...........	1425.69
	63	5.9	-8.01021E-001	-1.60144E-004	0.00000E+000	-8.00059E-001	0.00000E+000	9	...........	1425.69
	64	6	-8.01029E-001	-1.60001E-004	0.00000E+000	-8.00059E-001	0.00000E+000	9	...........	1425.69
	65	6.1	-8.01047E-001	-1.59684E-004	0.00000E+000	-8.00059E-001	0.00000E+000	9	...........	1425.69
	66	7.1	-8.01044E-001	-1.57384E-004	0.00000E+000	-8.00059E-001	0.00000E+000	9	...........	1425.69
	67	8.1	-8.01052E-001	-1.55576E-004	0.00000E+000	-8.00059E-001	0.00000E+000	9	...........	1425.69
	68	9.1	-8.01050E-001	-1.54318E-004	0.00000E+000	-8.00059E-001	0.00000E+000	9	...........	1425.69
	69	10.1	-8.01031E-001	-1.53198E-004	0.00000E+000	-8.00059E-001	0.00000E+000	9	...........	1425.69
	70	11.1	-8.01040E-001	-1.52520E-004	0.00000E+000	-8.00059E-001	0.00000E+000	9	...........	1425.69
	71	12.1	-8.01043E-001	-1.51781E-004	0.00000E+000	-8.00059E-001	0.00000E+000	9	...........	1425.69
	72	13.1	-8.01022E-001	-1.51134E-004	0.00000E+000	-8.00059E-001	0.00000E+000	9	...........	1425.69
	73	14.1	-8.01029E-001	-1.50614E-004	0.00000E+000	-8.00059E-001	0.00000E+000	9	...........	1425.69
	74	15.1	-8.01029E-001	-1.50221E-004	0.00000E+000	-8.00059E-001	0.00000E+000	9	...........	1425.69
	75	16.1	-8.01053E-001	-1.49790E-004	0.00000E+000	-8.00059E-001	0.00000E+000	9	...........	1425.69
	76	26.1	-8.01039E-001	-1.47725E-004	0.00000E+000	-8.00059E-001	0.00000E+000	9	...........	1425.78
	77	36.1	-8.01031E-001	-1.46712E-004	0.00000E+000	-8.00059E-001	0.00000E+000	9	...........	1425.69
	78	46.1	-8.01042E-001	-1.46396E-004	0.00000E+000	-8.00059E-001	0.00000E+000	9	...........	1425.69
	79	56.1	-8.01036E-001	-1.46499E-004	0.00000E+000	-8.00059E-001	0.00000E+000	9	...........	1425.69
	80	66.1	-8.01010E-001	-1.46424E-004	0.00000E+000	-8.00059E-001	0.00000E+000	9	...........	1425.69
	81	76.1	-8.01039E-001	-1.46417E-004	0.00000E+000	-8.00059E-001	0.00000E+000	9	...........	1425.69
	82	86.1	-8.01044E-001	-1.46875E-004	0.00000E+000	-8.00059E-001	0.00000E+000	9	...........	1425.69
	83	96.1	-8.01030E-001	-1.46869E-004	0.00000E+000	-8.00059E-001	0.00000E+000	9	...........	1425.69
	84	106.1	-8.01039E-001	-1.47382E-004	0.00000E+000	-8.00059E-001	0.00000E+000	9	...........	1425.69
	85	116.1	-8.01037E-001	-1.47479E-004	0.00000E+000	-8.00059E-001	0.00000E+000	9	...........	1425.78
	86	216.1	-8.01033E-001	-1.51021E-004	0.00000E+000	-8.00059E-001	0.00000E+000	9	...........	1425.78
	87	300	-8.01041E-001	-1.54022E-004	0.00000E+000	-8.00059E-001	0.00000E+000	9	...........	1425.78
	88	300.1	-7.51033E-001	6.22037E-005	0.00000E+000	-7.50046E-001	0.00000E+000	9	...........	1425.78
	89	300.2	-7.51024E-001	3.02847E-006	0.00000E+000	-7.50046E-001	0.00000E+000	9	...........	1425.78
	90	300.3	-7.51028E-001	-3.35461E-005	0.00000E+000	-7.50046E-001	0.00000E+000	9	...........	1425.78
	91	300.4	-7.51040E-001	-5.78649E-005	0.00000E+000	-7.50046E-001	0.00000E+000	9	...........	1425.78
	92	300.5	-7.51023E-001	-7.46282E-005	0.00000E+000	-7.50046E-001	0.00000E+000	9	...........	1425.78
	93	300.6	-7.51029E-001	-8.67499E-005	0.00000E+000	-7.50046E-001	0.00000E+000	9	...........	1425.78
	94	300.7	-7.51022E-001	-9.55474E-005	0.00000E+000	-7.50046E-001	0.00000E+000	9	...........	1425.78
	95	300.8	-7.51021E-001	-1.02225E-004	0.00000E+000	-7.50046E-001	0.00000E+000	9	...........	1425.78
	96	300.9	-7.51038E-001	-1.07413E-004	0.00000E+000	-7.50046E-001	0.00000E+000	9	...........	1425.78
	97	301	-7.51032E-001	-1.11389E-004	0.00000E+000	-7.50046E-001	0.00000E+000	9	...........	1425.78
