EXPLAIN
TAG	CHRONOA
TITLE	LABEL	Chronoamperometry Scan	Test Identifier
DATE	LABEL	18/7/2022	Date
TIME	LABEL	13:09:51	Time
NOTES	NOTES	1	Notes...
	
PSTAT	PSTAT	IFC1010-21051	Potentiostat
VPRESTEP	POTEN	-7.50000E-001	F	Pre-step Voltage (V)
TPRESTEP	QUANT	5.00000E-001	Pre-step Delay Time (s)
VSTEP1	POTEN	-8.00000E-001	F	Step 1 Voltage (V)
TSTEP1	QUANT	3.00000E+002	Step 1 Time (s)
VSTEP2	POTEN	-7.50000E-001	F	Step 2 Voltage (V)
TSTEP2	QUANT	1.00000E+000	Step 2 Time (s)
SAMPLETIME	QUANT	1.00000E-001	Sample Period (s)
DECIMATE	TOGGLE	T	Decimate
ILIMIT	QUANT	1.00000E+000	Limit I (mA/cm^2)
IMODE	SELECTOR	1	I/E Range Mode
IRANGE	QUANT	3.00000E-001	Max Current (mA)
EQDELAY	QUANT	5.00000E+000	Equil. Time (s)
SAMPLINGMODE	SELECTOR	1	Sampling Mode
AREA	QUANT	1.00000E+000	Sample Area (cm^2)
IRCOMP	SELECTOR	0	IRComp
PFCOR	QUANT	5.00000E+001	PF Corr. (ohm)
SEQUENCER	TOGGLE	TRUE	Run as Sequence
PSTATMODEL	IQUANT	64	Pstat Model
PSTATSECTION	LABEL	IFC1010-21051	Pstat Section
PSTATSERIALNO	LABEL	21051	Pstat Serial Number
CTRLMODE	IQUANT	1	Control Mode
ELECTROMETER	IQUANT	0	RE=0 or CS=1
IESTAB	IQUANT	0	I/E Stability
CASPEED	IQUANT	4	Control Amp Speed
CONVENTION	IQUANT	1	Current Convention
ICHRANGE	IQUANT	2	Ich Range
ICHRANGEMODE	TOGGLE	T	Ich Auto Range
ICHOFFSETENABLE	TOGGLE	F	Ich Offset Enable
ICHOFFSET	QUANT	0	Ich Offset (V)
ICHFILTER	IQUANT	3	Ich Filter
VCHRANGE	IQUANT	3	Vch Range
VCHRANGEMODE	TOGGLE	T	Vch Auto Range
VCHOFFSETENABLE	TOGGLE	F	Vch Offset Enable
VCHOFFSET	QUANT	0	Vch Offset (V)
VCHFILTER	IQUANT	3	Vch Filter
IERANGELOWERLIMIT	IQUANT	4	I/E Range Lower Limit
IERANGEMODE	TOGGLE	F	I/E AutoRange
IERANGE	IQUANT	9	I/E Range
ACHSELECT	IQUANT	0	Ach Select
ACHRANGE	IQUANT	2	Ach Range
ACHOFFSETENABLE	TOGGLE	F	Ach Offset Enable
ACHOFFSET	QUANT	0	Ach Offset (V)
ACHFILTER	IQUANT	1	Ach Filter
SENSECABLEID	IQUANT	14	Sense Cable ID
PWRCABLEID	IQUANT	14	Power Cable ID
DCCALDATE	LABEL	7/12/2022	DC Calibration Date
ACCALDATE	LABEL	4/2/2018	AC Calibration Date
FRAMEWORKVERSION	QUANT	7.06	Framework Version
INSTRUMENTVERSION	LABEL	4.30	Instrument Version
CURVE	TABLE	98
	Pt	T	Vf	Im	Vu	Sig	Ach	IERange	Over	Temp
	#	s	V vs. Ref.	A	V	V	V	#	bits	deg C
	0	-0.4	-7.50863E-001	-1.15356E-004	0.00000E+000	-7.50046E-001	0.00000E+000	9	...........	1426.31
	1	-0.3	-7.51051E-001	-1.15087E-004	0.00000E+000	-7.50046E-001	0.00000E+000	9	...........	1426.31
	2	-0.2	-7.51050E-001	-1.14805E-004	0.00000E+000	-7.50046E-001	0.00000E+000	9	...........	1426.28
	3	-0.1	-7.51050E-001	-1.14514E-004	0.00000E+000	-7.50046E-001	0.00000E+000	9	...........	1426.22
	4	0	-7.51044E-001	-1.14282E-004	0.00000E+000	-7.50046E-001	0.00000E+000	9	...........	1426.22
	5	0.1	-8.01065E-001	-3.14976E-004	0.00000E+000	-8.00059E-001	0.00000E+000	9	...........	1426.22
	6	0.2	-8.01059E-001	-2.49939E-004	0.00000E+000	-8.00059E-001	0.00000E+000	9	...........	1426.22
	7	0.3	-8.01074E-001	-2.14172E-004	0.00000E+000	-8.00059E-001	0.00000E+000	9	...........	1426.22
	8	0.4	-8.01076E-001	-1.92518E-004	0.00000E+000	-8.00059E-001	0.00000E+000	9	...........	1426.22
	9	0.5	-8.01068E-001	-1.78231E-004	0.00000E+000	-8.00059E-001	0.00000E+000	9	...........	1426.22
	10	0.6	-8.01071E-001	-1.68348E-004	0.00000E+000	-8.00059E-001	0.00000E+000	9	...........	1426.22
	11	0.7	-8.01075E-001	-1.61009E-004	0.00000E+000	-8.00059E-001	0.00000E+000	9	...........	1426.22
	12	0.8	-8.01065E-001	-1.55355E-004	0.00000E+000	-8.00059E-001	0.00000E+000	9	...........	1426.12
	13	0.9	-8.01066E-001	-1.50890E-004	0.00000E+000	-8.00059E-001	0.00000E+000	9	...........	1425.87
	14	1	-8.01066E-001	-1.47145E-004	0.00000E+000	-8.00059E-001	0.00000E+000	9	...........	1425.87
	15	1.1	-8.01070E-001	-1.44210E-004	0.00000E+000	-8.00059E-001	0.00000E+000	9	...........	1425.87
	16	1.2	-8.01057E-001	-1.41603E-004	0.00000E+000	-8.00059E-001	0.00000E+000	9	...........	1425.87
	17	1.3	-8.01079E-001	-1.39461E-004	0.00000E+000	-8.00059E-001	0.00000E+000	9	...........	1425.87
	18	1.4	-8.01061E-001	-1.37520E-004	0.00000E+000	-8.00059E-001	0.00000E+000	9	...........	1425.87
	19	1.5	-8.01067E-001	-1.35793E-004	0.00000E+000	-8.00059E-001	0.00000E+000	9	...........	1425.87
	20	1.6	-8.01073E-001	-1.34287E-004	0.00000E+000	-8.00059E-001	0.00000E+000	9	...........	1425.87
	21	1.7	-8.01079E-001	-1.32918E-004	0.00000E+000	-8.00059E-001	0.00000E+000	9	...........	1425.87
	22	1.8	-8.01070E-001	-1.31690E-004	0.00000E+000	-8.00059E-001	0.00000E+000	9	...........	1425.87
	23	1.9	-8.01069E-001	-1.30566E-004	0.00000E+000	-8.00059E-001	0.00000E+000	9	...........	1425.87
	24	2	-8.01070E-001	-1.29554E-004	0.00000E+000	-8.00059E-001	0.00000E+000	9	...........	1425.87
	25	2.1	-8.01085E-001	-1.28612E-004	0.00000E+000	-8.00059E-001	0.00000E+000	9	...........	1425.87
	26	2.2	-8.01068E-001	-1.27761E-004	0.00000E+000	-8.00059E-001	0.00000E+000	9	...........	1425.87
	27	2.3	-8.01081E-001	-1.26967E-004	0.00000E+000	-8.00059E-001	0.00000E+000	9	...........	1425.87
	28	2.4	-8.01063E-001	-1.26090E-004	0.00000E+000	-8.00059E-001	0.00000E+000	9	...........	1425.87
	29	2.5	-8.01077E-001	-1.25519E-004	0.00000E+000	-8.00059E-001	0.00000E+000	9	...........	1425.87
	30	2.6	-8.01064E-001	-1.24788E-004	0.00000E+000	-8.00059E-001	0.00000E+000	9	...........	1425.87
	31	2.7	-8.01085E-001	-1.24297E-004	0.00000E+000	-8.00059E-001	0.00000E+000	9	...........	1425.87
	32	2.8	-8.01074E-001	-1.23637E-004	0.00000E+000	-8.00059E-001	0.00000E+000	9	...........	1425.87
	33	2.9	-8.01068E-001	-1.23140E-004	0.00000E+000	-8.00059E-001	0.00000E+000	9	...........	1425.87
	34	3	-8.01077E-001	-1.22585E-004	0.00000E+000	-8.00059E-001	0.00000E+000	9	...........	1425.87
	35	3.1	-8.01078E-001	-1.22206E-004	0.00000E+000	-8.00059E-001	0.00000E+000	9	...........	1425.87
	36	3.2	-8.01071E-001	-1.21777E-004	0.00000E+000	-8.00059E-001	0.00000E+000	9	...........	1425.87
	37	3.3	-8.01072E-001	-1.21306E-004	0.00000E+000	-8.00059E-001	0.00000E+000	9	...........	1425.87
	38	3.4	-8.01077E-001	-1.20787E-004	0.00000E+000	-8.00059E-001	0.00000E+000	9	...........	1425.87
	39	3.5	-8.01079E-001	-1.20478E-004	0.00000E+000	-8.00059E-001	0.00000E+000	9	...........	1425.87
	40	3.6	-8.01065E-001	-1.20006E-004	0.00000E+000	-8.00059E-001	0.00000E+000	9	...........	1425.87
	41	3.7	-8.01065E-001	-1.19758E-004	0.00000E+000	-8.00059E-001	0.00000E+000	9	...........	1425.87
	42	3.8	-8.01077E-001	-1.19410E-004	0.00000E+000	-8.00059E-001	0.00000E+000	9	...........	1425.87
	43	3.9	-8.01063E-001	-1.19080E-004	0.00000E+000	-8.00059E-001	0.00000E+000	9	...........	1425.87
	44	4	-8.01070E-001	-1.18846E-004	0.00000E+000	-8.00059E-001	0.00000E+000	9	...........	1425.87
	45	4.1	-8.01075E-001	-1.18430E-004	0.00000E+000	-8.00059E-001	0.00000E+000	9	...........	1425.87
	46	4.2	-8.01074E-001	-1.18188E-004	0.00000E+000	-8.00059E-001	0.00000E+000	9	...........	1425.87
	47	4.3	-8.01057E-001	-1.17878E-004	0.00000E+000	-8.00059E-001	0.00000E+000	9	...........	1425.87
	48	4.4	-8.01082E-001	-1.17741E-004	0.00000E+000	-8.00059E-001	0.00000E+000	9	...........	1425.87
	49	4.5	-8.01079E-001	-1.17422E-004	0.00000E+000	-8.00059E-001	0.00000E+000	9	...........	1425.87
	50	4.6	-8.01074E-001	-1.17220E-004	0.00000E+000	-8.00059E-001	0.00000E+000	9	...........	1425.87
	51	4.7	-8.01073E-001	-1.16952E-004	0.00000E+000	-8.00059E-001	0.00000E+000	9	...........	1425.87
	52	4.8	-8.01078E-001	-1.16773E-004	0.00000E+000	-8.00059E-001	0.00000E+000	9	...........	1425.87
	53	4.9	-8.01071E-001	-1.16522E-004	0.00000E+000	-8.00059E-001	0.00000E+000	9	...........	1425.87
	54	5	-8.01066E-001	-1.16303E-004	0.00000E+000	-8.00059E-001	0.00000E+000	9	...........	1425.87
	55	5.1	-8.01076E-001	-1.16086E-004	0.00000E+000	-8.00059E-001	0.00000E+000	9	...........	1425.87
	56	5.2	-8.01076E-001	-1.15900E-004	0.00000E+000	-8.00059E-001	0.00000E+000	9	...........	1425.87
	57	5.3	-8.01070E-001	-1.15706E-004	0.00000E+000	-8.00059E-001	0.00000E+000	9	...........	1425.87
	58	5.4	-8.01068E-001	-1.15552E-004	0.00000E+000	-8.00059E-001	0.00000E+000	9	...........	1425.87
	59	5.5	-8.01071E-001	-1.15364E-004	0.00000E+000	-8.00059E-001	0.00000E+000	9	...........	1425.87
	60	5.6	-8.01068E-001	-1.15167E-004	0.00000E+000	-8.00059E-001	0.00000E+000	9	...........	1425.87
	61	5.7	-8.01074E-001	-1.14933E-004	0.00000E+000	-8.00059E-001	0.00000E+000	9	...........	1425.87
	62	5.8	-8.01071E-001	-1.14782E-004	0.00000E+000	-8.00059E-001	0.00000E+000	9	...........	1425.87
	63	5.9	-8.01070E-001	-1.14637E-004	0.00000E+000	-8.00059E-001	0.00000E+000	9	...........	1425.87
	64	6	-8.01060E-001	-1.14475E-004	0.00000E+000	-8.00059E-001	0.00000E+000	9	...........	1425.87
	65	6.1	-8.01062E-001	-1.14299E-004	0.00000E+000	-8.00059E-001	0.00000E+000	9	...........	1425.87
	66	7.1	-8.01072E-001	-1.13043E-004	0.00000E+000	-8.00059E-001	0.00000E+000	9	...........	1425.87
	67	8.1	-8.01081E-001	-1.12027E-004	0.00000E+000	-8.00059E-001	0.00000E+000	9	...........	1426.13
	68	9.1	-8.01076E-001	-1.11200E-004	0.00000E+000	-8.00059E-001	0.00000E+000	9	...........	1426.13
	69	10.1	-8.01067E-001	-1.10467E-004	0.00000E+000	-8.00059E-001	0.00000E+000	9	...........	1426.13
	70	11.1	-8.01076E-001	-1.09836E-004	0.00000E+000	-8.00059E-001	0.00000E+000	9	...........	1426.13
	71	12.1	-8.01070E-001	-1.09346E-004	0.00000E+000	-8.00059E-001	0.00000E+000	9	...........	1426.22
	72	13.1	-8.01088E-001	-1.08767E-004	0.00000E+000	-8.00059E-001	0.00000E+000	9	...........	1426.13
	73	14.1	-8.01078E-001	-1.08341E-004	0.00000E+000	-8.00059E-001	0.00000E+000	9	...........	1426.13
	74	15.1	-8.01070E-001	-1.08068E-004	0.00000E+000	-8.00059E-001	0.00000E+000	9	...........	1426.13
	75	16.1	-8.01063E-001	-1.07700E-004	0.00000E+000	-8.00059E-001	0.00000E+000	9	...........	1426.13
	76	26.1	-8.01070E-001	-1.05946E-004	0.00000E+000	-8.00059E-001	0.00000E+000	9	...........	1426.13
	77	36.1	-8.01075E-001	-1.05004E-004	0.00000E+000	-8.00059E-001	0.00000E+000	9	...........	1426.13
	78	46.1	-8.01076E-001	-1.04333E-004	0.00000E+000	-8.00059E-001	0.00000E+000	9	...........	1426.13
	79	56.1	-8.01069E-001	-1.03970E-004	0.00000E+000	-8.00059E-001	0.00000E+000	9	...........	1426.13
	80	66.1	-8.01068E-001	-1.03536E-004	0.00000E+000	-8.00059E-001	0.00000E+000	9	...........	1426.13
	81	76.1	-8.01075E-001	-1.03252E-004	0.00000E+000	-8.00059E-001	0.00000E+000	9	...........	1426.13
	82	86.1	-8.01078E-001	-1.02926E-004	0.00000E+000	-8.00059E-001	0.00000E+000	9	...........	1426.13
	83	96.1	-8.01070E-001	-1.02691E-004	0.00000E+000	-8.00059E-001	0.00000E+000	9	...........	1426.13
	84	106.1	-8.01070E-001	-1.02545E-004	0.00000E+000	-8.00059E-001	0.00000E+000	9	...........	1426.13
	85	116.1	-8.01073E-001	-1.02566E-004	0.00000E+000	-8.00059E-001	0.00000E+000	9	...........	1426.13
	86	216.1	-8.01084E-001	-1.04176E-004	0.00000E+000	-8.00059E-001	0.00000E+000	9	...........	1426.13
	87	300	-8.01063E-001	-1.06595E-004	0.00000E+000	-8.00059E-001	0.00000E+000	9	...........	1426.13
	88	300.1	-7.51066E-001	4.03911E-005	0.00000E+000	-7.50046E-001	0.00000E+000	9	...........	1426.13
	89	300.2	-7.51067E-001	-3.08691E-005	0.00000E+000	-7.50046E-001	0.00000E+000	9	...........	1426.13
	90	300.3	-7.51054E-001	-6.18266E-005	0.00000E+000	-7.50046E-001	0.00000E+000	9	...........	1426.13
	91	300.4	-7.51071E-001	-7.69743E-005	0.00000E+000	-7.50046E-001	0.00000E+000	9	...........	1426.13
	92	300.5	-7.51054E-001	-8.49076E-005	0.00000E+000	-7.50046E-001	0.00000E+000	9	...........	1426.13
	93	300.6	-7.51080E-001	-8.95968E-005	0.00000E+000	-7.50046E-001	0.00000E+000	9	...........	1426.13
	94	300.7	-7.51069E-001	-9.24129E-005	0.00000E+000	-7.50046E-001	0.00000E+000	9	...........	1426.13
	95	300.8	-7.51064E-001	-9.42322E-005	0.00000E+000	-7.50046E-001	0.00000E+000	9	...........	1426.13
	96	300.9	-7.51073E-001	-9.56697E-005	0.00000E+000	-7.50046E-001	0.00000E+000	9	...........	1426.13
	97	301	-7.51078E-001	-9.65346E-005	0.00000E+000	-7.50046E-001	0.00000E+000	9	...........	1426.13
