EXPLAIN
TAG	CHRONOA
TITLE	LABEL	Chronoamperometry Scan	Test Identifier
DATE	LABEL	18/7/2022	Date
TIME	LABEL	12:05:26	Time
NOTES	NOTES	1	Notes...
	
PSTAT	PSTAT	IFC1010-21051	Potentiostat
VPRESTEP	POTEN	5.00000E-002	F	Pre-step Voltage (V)
TPRESTEP	QUANT	5.00000E-001	Pre-step Delay Time (s)
VSTEP1	POTEN	0.00000E+000	F	Step 1 Voltage (V)
TSTEP1	QUANT	6.00000E+001	Step 1 Time (s)
VSTEP2	POTEN	-5.00000E-002	F	Step 2 Voltage (V)
TSTEP2	QUANT	1.00000E+000	Step 2 Time (s)
SAMPLETIME	QUANT	1.00000E-002	Sample Period (s)
DECIMATE	TOGGLE	T	Decimate
ILIMIT	QUANT	1.00000E+000	Limit I (mA/cm^2)
IMODE	SELECTOR	1	I/E Range Mode
IRANGE	QUANT	3.00000E-001	Max Current (mA)
EQDELAY	QUANT	5.00000E+000	Equil. Time (s)
SAMPLINGMODE	SELECTOR	1	Sampling Mode
AREA	QUANT	1.00000E+000	Sample Area (cm^2)
IRCOMP	SELECTOR	0	IRComp
PFCOR	QUANT	5.00000E+001	PF Corr. (ohm)
SEQUENCER	TOGGLE	TRUE	Run as Sequence
PSTATMODEL	IQUANT	64	Pstat Model
PSTATSECTION	LABEL	IFC1010-21051	Pstat Section
PSTATSERIALNO	LABEL	21051	Pstat Serial Number
CTRLMODE	IQUANT	1	Control Mode
ELECTROMETER	IQUANT	0	RE=0 or CS=1
IESTAB	IQUANT	0	I/E Stability
CASPEED	IQUANT	4	Control Amp Speed
CONVENTION	IQUANT	1	Current Convention
ICHRANGE	IQUANT	2	Ich Range
ICHRANGEMODE	TOGGLE	T	Ich Auto Range
ICHOFFSETENABLE	TOGGLE	F	Ich Offset Enable
ICHOFFSET	QUANT	0	Ich Offset (V)
ICHFILTER	IQUANT	3	Ich Filter
VCHRANGE	IQUANT	3	Vch Range
VCHRANGEMODE	TOGGLE	T	Vch Auto Range
VCHOFFSETENABLE	TOGGLE	F	Vch Offset Enable
VCHOFFSET	QUANT	0	Vch Offset (V)
VCHFILTER	IQUANT	3	Vch Filter
IERANGELOWERLIMIT	IQUANT	4	I/E Range Lower Limit
IERANGEMODE	TOGGLE	F	I/E AutoRange
IERANGE	IQUANT	9	I/E Range
ACHSELECT	IQUANT	0	Ach Select
ACHRANGE	IQUANT	2	Ach Range
ACHOFFSETENABLE	TOGGLE	F	Ach Offset Enable
ACHOFFSET	QUANT	0	Ach Offset (V)
ACHFILTER	IQUANT	1	Ach Filter
SENSECABLEID	IQUANT	14	Sense Cable ID
PWRCABLEID	IQUANT	14	Power Cable ID
DCCALDATE	LABEL	7/12/2022	DC Calibration Date
ACCALDATE	LABEL	4/2/2018	AC Calibration Date
FRAMEWORKVERSION	QUANT	7.06	Framework Version
INSTRUMENTVERSION	LABEL	4.30	Instrument Version
CURVE	TABLE	201
	Pt	T	Vf	Im	Vu	Sig	Ach	IERange	Over	Temp
	#	s	V vs. Ref.	A	V	V	V	#	bits	deg C
	0	-0.49	4.99527E-002	-7.72407E-005	0.00000E+000	4.99998E-002	0.00000E+000	9	...........	1425.87
	1	-0.48	4.99820E-002	-7.70819E-005	0.00000E+000	4.99998E-002	0.00000E+000	9	...........	1425.87
	2	-0.47	5.00353E-002	-7.69899E-005	0.00000E+000	4.99998E-002	0.00000E+000	9	...........	1425.87
	3	-0.46	5.00322E-002	-7.68620E-005	0.00000E+000	4.99998E-002	0.00000E+000	9	...........	1425.87
	4	-0.45	5.00327E-002	-7.67777E-005	0.00000E+000	4.99998E-002	0.00000E+000	9	...........	1425.87
	5	-0.44	5.00327E-002	-7.66359E-005	0.00000E+000	4.99998E-002	0.00000E+000	9	...........	1425.87
	6	-0.43	5.00314E-002	-7.65553E-005	0.00000E+000	4.99998E-002	0.00000E+000	9	...........	1425.87
	7	-0.42	5.00309E-002	-7.64065E-005	0.00000E+000	4.99998E-002	0.00000E+000	9	...........	1425.87
	8	-0.41	5.00332E-002	-7.63211E-005	0.00000E+000	4.99998E-002	0.00000E+000	9	...........	1425.87
	9	-0.4	5.00335E-002	-7.61888E-005	0.00000E+000	4.99998E-002	0.00000E+000	9	...........	1425.87
	10	-0.39	5.00317E-002	-7.61184E-005	0.00000E+000	4.99998E-002	0.00000E+000	9	...........	1425.87
	11	-0.38	5.00328E-002	-7.59730E-005	0.00000E+000	4.99998E-002	0.00000E+000	9	...........	1425.87
	12	-0.37	5.00301E-002	-7.59135E-005	0.00000E+000	4.99998E-002	0.00000E+000	9	...........	1425.87
	13	-0.36	5.00330E-002	-7.57597E-005	0.00000E+000	4.99998E-002	0.00000E+000	9	...........	1425.87
	14	-0.35	5.00318E-002	-7.56813E-005	0.00000E+000	4.99998E-002	0.00000E+000	9	...........	1425.87
	15	-0.34	5.00333E-002	-7.55373E-005	0.00000E+000	4.99998E-002	0.00000E+000	9	...........	1425.87
	16	-0.33	5.00303E-002	-7.54775E-005	0.00000E+000	4.99998E-002	0.00000E+000	9	...........	1425.87
	17	-0.32	5.00314E-002	-7.53245E-005	0.00000E+000	4.99998E-002	0.00000E+000	9	...........	1425.87
	18	-0.31	5.00340E-002	-7.52511E-005	0.00000E+000	4.99998E-002	0.00000E+000	9	...........	1425.87
	19	-0.3	5.00349E-002	-7.51090E-005	0.00000E+000	4.99998E-002	0.00000E+000	9	...........	1425.87
	20	-0.29	5.00338E-002	-7.50390E-005	0.00000E+000	4.99998E-002	0.00000E+000	9	...........	1425.87
	21	-0.28	5.00343E-002	-7.48899E-005	0.00000E+000	4.99998E-002	0.00000E+000	9	...........	1425.87
	22	-0.27	5.00336E-002	-7.48332E-005	0.00000E+000	4.99998E-002	0.00000E+000	9	...........	1425.87
	23	-0.26	5.00313E-002	-7.46803E-005	0.00000E+000	4.99998E-002	0.00000E+000	9	...........	1425.87
	24	-0.25	5.00338E-002	-7.46158E-005	0.00000E+000	4.99998E-002	0.00000E+000	9	...........	1425.87
	25	-0.24	5.00320E-002	-7.44762E-005	0.00000E+000	4.99998E-002	0.00000E+000	9	...........	1425.87
	26	-0.23	5.00304E-002	-7.44139E-005	0.00000E+000	4.99998E-002	0.00000E+000	9	...........	1425.87
	27	-0.22	5.00345E-002	-7.42685E-005	0.00000E+000	4.99998E-002	0.00000E+000	9	...........	1425.87
	28	-0.21	5.00317E-002	-7.42192E-005	0.00000E+000	4.99998E-002	0.00000E+000	9	...........	1425.87
	29	-0.2	5.00336E-002	-7.40624E-005	0.00000E+000	4.99998E-002	0.00000E+000	9	...........	1425.87
	30	-0.19	5.00317E-002	-7.40107E-005	0.00000E+000	4.99998E-002	0.00000E+000	9	...........	1425.87
	31	-0.18	5.00366E-002	-7.38628E-005	0.00000E+000	4.99998E-002	0.00000E+000	9	...........	1425.87
	32	-0.17	5.00331E-002	-7.38008E-005	0.00000E+000	4.99998E-002	0.00000E+000	9	...........	1425.87
	33	-0.16	5.00308E-002	-7.36731E-005	0.00000E+000	4.99998E-002	0.00000E+000	9	...........	1425.87
	34	-0.15	5.00324E-002	-7.35911E-005	0.00000E+000	4.99998E-002	0.00000E+000	9	...........	1425.87
	35	-0.14	5.00321E-002	-7.34599E-005	0.00000E+000	4.99998E-002	0.00000E+000	9	...........	1425.87
	36	-0.13	5.00358E-002	-7.34020E-005	0.00000E+000	4.99998E-002	0.00000E+000	9	...........	1425.87
	37	-0.12	5.00307E-002	-7.32758E-005	0.00000E+000	4.99998E-002	0.00000E+000	9	...........	1425.87
	38	-0.11	5.00330E-002	-7.32213E-005	0.00000E+000	4.99998E-002	0.00000E+000	9	...........	1425.87
	39	-0.1	5.00312E-002	-7.30797E-005	0.00000E+000	4.99998E-002	0.00000E+000	9	...........	1425.87
	40	-0.09	5.00334E-002	-7.30258E-005	0.00000E+000	4.99998E-002	0.00000E+000	9	...........	1425.87
	41	-0.08	5.00351E-002	-7.28690E-005	0.00000E+000	4.99998E-002	0.00000E+000	9	...........	1425.87
	42	-0.07	5.00299E-002	-7.28117E-005	0.00000E+000	4.99998E-002	0.00000E+000	9	...........	1425.87
	43	-0.06	5.00327E-002	-7.26827E-005	0.00000E+000	4.99998E-002	0.00000E+000	9	...........	1425.87
	44	-0.05	5.00346E-002	-7.26326E-005	0.00000E+000	4.99998E-002	0.00000E+000	9	...........	1425.87
	45	-0.04	5.00344E-002	-7.24772E-005	0.00000E+000	4.99998E-002	0.00000E+000	9	...........	1425.78
	46	-0.03	5.00327E-002	-7.24402E-005	0.00000E+000	4.99998E-002	0.00000E+000	9	...........	1425.78
	47	-0.02	5.00334E-002	-7.23062E-005	0.00000E+000	4.99998E-002	0.00000E+000	9	...........	1425.78
	48	-0.01	5.00337E-002	-7.22430E-005	0.00000E+000	4.99998E-002	0.00000E+000	9	...........	1425.78
	49	0	5.00324E-002	-7.21132E-005	0.00000E+000	4.99998E-002	0.00000E+000	9	...........	1425.78
	50	0.01	2.01974E-005	-3.18429E-004	0.00000E+000	0.00000E+000	0.00000E+000	9	...........	1425.78
	51	0.02	1.74911E-005	-2.99656E-004	0.00000E+000	0.00000E+000	0.00000E+000	9	...........	1425.78
	52	0.03	1.51299E-005	-2.84843E-004	0.00000E+000	0.00000E+000	0.00000E+000	9	...........	1425.78
	53	0.04	1.52884E-005	-2.71902E-004	0.00000E+000	0.00000E+000	0.00000E+000	9	...........	1425.78
	54	0.05	1.23181E-005	-2.60498E-004	0.00000E+000	0.00000E+000	0.00000E+000	9	...........	1425.78
	55	0.06	1.36948E-005	-2.50113E-004	0.00000E+000	0.00000E+000	0.00000E+000	9	...........	1425.78
	56	0.07	1.40202E-005	-2.40795E-004	0.00000E+000	0.00000E+000	0.00000E+000	9	...........	1425.78
	57	0.08	1.41787E-005	-2.32213E-004	0.00000E+000	0.00000E+000	0.00000E+000	9	...........	1425.78
	58	0.09	1.92683E-005	-2.24406E-004	0.00000E+000	0.00000E+000	0.00000E+000	9	...........	1425.78
	59	0.1	1.68737E-005	-2.17161E-004	0.00000E+000	0.00000E+000	0.00000E+000	9	...........	1425.78
	60	0.11	1.14003E-005	-2.10604E-004	0.00000E+000	0.00000E+000	0.00000E+000	9	...........	1425.78
	61	0.12	1.55304E-005	-2.04387E-004	0.00000E+000	0.00000E+000	0.00000E+000	9	...........	1425.78
	62	0.13	1.27353E-005	-1.98776E-004	0.00000E+000	0.00000E+000	0.00000E+000	9	...........	1425.78
	63	0.14	1.66901E-005	-1.93449E-004	0.00000E+000	0.00000E+000	0.00000E+000	9	...........	1425.78
	64	0.15	1.18091E-005	-1.88638E-004	0.00000E+000	0.00000E+000	0.00000E+000	9	...........	1425.78
	65	0.16	1.45959E-005	-1.84025E-004	0.00000E+000	0.00000E+000	0.00000E+000	9	...........	1425.78
	66	0.17	1.34028E-005	-1.79842E-004	0.00000E+000	0.00000E+000	0.00000E+000	9	...........	1425.78
	67	0.18	1.50464E-005	-1.75823E-004	0.00000E+000	0.00000E+000	0.00000E+000	9	...........	1425.78
	68	0.19	1.71657E-005	-1.72189E-004	0.00000E+000	0.00000E+000	0.00000E+000	9	...........	1425.78
	69	0.2	1.50131E-005	-1.68669E-004	0.00000E+000	0.00000E+000	0.00000E+000	9	...........	1425.78
	70	0.21	1.62563E-005	-1.65491E-004	0.00000E+000	0.00000E+000	0.00000E+000	9	...........	1425.78
	71	0.22	1.65817E-005	-1.62401E-004	0.00000E+000	0.00000E+000	0.00000E+000	9	...........	1425.78
	72	0.23	1.66317E-005	-1.59621E-004	0.00000E+000	0.00000E+000	0.00000E+000	9	...........	1425.78
	73	0.24	1.53051E-005	-1.56892E-004	0.00000E+000	0.00000E+000	0.00000E+000	9	...........	1425.78
	74	0.25	1.55804E-005	-1.54448E-004	0.00000E+000	0.00000E+000	0.00000E+000	9	...........	1425.78
	75	0.26	1.42621E-005	-1.52035E-004	0.00000E+000	0.00000E+000	0.00000E+000	9	...........	1425.78
	76	0.27	1.54636E-005	-1.49845E-004	0.00000E+000	0.00000E+000	0.00000E+000	9	...........	1425.78
	77	0.28	1.67652E-005	-1.47676E-004	0.00000E+000	0.00000E+000	0.00000E+000	9	...........	1425.78
	78	0.29	1.69905E-005	-1.45740E-004	0.00000E+000	0.00000E+000	0.00000E+000	9	...........	1425.78
	79	0.3	1.61812E-005	-1.43775E-004	0.00000E+000	0.00000E+000	0.00000E+000	9	...........	1425.78
	80	0.31	1.50882E-005	-1.42047E-004	0.00000E+000	0.00000E+000	0.00000E+000	9	...........	1425.78
	81	0.32	1.63981E-005	-1.40279E-004	0.00000E+000	0.00000E+000	0.00000E+000	9	...........	1425.78
	82	0.33	1.53969E-005	-1.38706E-004	0.00000E+000	0.00000E+000	0.00000E+000	9	...........	1425.78
	83	0.34	1.57807E-005	-1.37100E-004	0.00000E+000	0.00000E+000	0.00000E+000	9	...........	1425.78
	84	0.35	1.53969E-005	-1.35666E-004	0.00000E+000	0.00000E+000	0.00000E+000	9	...........	1425.78
	85	0.36	1.76413E-005	-1.34185E-004	0.00000E+000	0.00000E+000	0.00000E+000	9	...........	1425.78
	86	0.37	1.71824E-005	-1.32891E-004	0.00000E+000	0.00000E+000	0.00000E+000	9	...........	1425.78
	87	0.38	1.60393E-005	-1.31507E-004	0.00000E+000	0.00000E+000	0.00000E+000	9	...........	1425.78
	88	0.39	1.56388E-005	-1.30308E-004	0.00000E+000	0.00000E+000	0.00000E+000	9	...........	1425.78
	89	0.4	1.65399E-005	-1.29028E-004	0.00000E+000	0.00000E+000	0.00000E+000	9	...........	1425.78
	90	0.41	1.67652E-005	-1.27948E-004	0.00000E+000	0.00000E+000	0.00000E+000	9	...........	1425.78
	91	0.42	1.52300E-005	-1.26778E-004	0.00000E+000	0.00000E+000	0.00000E+000	9	...........	1425.78
	92	0.43	1.34111E-005	-1.25770E-004	0.00000E+000	0.00000E+000	0.00000E+000	9	...........	1425.78
	93	0.44	1.56472E-005	-1.24657E-004	0.00000E+000	0.00000E+000	0.00000E+000	9	...........	1425.78
	94	0.45	1.58391E-005	-1.23724E-004	0.00000E+000	0.00000E+000	0.00000E+000	9	...........	1425.78
	95	0.46	1.50047E-005	-1.22687E-004	0.00000E+000	0.00000E+000	0.00000E+000	9	...........	1425.78
	96	0.47	1.58307E-005	-1.21811E-004	0.00000E+000	0.00000E+000	0.00000E+000	9	...........	1425.78
	97	0.48	1.62146E-005	-1.20833E-004	0.00000E+000	0.00000E+000	0.00000E+000	9	...........	1425.78
	98	0.49	1.62312E-005	-1.20025E-004	0.00000E+000	0.00000E+000	0.00000E+000	9	...........	1425.78
	99	0.5	1.65817E-005	-1.19095E-004	0.00000E+000	0.00000E+000	0.00000E+000	9	...........	1425.78
	100	0.51	1.62062E-005	-1.18342E-004	0.00000E+000	0.00000E+000	0.00000E+000	9	...........	1425.78
	101	0.52	1.86592E-005	-1.17473E-004	0.00000E+000	0.00000E+000	0.00000E+000	9	...........	1425.78
	102	0.53	1.85424E-005	-1.16767E-004	0.00000E+000	0.00000E+000	0.00000E+000	9	...........	1425.78
	103	0.54	1.71574E-005	-1.15959E-004	0.00000E+000	0.00000E+000	0.00000E+000	9	...........	1425.78
	104	0.55	1.67569E-005	-1.15303E-004	0.00000E+000	0.00000E+000	0.00000E+000	9	...........	1425.78
	105	0.56	1.45625E-005	-1.14535E-004	0.00000E+000	0.00000E+000	0.00000E+000	9	...........	1425.78
	106	0.57	1.98190E-005	-1.13931E-004	0.00000E+000	0.00000E+000	0.00000E+000	9	...........	1425.78
	107	0.58	1.52133E-005	-1.13213E-004	0.00000E+000	0.00000E+000	0.00000E+000	9	...........	1425.78
	108	0.59	1.43539E-005	-1.12639E-004	0.00000E+000	0.00000E+000	0.00000E+000	9	...........	1425.78
	109	0.6	1.51048E-005	-1.11943E-004	0.00000E+000	0.00000E+000	0.00000E+000	9	...........	1425.78
	110	0.61	1.42371E-005	-1.11403E-004	0.00000E+000	0.00000E+000	0.00000E+000	9	...........	1425.78
	111	0.71	1.51048E-005	-1.06140E-004	0.00000E+000	0.00000E+000	0.00000E+000	9	...........	1425.78
	112	0.81	1.47044E-005	-1.01991E-004	0.00000E+000	0.00000E+000	0.00000E+000	9	...........	1425.78
	113	0.91	1.61728E-005	-9.86461E-005	0.00000E+000	0.00000E+000	0.00000E+000	9	...........	1425.78
	114	1.01	1.58641E-005	-9.58365E-005	0.00000E+000	0.00000E+000	0.00000E+000	9	...........	1425.51
	115	1.11	1.02822E-005	-9.34346E-005	0.00000E+000	0.00000E+000	0.00000E+000	9	...........	1425.51
	116	1.21	1.54302E-005	-9.13122E-005	0.00000E+000	0.00000E+000	0.00000E+000	9	...........	1425.51
	117	1.31	1.39618E-005	-8.94224E-005	0.00000E+000	0.00000E+000	0.00000E+000	9	...........	1425.51
	118	1.41	1.34612E-005	-8.77082E-005	0.00000E+000	0.00000E+000	0.00000E+000	9	...........	1425.51
	119	1.51	1.58057E-005	-8.61324E-005	0.00000E+000	0.00000E+000	0.00000E+000	9	...........	1425.51
	120	1.61	1.58725E-005	-8.46341E-005	0.00000E+000	0.00000E+000	0.00000E+000	9	...........	1425.51
	121	2.61	1.03991E-005	-7.33152E-005	0.00000E+000	0.00000E+000	0.00000E+000	9	...........	1426.04
	122	3.61	1.24349E-005	-6.53039E-005	0.00000E+000	0.00000E+000	0.00000E+000	9	...........	1426.13
	123	4.61	1.43372E-005	-5.92199E-005	0.00000E+000	0.00000E+000	0.00000E+000	9	...........	1426.22
	124	5.61	1.23932E-005	-5.43017E-005	0.00000E+000	0.00000E+000	0.00000E+000	9	...........	1426.13
	125	6.61	1.26435E-005	-5.02659E-005	0.00000E+000	0.00000E+000	0.00000E+000	9	...........	1426.22
	126	7.61	1.05326E-005	-4.69347E-005	0.00000E+000	0.00000E+000	0.00000E+000	9	...........	1426.22
	127	8.61	1.31024E-005	-4.40612E-005	0.00000E+000	0.00000E+000	0.00000E+000	9	...........	1426.22
	128	9.61	1.38366E-005	-4.15803E-005	0.00000E+000	0.00000E+000	0.00000E+000	9	...........	1426.13
	129	10.61	1.31274E-005	-3.94267E-005	0.00000E+000	0.00000E+000	0.00000E+000	9	...........	1426.22
	130	11.61	1.16673E-005	-3.75166E-005	0.00000E+000	0.00000E+000	0.00000E+000	9	...........	1426.13
	131	21.61	1.31441E-005	-2.65047E-005	0.00000E+000	0.00000E+000	0.00000E+000	9	...........	1426.13
	132	31.61	1.08830E-005	-2.15646E-005	0.00000E+000	0.00000E+000	0.00000E+000	9	...........	1426.13
	133	41.61	1.44958E-005	-1.87884E-005	0.00000E+000	0.00000E+000	0.00000E+000	9	...........	1426.13
	134	51.61	1.54970E-005	-1.70072E-005	0.00000E+000	0.00000E+000	0.00000E+000	9	...........	1426.13
	135	60	1.23431E-005	-1.59658E-005	0.00000E+000	0.00000E+000	0.00000E+000	9	...........	1426.13
	136	60.01	-3.28713E-002	-2.62765E-004	0.00000E+000	-4.99998E-002	0.00000E+000	9	.........v.	1426.13
	137	60.02	-4.99918E-002	-2.41412E-004	0.00000E+000	-4.99998E-002	0.00000E+000	9	...........	1426.13
	138	60.03	-4.99980E-002	-2.24587E-004	0.00000E+000	-4.99998E-002	0.00000E+000	9	...........	1426.13
	139	60.04	-4.99986E-002	-2.10101E-004	0.00000E+000	-4.99998E-002	0.00000E+000	9	...........	1426.13
	140	60.05	-5.00011E-002	-1.97177E-004	0.00000E+000	-4.99998E-002	0.00000E+000	9	...........	1426.13
	141	60.06	-5.00020E-002	-1.85703E-004	0.00000E+000	-4.99998E-002	0.00000E+000	9	...........	1426.13
	142	60.07	-5.00008E-002	-1.75241E-004	0.00000E+000	-4.99998E-002	0.00000E+000	9	...........	1426.13
	143	60.08	-5.00026E-002	-1.65857E-004	0.00000E+000	-4.99998E-002	0.00000E+000	9	...........	1426.13
	144	60.09	-5.00013E-002	-1.57220E-004	0.00000E+000	-4.99998E-002	0.00000E+000	9	...........	1426.13
	145	60.1	-5.00029E-002	-1.49424E-004	0.00000E+000	-4.99998E-002	0.00000E+000	9	...........	1426.13
	146	60.11	-5.00009E-002	-1.42189E-004	0.00000E+000	-4.99998E-002	0.00000E+000	9	...........	1426.13
	147	60.12	-5.00021E-002	-1.35636E-004	0.00000E+000	-4.99998E-002	0.00000E+000	9	...........	1426.13
	148	60.13	-4.99999E-002	-1.29532E-004	0.00000E+000	-4.99998E-002	0.00000E+000	9	...........	1426.13
	149	60.14	-4.99987E-002	-1.23977E-004	0.00000E+000	-4.99998E-002	0.00000E+000	9	...........	1426.13
	150	60.15	-4.99994E-002	-1.18770E-004	0.00000E+000	-4.99998E-002	0.00000E+000	9	...........	1426.13
	151	60.16	-5.00007E-002	-1.14068E-004	0.00000E+000	-4.99998E-002	0.00000E+000	9	...........	1426.13
	152	60.17	-5.00009E-002	-1.09592E-004	0.00000E+000	-4.99998E-002	0.00000E+000	9	...........	1426.13
	153	60.18	-5.00006E-002	-1.05552E-004	0.00000E+000	-4.99998E-002	0.00000E+000	9	...........	1426.13
	154	60.19	-5.00025E-002	-1.01716E-004	0.00000E+000	-4.99998E-002	0.00000E+000	9	...........	1426.13
	155	60.2	-5.00025E-002	-9.82374E-005	0.00000E+000	-4.99998E-002	0.00000E+000	9	...........	1426.13
	156	60.21	-5.00005E-002	-9.49137E-005	0.00000E+000	-4.99998E-002	0.00000E+000	9	...........	1426.13
	157	60.22	-5.00026E-002	-9.19242E-005	0.00000E+000	-4.99998E-002	0.00000E+000	9	...........	1426.13
	158	60.23	-5.00003E-002	-8.90159E-005	0.00000E+000	-4.99998E-002	0.00000E+000	9	...........	1426.13
	159	60.24	-4.99988E-002	-8.64163E-005	0.00000E+000	-4.99998E-002	0.00000E+000	9	...........	1426.13
	160	60.25	-5.00028E-002	-8.38784E-005	0.00000E+000	-4.99998E-002	0.00000E+000	9	...........	1426.13
	161	60.26	-5.00009E-002	-8.16280E-005	0.00000E+000	-4.99998E-002	0.00000E+000	9	...........	1426.13
	162	60.27	-4.99992E-002	-7.93982E-005	0.00000E+000	-4.99998E-002	0.00000E+000	9	...........	1426.13
	163	60.28	-5.00013E-002	-7.74470E-005	0.00000E+000	-4.99998E-002	0.00000E+000	9	...........	1426.13
	164	60.29	-5.00015E-002	-7.54900E-005	0.00000E+000	-4.99998E-002	0.00000E+000	9	...........	1426.13
	165	60.3	-4.99992E-002	-7.37504E-005	0.00000E+000	-4.99998E-002	0.00000E+000	9	...........	1426.13
	166	60.31	-5.00000E-002	-7.20298E-005	0.00000E+000	-4.99998E-002	0.00000E+000	9	...........	1426.13
	167	60.32	-4.99973E-002	-7.05107E-005	0.00000E+000	-4.99998E-002	0.00000E+000	9	...........	1426.13
	168	60.33	-5.00016E-002	-6.89947E-005	0.00000E+000	-4.99998E-002	0.00000E+000	9	...........	1426.13
	169	60.34	-4.99982E-002	-6.76413E-005	0.00000E+000	-4.99998E-002	0.00000E+000	9	...........	1426.13
	170	60.35	-5.00003E-002	-6.62866E-005	0.00000E+000	-4.99998E-002	0.00000E+000	9	...........	1426.13
	171	60.36	-4.99974E-002	-6.51143E-005	0.00000E+000	-4.99998E-002	0.00000E+000	9	...........	1426.13
	172	60.37	-4.99984E-002	-6.38989E-005	0.00000E+000	-4.99998E-002	0.00000E+000	9	...........	1426.13
	173	60.38	-4.99989E-002	-6.28581E-005	0.00000E+000	-4.99998E-002	0.00000E+000	9	...........	1426.13
	174	60.39	-4.99995E-002	-6.17758E-005	0.00000E+000	-4.99998E-002	0.00000E+000	9	...........	1426.13
	175	60.4	-4.99984E-002	-6.08546E-005	0.00000E+000	-4.99998E-002	0.00000E+000	9	...........	1426.13
	176	60.41	-4.99994E-002	-5.98817E-005	0.00000E+000	-4.99998E-002	0.00000E+000	9	...........	1426.13
	177	60.42	-4.99986E-002	-5.90722E-005	0.00000E+000	-4.99998E-002	0.00000E+000	9	...........	1426.13
	178	60.43	-4.99994E-002	-5.82113E-005	0.00000E+000	-4.99998E-002	0.00000E+000	9	...........	1426.13
	179	60.44	-5.00007E-002	-5.74786E-005	0.00000E+000	-4.99998E-002	0.00000E+000	9	...........	1426.13
	180	60.45	-4.99994E-002	-5.67062E-005	0.00000E+000	-4.99998E-002	0.00000E+000	9	...........	1426.13
	181	60.46	-4.99982E-002	-5.60433E-005	0.00000E+000	-4.99998E-002	0.00000E+000	9	...........	1426.13
	182	60.47	-4.99979E-002	-5.53225E-005	0.00000E+000	-4.99998E-002	0.00000E+000	9	...........	1426.13
	183	60.48	-5.00009E-002	-5.47428E-005	0.00000E+000	-4.99998E-002	0.00000E+000	9	...........	1426.13
	184	60.49	-4.99990E-002	-5.41057E-005	0.00000E+000	-4.99998E-002	0.00000E+000	9	...........	1426.13
	185	60.5	-4.99976E-002	-5.35821E-005	0.00000E+000	-4.99998E-002	0.00000E+000	9	...........	1426.13
	186	60.51	-4.99985E-002	-5.29865E-005	0.00000E+000	-4.99998E-002	0.00000E+000	9	...........	1426.13
	187	60.52	-5.00016E-002	-5.25274E-005	0.00000E+000	-4.99998E-002	0.00000E+000	9	...........	1426.13
	188	60.53	-4.99964E-002	-5.19863E-005	0.00000E+000	-4.99998E-002	0.00000E+000	9	...........	1426.13
	189	60.54	-5.00024E-002	-5.15742E-005	0.00000E+000	-4.99998E-002	0.00000E+000	9	...........	1426.13
	190	60.55	-5.00005E-002	-5.10670E-005	0.00000E+000	-4.99998E-002	0.00000E+000	9	...........	1426.13
	191	60.56	-4.99998E-002	-5.06947E-005	0.00000E+000	-4.99998E-002	0.00000E+000	9	...........	1426.13
	192	60.57	-5.00004E-002	-5.02364E-005	0.00000E+000	-4.99998E-002	0.00000E+000	9	...........	1426.13
	193	60.58	-5.00014E-002	-4.98905E-005	0.00000E+000	-4.99998E-002	0.00000E+000	9	...........	1426.13
	194	60.59	-5.00019E-002	-4.94662E-005	0.00000E+000	-4.99998E-002	0.00000E+000	9	...........	1426.13
	195	60.6	-5.00019E-002	-4.91534E-005	0.00000E+000	-4.99998E-002	0.00000E+000	9	...........	1426.13
	196	60.61	-5.00012E-002	-4.87652E-005	0.00000E+000	-4.99998E-002	0.00000E+000	9	...........	1426.13
	197	60.71	-5.00003E-002	-4.60168E-005	0.00000E+000	-4.99998E-002	0.00000E+000	9	...........	1426.13
	198	60.81	-5.00008E-002	-4.41571E-005	0.00000E+000	-4.99998E-002	0.00000E+000	9	...........	1426.13
	199	60.91	-4.99984E-002	-4.27760E-005	0.00000E+000	-4.99998E-002	0.00000E+000	9	...........	1426.13
	200	61	-4.99955E-002	-4.18736E-005	0.00000E+000	-4.99998E-002	0.00000E+000	9	...........	1426.13
