EXPLAIN
TAG	CHRONOA
TITLE	LABEL	Chronoamperometry Scan	Test Identifier
DATE	LABEL	13/7/2022	Date
TIME	LABEL	12:29:05	Time
NOTES	NOTES	1	Notes...
	
PSTAT	PSTAT	IFC1010-21051	Potentiostat
VPRESTEP	POTEN	5.00000E-002	F	Pre-step Voltage (V)
TPRESTEP	QUANT	5.00000E-001	Pre-step Delay Time (s)
VSTEP1	POTEN	0.00000E+000	F	Step 1 Voltage (V)
TSTEP1	QUANT	6.00000E+001	Step 1 Time (s)
VSTEP2	POTEN	-5.00000E-002	F	Step 2 Voltage (V)
TSTEP2	QUANT	1.00000E+000	Step 2 Time (s)
SAMPLETIME	QUANT	1.00000E-002	Sample Period (s)
DECIMATE	TOGGLE	T	Decimate
ILIMIT	QUANT	1.00000E+000	Limit I (mA/cm^2)
IMODE	SELECTOR	1	I/E Range Mode
IRANGE	QUANT	3.00000E-001	Max Current (mA)
EQDELAY	QUANT	5.00000E+000	Equil. Time (s)
SAMPLINGMODE	SELECTOR	1	Sampling Mode
AREA	QUANT	1.00000E+000	Sample Area (cm^2)
IRCOMP	SELECTOR	0	IRComp
PFCOR	QUANT	5.00000E+001	PF Corr. (ohm)
SEQUENCER	TOGGLE	TRUE	Run as Sequence
PSTATMODEL	IQUANT	64	Pstat Model
PSTATSECTION	LABEL	IFC1010-21051	Pstat Section
PSTATSERIALNO	LABEL	21051	Pstat Serial Number
CTRLMODE	IQUANT	1	Control Mode
ELECTROMETER	IQUANT	0	RE=0 or CS=1
IESTAB	IQUANT	0	I/E Stability
CASPEED	IQUANT	4	Control Amp Speed
CONVENTION	IQUANT	1	Current Convention
ICHRANGE	IQUANT	2	Ich Range
ICHRANGEMODE	TOGGLE	T	Ich Auto Range
ICHOFFSETENABLE	TOGGLE	F	Ich Offset Enable
ICHOFFSET	QUANT	0	Ich Offset (V)
ICHFILTER	IQUANT	3	Ich Filter
VCHRANGE	IQUANT	3	Vch Range
VCHRANGEMODE	TOGGLE	T	Vch Auto Range
VCHOFFSETENABLE	TOGGLE	F	Vch Offset Enable
VCHOFFSET	QUANT	0	Vch Offset (V)
VCHFILTER	IQUANT	3	Vch Filter
IERANGELOWERLIMIT	IQUANT	4	I/E Range Lower Limit
IERANGEMODE	TOGGLE	F	I/E AutoRange
IERANGE	IQUANT	9	I/E Range
ACHSELECT	IQUANT	0	Ach Select
ACHRANGE	IQUANT	2	Ach Range
ACHOFFSETENABLE	TOGGLE	F	Ach Offset Enable
ACHOFFSET	QUANT	0	Ach Offset (V)
ACHFILTER	IQUANT	1	Ach Filter
SENSECABLEID	IQUANT	14	Sense Cable ID
PWRCABLEID	IQUANT	14	Power Cable ID
DCCALDATE	LABEL	7/12/2022	DC Calibration Date
ACCALDATE	LABEL	4/2/2018	AC Calibration Date
FRAMEWORKVERSION	QUANT	7.06	Framework Version
INSTRUMENTVERSION	LABEL	4.30	Instrument Version
CURVE	TABLE	202
	Pt	T	Vf	Im	Vu	Sig	Ach	IERange	Over	Temp
	#	s	V vs. Ref.	A	V	V	V	#	bits	deg C
	0	-0.49	4.98859E-002	-5.62054E-005	0.00000E+000	4.99998E-002	0.00000E+000	9	...........	1425.95
	1	-0.48	5.00020E-002	-5.61042E-005	0.00000E+000	4.99998E-002	0.00000E+000	9	...........	1425.95
	2	-0.47	5.00278E-002	-5.60441E-005	0.00000E+000	4.99998E-002	0.00000E+000	9	...........	1425.95
	3	-0.46	5.00291E-002	-5.59496E-005	0.00000E+000	4.99998E-002	0.00000E+000	9	...........	1425.95
	4	-0.45	5.00266E-002	-5.58992E-005	0.00000E+000	4.99998E-002	0.00000E+000	9	...........	1425.95
	5	-0.44	5.00274E-002	-5.58180E-005	0.00000E+000	4.99998E-002	0.00000E+000	9	...........	1425.95
	6	-0.43	5.00287E-002	-5.57260E-005	0.00000E+000	4.99998E-002	0.00000E+000	9	...........	1425.95
	7	-0.42	5.00275E-002	-5.56459E-005	0.00000E+000	4.99998E-002	0.00000E+000	9	...........	1425.95
	8	-0.41	5.00303E-002	-5.55708E-005	0.00000E+000	4.99998E-002	0.00000E+000	9	...........	1425.95
	9	-0.4	5.00300E-002	-5.54852E-005	0.00000E+000	4.99998E-002	0.00000E+000	9	...........	1425.95
	10	-0.39	5.00284E-002	-5.54293E-005	0.00000E+000	4.99998E-002	0.00000E+000	9	...........	1425.95
	11	-0.38	5.00291E-002	-5.53439E-005	0.00000E+000	4.99998E-002	0.00000E+000	9	...........	1425.95
	12	-0.37	5.00284E-002	-5.52936E-005	0.00000E+000	4.99998E-002	0.00000E+000	9	...........	1425.95
	13	-0.36	5.00287E-002	-5.51927E-005	0.00000E+000	4.99998E-002	0.00000E+000	9	...........	1425.95
	14	-0.35	5.00287E-002	-5.51390E-005	0.00000E+000	4.99998E-002	0.00000E+000	9	...........	1425.95
	15	-0.34	5.00271E-002	-5.50547E-005	0.00000E+000	4.99998E-002	0.00000E+000	9	...........	1425.95
	16	-0.33	5.00271E-002	-5.49947E-005	0.00000E+000	4.99998E-002	0.00000E+000	9	...........	1425.95
	17	-0.32	5.00287E-002	-5.48974E-005	0.00000E+000	4.99998E-002	0.00000E+000	9	...........	1425.95
	18	-0.31	5.00266E-002	-5.48448E-005	0.00000E+000	4.99998E-002	0.00000E+000	9	...........	1425.95
	19	-0.3	5.00276E-002	-5.47658E-005	0.00000E+000	4.99998E-002	0.00000E+000	9	...........	1425.95
	20	-0.29	5.00268E-002	-5.47024E-005	0.00000E+000	4.99998E-002	0.00000E+000	9	...........	1425.95
	21	-0.28	5.00291E-002	-5.46137E-005	0.00000E+000	4.99998E-002	0.00000E+000	9	...........	1425.95
	22	-0.27	5.00297E-002	-5.45495E-005	0.00000E+000	4.99998E-002	0.00000E+000	9	...........	1425.95
	23	-0.26	5.00301E-002	-5.44636E-005	0.00000E+000	4.99998E-002	0.00000E+000	9	...........	1425.95
	24	-0.25	5.00287E-002	-5.44057E-005	0.00000E+000	4.99998E-002	0.00000E+000	9	...........	1425.95
	25	-0.24	5.00270E-002	-5.43296E-005	0.00000E+000	4.99998E-002	0.00000E+000	9	...........	1425.95
	26	-0.23	5.00285E-002	-5.42737E-005	0.00000E+000	4.99998E-002	0.00000E+000	9	...........	1425.95
	27	-0.22	5.00284E-002	-5.41886E-005	0.00000E+000	4.99998E-002	0.00000E+000	9	...........	1425.95
	28	-0.21	5.00280E-002	-5.41218E-005	0.00000E+000	4.99998E-002	0.00000E+000	9	...........	1425.95
	29	-0.2	5.00249E-002	-5.40545E-005	0.00000E+000	4.99998E-002	0.00000E+000	9	...........	1425.95
	30	-0.19	5.00292E-002	-5.39742E-005	0.00000E+000	4.99998E-002	0.00000E+000	9	...........	1425.95
	31	-0.18	5.00283E-002	-5.39133E-005	0.00000E+000	4.99998E-002	0.00000E+000	9	...........	1425.95
	32	-0.17	5.00301E-002	-5.38477E-005	0.00000E+000	4.99998E-002	0.00000E+000	9	...........	1425.95
	33	-0.16	5.00276E-002	-5.37768E-005	0.00000E+000	4.99998E-002	0.00000E+000	9	...........	1425.95
	34	-0.15	5.00301E-002	-5.37281E-005	0.00000E+000	4.99998E-002	0.00000E+000	9	...........	1425.95
	35	-0.14	5.00253E-002	-5.36491E-005	0.00000E+000	4.99998E-002	0.00000E+000	9	...........	1425.95
	36	-0.13	5.00293E-002	-5.35774E-005	0.00000E+000	4.99998E-002	0.00000E+000	9	...........	1425.95
	37	-0.12	5.00295E-002	-5.34909E-005	0.00000E+000	4.99998E-002	0.00000E+000	9	...........	1425.95
	38	-0.11	5.00274E-002	-5.34559E-005	0.00000E+000	4.99998E-002	0.00000E+000	9	...........	1425.95
	39	-0.1	5.00289E-002	-5.33777E-005	0.00000E+000	4.99998E-002	0.00000E+000	9	...........	1425.95
	40	-0.09	5.00290E-002	-5.33313E-005	0.00000E+000	4.99998E-002	0.00000E+000	9	...........	1425.95
	41	-0.08	5.00259E-002	-5.32543E-005	0.00000E+000	4.99998E-002	0.00000E+000	9	...........	1425.95
	42	-0.07	5.00266E-002	-5.32037E-005	0.00000E+000	4.99998E-002	0.00000E+000	9	...........	1425.95
	43	-0.06	5.00274E-002	-5.31241E-005	0.00000E+000	4.99998E-002	0.00000E+000	9	...........	1425.95
	44	-0.05	5.00227E-002	-5.30746E-005	0.00000E+000	4.99998E-002	0.00000E+000	9	...........	1425.95
	45	-0.04	5.00263E-002	-5.29846E-005	0.00000E+000	4.99998E-002	0.00000E+000	9	...........	1425.95
	46	-0.03	5.00263E-002	-5.29501E-005	0.00000E+000	4.99998E-002	0.00000E+000	9	...........	1425.95
	47	-0.02	5.00269E-002	-5.28597E-005	0.00000E+000	4.99998E-002	0.00000E+000	9	...........	1425.95
	48	-0.01	5.00289E-002	-5.28197E-005	0.00000E+000	4.99998E-002	0.00000E+000	9	...........	1425.95
	49	0	5.00307E-002	-5.27162E-005	0.00000E+000	4.99998E-002	0.00000E+000	9	...........	1425.95
	50	0.01	2.07814E-005	-2.77800E-004	0.00000E+000	0.00000E+000	0.00000E+000	9	...........	1425.95
	51	0.02	1.31107E-005	-2.64424E-004	0.00000E+000	0.00000E+000	0.00000E+000	9	...........	1425.95
	52	0.03	9.32274E-006	-2.53824E-004	0.00000E+000	0.00000E+000	0.00000E+000	9	...........	1425.95
	53	0.04	9.60642E-006	-2.44278E-004	0.00000E+000	0.00000E+000	0.00000E+000	9	...........	1425.95
	54	0.05	9.37279E-006	-2.35552E-004	0.00000E+000	0.00000E+000	0.00000E+000	9	...........	1425.95
	55	0.06	7.17009E-006	-2.27462E-004	0.00000E+000	0.00000E+000	0.00000E+000	9	...........	1425.95
	56	0.07	1.00403E-005	-2.19960E-004	0.00000E+000	0.00000E+000	0.00000E+000	9	...........	1425.95
	57	0.08	1.01237E-005	-2.12917E-004	0.00000E+000	0.00000E+000	0.00000E+000	9	...........	1425.95
	58	0.09	1.01404E-005	-2.06349E-004	0.00000E+000	0.00000E+000	0.00000E+000	9	...........	1425.95
	59	0.1	8.78874E-006	-2.00142E-004	0.00000E+000	0.00000E+000	0.00000E+000	9	...........	1425.95
	60	0.11	8.15462E-006	-1.94336E-004	0.00000E+000	0.00000E+000	0.00000E+000	9	...........	1425.95
	61	0.12	6.92812E-006	-1.88828E-004	0.00000E+000	0.00000E+000	0.00000E+000	9	...........	1425.95
	62	0.13	8.69697E-006	-1.83626E-004	0.00000E+000	0.00000E+000	0.00000E+000	9	...........	1425.95
	63	0.14	1.04658E-005	-1.78689E-004	0.00000E+000	0.00000E+000	0.00000E+000	9	...........	1425.95
	64	0.15	1.00820E-005	-1.74045E-004	0.00000E+000	0.00000E+000	0.00000E+000	9	...........	1425.95
	65	0.16	1.17924E-005	-1.69610E-004	0.00000E+000	0.00000E+000	0.00000E+000	9	...........	1425.95
	66	0.17	9.80667E-006	-1.65423E-004	0.00000E+000	0.00000E+000	0.00000E+000	9	...........	1425.95
	67	0.18	1.14086E-005	-1.61419E-004	0.00000E+000	0.00000E+000	0.00000E+000	9	...........	1425.95
	68	0.19	7.31192E-006	-1.57638E-004	0.00000E+000	0.00000E+000	0.00000E+000	9	...........	1425.95
	69	0.2	9.60642E-006	-1.54003E-004	0.00000E+000	0.00000E+000	0.00000E+000	9	...........	1425.95
	70	0.21	1.07578E-005	-1.50584E-004	0.00000E+000	0.00000E+000	0.00000E+000	9	...........	1425.95
	71	0.22	1.05409E-005	-1.47289E-004	0.00000E+000	0.00000E+000	0.00000E+000	9	...........	1425.95
	72	0.23	9.77328E-006	-1.44176E-004	0.00000E+000	0.00000E+000	0.00000E+000	9	...........	1425.95
	73	0.24	8.84715E-006	-1.41178E-004	0.00000E+000	0.00000E+000	0.00000E+000	9	...........	1425.95
	74	0.25	1.03907E-005	-1.38324E-004	0.00000E+000	0.00000E+000	0.00000E+000	9	...........	1425.95
	75	0.26	6.75290E-006	-1.35600E-004	0.00000E+000	0.00000E+000	0.00000E+000	9	...........	1425.95
	76	0.27	1.03490E-005	-1.32998E-004	0.00000E+000	0.00000E+000	0.00000E+000	9	...........	1425.87
	77	0.28	1.04992E-005	-1.30499E-004	0.00000E+000	0.00000E+000	0.00000E+000	9	...........	1425.87
	78	0.29	8.98065E-006	-1.28112E-004	0.00000E+000	0.00000E+000	0.00000E+000	9	...........	1425.87
	79	0.3	9.08911E-006	-1.25827E-004	0.00000E+000	0.00000E+000	0.00000E+000	9	...........	1425.87
	80	0.31	5.04247E-006	-1.23660E-004	0.00000E+000	0.00000E+000	0.00000E+000	9	...........	1425.87
	81	0.32	1.01821E-005	-1.21541E-004	0.00000E+000	0.00000E+000	0.00000E+000	9	...........	1425.87
	82	0.33	6.54432E-006	-1.19542E-004	0.00000E+000	0.00000E+000	0.00000E+000	9	...........	1425.87
	83	0.34	1.06827E-005	-1.17583E-004	0.00000E+000	0.00000E+000	0.00000E+000	9	...........	1425.87
	84	0.35	9.87341E-006	-1.15765E-004	0.00000E+000	0.00000E+000	0.00000E+000	9	...........	1425.87
	85	0.36	9.50629E-006	-1.13979E-004	0.00000E+000	0.00000E+000	0.00000E+000	9	...........	1425.87
	86	0.37	8.88887E-006	-1.12287E-004	0.00000E+000	0.00000E+000	0.00000E+000	9	...........	1425.87
	87	0.38	1.03490E-005	-1.10635E-004	0.00000E+000	0.00000E+000	0.00000E+000	9	...........	1425.87
	88	0.39	7.35365E-006	-1.09086E-004	0.00000E+000	0.00000E+000	0.00000E+000	9	...........	1425.87
	89	0.4	9.36446E-006	-1.07557E-004	0.00000E+000	0.00000E+000	0.00000E+000	9	...........	1425.87
	90	0.41	1.08079E-005	-1.06111E-004	0.00000E+000	0.00000E+000	0.00000E+000	9	...........	1425.87
	91	0.42	1.03240E-005	-1.04685E-004	0.00000E+000	0.00000E+000	0.00000E+000	9	...........	1425.87
	92	0.43	8.75536E-006	-1.03363E-004	0.00000E+000	0.00000E+000	0.00000E+000	9	...........	1425.87
	93	0.44	9.91512E-006	-1.02050E-004	0.00000E+000	0.00000E+000	0.00000E+000	9	...........	1425.87
	94	0.45	1.07996E-005	-1.00825E-004	0.00000E+000	0.00000E+000	0.00000E+000	9	...........	1425.87
	95	0.46	8.72199E-006	-9.95854E-005	0.00000E+000	0.00000E+000	0.00000E+000	9	...........	1425.87
	96	0.47	9.48960E-006	-9.84540E-005	0.00000E+000	0.00000E+000	0.00000E+000	9	...........	1425.87
	97	0.48	1.02822E-005	-9.73092E-005	0.00000E+000	0.00000E+000	0.00000E+000	9	...........	1425.87
	98	0.49	9.26433E-006	-9.62386E-005	0.00000E+000	0.00000E+000	0.00000E+000	9	...........	1425.87
	99	0.5	7.42874E-006	-9.51820E-005	0.00000E+000	0.00000E+000	0.00000E+000	9	...........	1425.87
	100	0.51	1.12918E-005	-9.41929E-005	0.00000E+000	0.00000E+000	0.00000E+000	9	...........	1425.87
	101	0.52	1.01488E-005	-9.32027E-005	0.00000E+000	0.00000E+000	0.00000E+000	9	...........	1425.87
	102	0.53	8.73868E-006	-9.22901E-005	0.00000E+000	0.00000E+000	0.00000E+000	9	...........	1425.87
	103	0.54	1.14587E-005	-9.13678E-005	0.00000E+000	0.00000E+000	0.00000E+000	9	...........	1425.87
	104	0.55	9.11415E-006	-9.05305E-005	0.00000E+000	0.00000E+000	0.00000E+000	9	...........	1425.87
	105	0.56	9.73992E-006	-8.96549E-005	0.00000E+000	0.00000E+000	0.00000E+000	9	...........	1425.87
	106	0.57	7.54555E-006	-8.88466E-005	0.00000E+000	0.00000E+000	0.00000E+000	9	...........	1425.87
	107	0.58	8.40494E-006	-8.80482E-005	0.00000E+000	0.00000E+000	0.00000E+000	9	...........	1425.87
	108	0.59	9.61476E-006	-8.72986E-005	0.00000E+000	0.00000E+000	0.00000E+000	9	...........	1425.87
	109	0.6	6.36910E-006	-8.65433E-005	0.00000E+000	0.00000E+000	0.00000E+000	9	...........	1425.87
	110	0.61	8.10457E-006	-8.58398E-005	0.00000E+000	0.00000E+000	0.00000E+000	9	...........	1425.87
	111	0.71	1.11166E-005	-7.97246E-005	0.00000E+000	0.00000E+000	0.00000E+000	9	...........	1425.87
	112	0.81	1.00403E-005	-7.51521E-005	0.00000E+000	0.00000E+000	0.00000E+000	9	...........	1425.87
	113	0.91	7.62064E-006	-7.15882E-005	0.00000E+000	0.00000E+000	0.00000E+000	9	...........	1425.87
	114	1.01	9.59807E-006	-6.87561E-005	0.00000E+000	0.00000E+000	0.00000E+000	9	...........	1425.87
	115	1.11	1.14337E-005	-6.64515E-005	0.00000E+000	0.00000E+000	0.00000E+000	9	...........	1425.87
	116	1.21	1.01321E-005	-6.45309E-005	0.00000E+000	0.00000E+000	0.00000E+000	9	...........	1425.87
	117	1.31	1.15338E-005	-6.28584E-005	0.00000E+000	0.00000E+000	0.00000E+000	9	...........	1425.78
	118	1.41	8.60519E-006	-6.14586E-005	0.00000E+000	0.00000E+000	0.00000E+000	9	...........	1425.78
	119	1.51	8.67194E-006	-6.02148E-005	0.00000E+000	0.00000E+000	0.00000E+000	9	...........	1425.78
	120	1.61	8.68028E-006	-5.91170E-005	0.00000E+000	0.00000E+000	0.00000E+000	9	...........	1425.78
	121	2.61	8.88052E-006	-5.22463E-005	0.00000E+000	0.00000E+000	0.00000E+000	9	...........	1425.78
	122	3.61	1.08162E-005	-4.84132E-005	0.00000E+000	0.00000E+000	0.00000E+000	9	...........	1426.31
	123	4.61	1.01237E-005	-4.58169E-005	0.00000E+000	0.00000E+000	0.00000E+000	9	...........	1426.31
	124	5.61	8.38826E-006	-4.37764E-005	0.00000E+000	0.00000E+000	0.00000E+000	9	...........	1426.31
	125	6.61	9.33942E-006	-4.20777E-005	0.00000E+000	0.00000E+000	0.00000E+000	9	...........	1426.31
	126	7.61	6.41916E-006	-4.06062E-005	0.00000E+000	0.00000E+000	0.00000E+000	9	...........	1426.31
	127	8.61	6.18554E-006	-3.93552E-005	0.00000E+000	0.00000E+000	0.00000E+000	9	...........	1426.31
	128	9.61	7.17843E-006	-3.81793E-005	0.00000E+000	0.00000E+000	0.00000E+000	9	...........	1426.31
	129	10.61	9.37279E-006	-3.71371E-005	0.00000E+000	0.00000E+000	0.00000E+000	9	...........	1426.31
	130	11.61	9.23096E-006	-3.61908E-005	0.00000E+000	0.00000E+000	0.00000E+000	9	...........	1426.31
	131	21.61	6.17720E-006	-2.90874E-005	0.00000E+000	0.00000E+000	0.00000E+000	9	...........	1426.31
	132	31.61	9.24764E-006	-2.46275E-005	0.00000E+000	0.00000E+000	0.00000E+000	9	...........	1426.22
	133	41.61	6.46088E-006	-2.18260E-005	0.00000E+000	0.00000E+000	0.00000E+000	9	...........	1426.31
	134	51.61	1.19510E-005	-1.97745E-005	0.00000E+000	0.00000E+000	0.00000E+000	9	...........	1426.31
	135	59.99	7.96273E-006	-1.84792E-005	0.00000E+000	0.00000E+000	0.00000E+000	9	...........	1426.31
	136	60	8.25475E-006	-1.84906E-005	0.00000E+000	0.00000E+000	0.00000E+000	9	...........	1426.31
	137	60.01	-3.28713E-002	-2.44426E-004	0.00000E+000	-4.99998E-002	0.00000E+000	9	.........v.	1426.31
	138	60.02	-4.99993E-002	-2.30388E-004	0.00000E+000	-4.99998E-002	0.00000E+000	9	...........	1426.31
	139	60.03	-5.00032E-002	-2.19305E-004	0.00000E+000	-4.99998E-002	0.00000E+000	9	...........	1426.31
	140	60.04	-5.00064E-002	-2.09385E-004	0.00000E+000	-4.99998E-002	0.00000E+000	9	...........	1426.31
	141	60.05	-5.00015E-002	-2.00283E-004	0.00000E+000	-4.99998E-002	0.00000E+000	9	...........	1426.31
	142	60.06	-5.00029E-002	-1.91869E-004	0.00000E+000	-4.99998E-002	0.00000E+000	9	...........	1426.31
	143	60.07	-5.00024E-002	-1.84046E-004	0.00000E+000	-4.99998E-002	0.00000E+000	9	...........	1426.31
	144	60.08	-5.00026E-002	-1.76752E-004	0.00000E+000	-4.99998E-002	0.00000E+000	9	...........	1426.31
	145	60.09	-5.00050E-002	-1.69915E-004	0.00000E+000	-4.99998E-002	0.00000E+000	9	...........	1426.31
	146	60.1	-5.00025E-002	-1.63513E-004	0.00000E+000	-4.99998E-002	0.00000E+000	9	...........	1426.31
	147	60.11	-5.00050E-002	-1.57480E-004	0.00000E+000	-4.99998E-002	0.00000E+000	9	...........	1426.31
	148	60.12	-5.00031E-002	-1.51816E-004	0.00000E+000	-4.99998E-002	0.00000E+000	9	...........	1426.31
	149	60.13	-5.00029E-002	-1.46457E-004	0.00000E+000	-4.99998E-002	0.00000E+000	9	...........	1426.31
	150	60.14	-5.00075E-002	-1.41428E-004	0.00000E+000	-4.99998E-002	0.00000E+000	9	...........	1426.31
	151	60.15	-5.00017E-002	-1.36652E-004	0.00000E+000	-4.99998E-002	0.00000E+000	9	...........	1426.31
	152	60.16	-5.00030E-002	-1.32149E-004	0.00000E+000	-4.99998E-002	0.00000E+000	9	...........	1426.31
	153	60.17	-5.00034E-002	-1.27888E-004	0.00000E+000	-4.99998E-002	0.00000E+000	9	...........	1426.31
	154	60.18	-5.00039E-002	-1.23861E-004	0.00000E+000	-4.99998E-002	0.00000E+000	9	...........	1426.31
	155	60.19	-5.00037E-002	-1.20016E-004	0.00000E+000	-4.99998E-002	0.00000E+000	9	...........	1426.31
	156	60.2	-5.00016E-002	-1.16396E-004	0.00000E+000	-4.99998E-002	0.00000E+000	9	...........	1426.31
	157	60.21	-5.00039E-002	-1.12974E-004	0.00000E+000	-4.99998E-002	0.00000E+000	9	...........	1426.31
	158	60.22	-5.00025E-002	-1.09706E-004	0.00000E+000	-4.99998E-002	0.00000E+000	9	...........	1426.31
	159	60.23	-5.00043E-002	-1.06595E-004	0.00000E+000	-4.99998E-002	0.00000E+000	9	...........	1426.31
	160	60.24	-5.00051E-002	-1.03670E-004	0.00000E+000	-4.99998E-002	0.00000E+000	9	...........	1426.31
	161	60.25	-5.00054E-002	-1.00860E-004	0.00000E+000	-4.99998E-002	0.00000E+000	9	...........	1426.31
	162	60.26	-5.00057E-002	-9.82023E-005	0.00000E+000	-4.99998E-002	0.00000E+000	9	...........	1426.31
	163	60.27	-5.00052E-002	-9.56705E-005	0.00000E+000	-4.99998E-002	0.00000E+000	9	...........	1426.31
	164	60.28	-5.00038E-002	-9.32564E-005	0.00000E+000	-4.99998E-002	0.00000E+000	9	...........	1426.31
	165	60.29	-5.00026E-002	-9.09510E-005	0.00000E+000	-4.99998E-002	0.00000E+000	9	...........	1426.31
	166	60.3	-5.00037E-002	-8.87818E-005	0.00000E+000	-4.99998E-002	0.00000E+000	9	...........	1426.31
	167	60.31	-5.00022E-002	-8.66866E-005	0.00000E+000	-4.99998E-002	0.00000E+000	9	...........	1426.31
	168	60.32	-5.00017E-002	-8.47023E-005	0.00000E+000	-4.99998E-002	0.00000E+000	9	...........	1426.31
	169	60.33	-5.00039E-002	-8.28031E-005	0.00000E+000	-4.99998E-002	0.00000E+000	9	...........	1426.31
	170	60.34	-5.00063E-002	-8.10174E-005	0.00000E+000	-4.99998E-002	0.00000E+000	9	...........	1426.31
	171	60.35	-5.00024E-002	-7.92881E-005	0.00000E+000	-4.99998E-002	0.00000E+000	9	...........	1426.31
	172	60.36	-5.00043E-002	-7.76681E-005	0.00000E+000	-4.99998E-002	0.00000E+000	9	...........	1426.31
	173	60.37	-5.00054E-002	-7.60820E-005	0.00000E+000	-4.99998E-002	0.00000E+000	9	...........	1426.31
	174	60.38	-5.00054E-002	-7.45966E-005	0.00000E+000	-4.99998E-002	0.00000E+000	9	...........	1426.31
	175	60.39	-5.00044E-002	-7.31701E-005	0.00000E+000	-4.99998E-002	0.00000E+000	9	...........	1426.31
	176	60.4	-5.00031E-002	-7.17959E-005	0.00000E+000	-4.99998E-002	0.00000E+000	9	...........	1426.31
	177	60.41	-5.00049E-002	-7.04812E-005	0.00000E+000	-4.99998E-002	0.00000E+000	9	...........	1426.31
	178	60.42	-5.00013E-002	-6.92533E-005	0.00000E+000	-4.99998E-002	0.00000E+000	9	...........	1426.31
	179	60.43	-5.00043E-002	-6.80470E-005	0.00000E+000	-4.99998E-002	0.00000E+000	9	...........	1426.31
	180	60.44	-5.00044E-002	-6.69131E-005	0.00000E+000	-4.99998E-002	0.00000E+000	9	...........	1426.31
	181	60.45	-5.00009E-002	-6.58122E-005	0.00000E+000	-4.99998E-002	0.00000E+000	9	...........	1426.31
	182	60.46	-5.00039E-002	-6.47762E-005	0.00000E+000	-4.99998E-002	0.00000E+000	9	...........	1426.31
	183	60.47	-5.00031E-002	-6.37671E-005	0.00000E+000	-4.99998E-002	0.00000E+000	9	...........	1426.31
	184	60.48	-5.00037E-002	-6.28094E-005	0.00000E+000	-4.99998E-002	0.00000E+000	9	...........	1426.31
	185	60.49	-5.00021E-002	-6.18707E-005	0.00000E+000	-4.99998E-002	0.00000E+000	9	...........	1426.31
	186	60.5	-5.00009E-002	-6.09939E-005	0.00000E+000	-4.99998E-002	0.00000E+000	9	...........	1426.31
	187	60.51	-5.00030E-002	-6.01539E-005	0.00000E+000	-4.99998E-002	0.00000E+000	9	...........	1426.31
	188	60.52	-5.00026E-002	-5.93458E-005	0.00000E+000	-4.99998E-002	0.00000E+000	9	...........	1426.31
	189	60.53	-5.00024E-002	-5.85653E-005	0.00000E+000	-4.99998E-002	0.00000E+000	9	...........	1426.31
	190	60.54	-5.00042E-002	-5.78170E-005	0.00000E+000	-4.99998E-002	0.00000E+000	9	...........	1426.31
	191	60.55	-5.00017E-002	-5.70985E-005	0.00000E+000	-4.99998E-002	0.00000E+000	9	...........	1426.31
	192	60.56	-5.00015E-002	-5.64217E-005	0.00000E+000	-4.99998E-002	0.00000E+000	9	...........	1426.31
	193	60.57	-5.00010E-002	-5.57616E-005	0.00000E+000	-4.99998E-002	0.00000E+000	9	...........	1426.31
	194	60.58	-5.00024E-002	-5.51226E-005	0.00000E+000	-4.99998E-002	0.00000E+000	9	...........	1426.31
	195	60.59	-5.00029E-002	-5.45050E-005	0.00000E+000	-4.99998E-002	0.00000E+000	9	...........	1426.31
	196	60.6	-5.00066E-002	-5.39450E-005	0.00000E+000	-4.99998E-002	0.00000E+000	9	...........	1426.31
	197	60.61	-5.00072E-002	-5.33702E-005	0.00000E+000	-4.99998E-002	0.00000E+000	9	...........	1426.31
	198	60.71	-5.00053E-002	-4.87783E-005	0.00000E+000	-4.99998E-002	0.00000E+000	9	...........	1426.31
	199	60.81	-5.00018E-002	-4.55549E-005	0.00000E+000	-4.99998E-002	0.00000E+000	9	...........	1426.31
	200	60.91	-5.00010E-002	-4.32706E-005	0.00000E+000	-4.99998E-002	0.00000E+000	9	...........	1426.31
	201	61	-5.00024E-002	-4.17235E-005	0.00000E+000	-4.99998E-002	0.00000E+000	9	...........	1426.31
