EXPLAIN
TAG	CHRONOA
TITLE	LABEL	Chronoamperometry Scan	Test Identifier
DATE	LABEL	13/7/2022	Date
TIME	LABEL	12:35:19	Time
NOTES	NOTES	1	Notes...
	
PSTAT	PSTAT	IFC1010-21051	Potentiostat
VPRESTEP	POTEN	-3.50000E-001	F	Pre-step Voltage (V)
TPRESTEP	QUANT	5.00000E-001	Pre-step Delay Time (s)
VSTEP1	POTEN	-4.00000E-001	F	Step 1 Voltage (V)
TSTEP1	QUANT	3.00000E+002	Step 1 Time (s)
VSTEP2	POTEN	-4.50000E-001	F	Step 2 Voltage (V)
TSTEP2	QUANT	1.00000E+000	Step 2 Time (s)
SAMPLETIME	QUANT	1.00000E-001	Sample Period (s)
DECIMATE	TOGGLE	T	Decimate
ILIMIT	QUANT	1.00000E+000	Limit I (mA/cm^2)
IMODE	SELECTOR	1	I/E Range Mode
IRANGE	QUANT	3.00000E-001	Max Current (mA)
EQDELAY	QUANT	5.00000E+000	Equil. Time (s)
SAMPLINGMODE	SELECTOR	1	Sampling Mode
AREA	QUANT	1.00000E+000	Sample Area (cm^2)
IRCOMP	SELECTOR	0	IRComp
PFCOR	QUANT	5.00000E+001	PF Corr. (ohm)
SEQUENCER	TOGGLE	TRUE	Run as Sequence
PSTATMODEL	IQUANT	64	Pstat Model
PSTATSECTION	LABEL	IFC1010-21051	Pstat Section
PSTATSERIALNO	LABEL	21051	Pstat Serial Number
CTRLMODE	IQUANT	1	Control Mode
ELECTROMETER	IQUANT	0	RE=0 or CS=1
IESTAB	IQUANT	0	I/E Stability
CASPEED	IQUANT	4	Control Amp Speed
CONVENTION	IQUANT	1	Current Convention
ICHRANGE	IQUANT	2	Ich Range
ICHRANGEMODE	TOGGLE	T	Ich Auto Range
ICHOFFSETENABLE	TOGGLE	F	Ich Offset Enable
ICHOFFSET	QUANT	0	Ich Offset (V)
ICHFILTER	IQUANT	3	Ich Filter
VCHRANGE	IQUANT	3	Vch Range
VCHRANGEMODE	TOGGLE	T	Vch Auto Range
VCHOFFSETENABLE	TOGGLE	F	Vch Offset Enable
VCHOFFSET	QUANT	0	Vch Offset (V)
VCHFILTER	IQUANT	3	Vch Filter
IERANGELOWERLIMIT	IQUANT	4	I/E Range Lower Limit
IERANGEMODE	TOGGLE	F	I/E AutoRange
IERANGE	IQUANT	9	I/E Range
ACHSELECT	IQUANT	0	Ach Select
ACHRANGE	IQUANT	2	Ach Range
ACHOFFSETENABLE	TOGGLE	F	Ach Offset Enable
ACHOFFSET	QUANT	0	Ach Offset (V)
ACHFILTER	IQUANT	1	Ach Filter
SENSECABLEID	IQUANT	14	Sense Cable ID
PWRCABLEID	IQUANT	14	Power Cable ID
DCCALDATE	LABEL	7/12/2022	DC Calibration Date
ACCALDATE	LABEL	4/2/2018	AC Calibration Date
FRAMEWORKVERSION	QUANT	7.06	Framework Version
INSTRUMENTVERSION	LABEL	4.30	Instrument Version
CURVE	TABLE	98
	Pt	T	Vf	Im	Vu	Sig	Ach	IERange	Over	Temp
	#	s	V vs. Ref.	A	V	V	V	#	bits	deg C
	0	-0.4	-3.50326E-001	-1.11900E-004	0.00000E+000	-3.50011E-001	0.00000E+000	9	...........	1425.95
	1	-0.3	-3.50482E-001	-1.11495E-004	0.00000E+000	-3.50011E-001	0.00000E+000	9	...........	1425.95
	2	-0.2	-3.50486E-001	-1.11058E-004	0.00000E+000	-3.50011E-001	0.00000E+000	9	...........	1425.95
	3	-0.1	-3.50481E-001	-1.10636E-004	0.00000E+000	-3.50011E-001	0.00000E+000	9	...........	1425.95
	4	0	-3.50482E-001	-1.10213E-004	0.00000E+000	-3.50011E-001	0.00000E+000	9	...........	1425.95
	5	0.1	-4.00496E-001	-2.92307E-004	0.00000E+000	-4.00011E-001	0.00000E+000	9	...........	1425.95
	6	0.2	-4.00505E-001	-2.53603E-004	0.00000E+000	-4.00011E-001	0.00000E+000	9	...........	1425.95
	7	0.3	-4.00487E-001	-2.29368E-004	0.00000E+000	-4.00011E-001	0.00000E+000	9	...........	1425.95
	8	0.4	-4.00493E-001	-2.13235E-004	0.00000E+000	-4.00011E-001	0.00000E+000	9	...........	1425.95
	9	0.5	-4.00503E-001	-2.01984E-004	0.00000E+000	-4.00011E-001	0.00000E+000	9	...........	1425.95
	10	0.6	-4.00508E-001	-1.93740E-004	0.00000E+000	-4.00011E-001	0.00000E+000	9	...........	1425.95
	11	0.7	-4.00497E-001	-1.87532E-004	0.00000E+000	-4.00011E-001	0.00000E+000	9	...........	1425.95
	12	0.8	-4.00478E-001	-1.82603E-004	0.00000E+000	-4.00011E-001	0.00000E+000	9	...........	1425.95
	13	0.9	-4.00487E-001	-1.78634E-004	0.00000E+000	-4.00011E-001	0.00000E+000	9	...........	1425.95
	14	1	-4.00504E-001	-1.75329E-004	0.00000E+000	-4.00011E-001	0.00000E+000	9	...........	1425.92
	15	1.1	-4.00512E-001	-1.72510E-004	0.00000E+000	-4.00011E-001	0.00000E+000	9	...........	1425.60
	16	1.2	-4.00507E-001	-1.70068E-004	0.00000E+000	-4.00011E-001	0.00000E+000	9	...........	1425.60
	17	1.3	-4.00508E-001	-1.67893E-004	0.00000E+000	-4.00011E-001	0.00000E+000	9	...........	1425.60
	18	1.4	-4.00502E-001	-1.65950E-004	0.00000E+000	-4.00011E-001	0.00000E+000	9	...........	1425.60
	19	1.5	-4.00493E-001	-1.64174E-004	0.00000E+000	-4.00011E-001	0.00000E+000	9	...........	1425.60
	20	1.6	-4.00490E-001	-1.62556E-004	0.00000E+000	-4.00011E-001	0.00000E+000	9	...........	1425.60
	21	1.7	-4.00491E-001	-1.61038E-004	0.00000E+000	-4.00011E-001	0.00000E+000	9	...........	1425.60
	22	1.8	-4.00504E-001	-1.59640E-004	0.00000E+000	-4.00011E-001	0.00000E+000	9	...........	1425.60
	23	1.9	-4.00498E-001	-1.58330E-004	0.00000E+000	-4.00011E-001	0.00000E+000	9	...........	1425.60
	24	2	-4.00492E-001	-1.57094E-004	0.00000E+000	-4.00011E-001	0.00000E+000	9	...........	1425.59
	25	2.1	-4.00498E-001	-1.55948E-004	0.00000E+000	-4.00011E-001	0.00000E+000	9	...........	1425.51
	26	2.2	-4.00487E-001	-1.54831E-004	0.00000E+000	-4.00011E-001	0.00000E+000	9	...........	1425.51
	27	2.3	-4.00496E-001	-1.53792E-004	0.00000E+000	-4.00011E-001	0.00000E+000	9	...........	1425.51
	28	2.4	-4.00496E-001	-1.52762E-004	0.00000E+000	-4.00011E-001	0.00000E+000	9	...........	1425.51
	29	2.5	-4.00499E-001	-1.51774E-004	0.00000E+000	-4.00011E-001	0.00000E+000	9	...........	1425.51
	30	2.6	-4.00502E-001	-1.50875E-004	0.00000E+000	-4.00011E-001	0.00000E+000	9	...........	1425.51
	31	2.7	-4.00493E-001	-1.49967E-004	0.00000E+000	-4.00011E-001	0.00000E+000	9	...........	1425.51
	32	2.8	-4.00498E-001	-1.49114E-004	0.00000E+000	-4.00011E-001	0.00000E+000	9	...........	1425.51
	33	2.9	-4.00499E-001	-1.48282E-004	0.00000E+000	-4.00011E-001	0.00000E+000	9	...........	1425.51
	34	3	-4.00491E-001	-1.47436E-004	0.00000E+000	-4.00011E-001	0.00000E+000	9	...........	1425.51
	35	3.1	-4.00496E-001	-1.46678E-004	0.00000E+000	-4.00011E-001	0.00000E+000	9	...........	1425.51
	36	3.2	-4.00490E-001	-1.45939E-004	0.00000E+000	-4.00011E-001	0.00000E+000	9	...........	1425.51
	37	3.3	-4.00481E-001	-1.45163E-004	0.00000E+000	-4.00011E-001	0.00000E+000	9	...........	1425.51
	38	3.4	-4.00508E-001	-1.44479E-004	0.00000E+000	-4.00011E-001	0.00000E+000	9	...........	1425.51
	39	3.5	-4.00508E-001	-1.43767E-004	0.00000E+000	-4.00011E-001	0.00000E+000	9	...........	1425.51
	40	3.6	-4.00508E-001	-1.43060E-004	0.00000E+000	-4.00011E-001	0.00000E+000	9	...........	1425.51
	41	3.7	-4.00505E-001	-1.42427E-004	0.00000E+000	-4.00011E-001	0.00000E+000	9	...........	1425.51
	42	3.8	-4.00483E-001	-1.41769E-004	0.00000E+000	-4.00011E-001	0.00000E+000	9	...........	1425.51
	43	3.9	-4.00495E-001	-1.41170E-004	0.00000E+000	-4.00011E-001	0.00000E+000	9	...........	1425.51
	44	4	-4.00487E-001	-1.40542E-004	0.00000E+000	-4.00011E-001	0.00000E+000	9	...........	1425.51
	45	4.1	-4.00493E-001	-1.39952E-004	0.00000E+000	-4.00011E-001	0.00000E+000	9	...........	1425.51
	46	4.2	-4.00504E-001	-1.39357E-004	0.00000E+000	-4.00011E-001	0.00000E+000	9	...........	1425.51
	47	4.3	-4.00507E-001	-1.38767E-004	0.00000E+000	-4.00011E-001	0.00000E+000	9	...........	1425.51
	48	4.4	-4.00493E-001	-1.38195E-004	0.00000E+000	-4.00011E-001	0.00000E+000	9	...........	1425.51
	49	4.5	-4.00507E-001	-1.37696E-004	0.00000E+000	-4.00011E-001	0.00000E+000	9	...........	1425.51
	50	4.6	-4.00499E-001	-1.37140E-004	0.00000E+000	-4.00011E-001	0.00000E+000	9	...........	1425.51
	51	4.7	-4.00499E-001	-1.36627E-004	0.00000E+000	-4.00011E-001	0.00000E+000	9	...........	1425.51
	52	4.8	-4.00491E-001	-1.36093E-004	0.00000E+000	-4.00011E-001	0.00000E+000	9	...........	1425.51
	53	4.9	-4.00501E-001	-1.35589E-004	0.00000E+000	-4.00011E-001	0.00000E+000	9	...........	1425.51
	54	5	-4.00494E-001	-1.35065E-004	0.00000E+000	-4.00011E-001	0.00000E+000	9	...........	1425.54
	55	5.1	-4.00494E-001	-1.34576E-004	0.00000E+000	-4.00011E-001	0.00000E+000	9	...........	1425.87
	56	5.2	-4.00502E-001	-1.34119E-004	0.00000E+000	-4.00011E-001	0.00000E+000	9	...........	1425.87
	57	5.3	-4.00510E-001	-1.33642E-004	0.00000E+000	-4.00011E-001	0.00000E+000	9	...........	1425.87
	58	5.4	-4.00506E-001	-1.33171E-004	0.00000E+000	-4.00011E-001	0.00000E+000	9	...........	1425.87
	59	5.5	-4.00505E-001	-1.32719E-004	0.00000E+000	-4.00011E-001	0.00000E+000	9	...........	1425.87
	60	5.6	-4.00507E-001	-1.32272E-004	0.00000E+000	-4.00011E-001	0.00000E+000	9	...........	1425.87
	61	5.7	-4.00505E-001	-1.31818E-004	0.00000E+000	-4.00011E-001	0.00000E+000	9	...........	1425.87
	62	5.8	-4.00498E-001	-1.31358E-004	0.00000E+000	-4.00011E-001	0.00000E+000	9	...........	1425.87
	63	5.9	-4.00504E-001	-1.30972E-004	0.00000E+000	-4.00011E-001	0.00000E+000	9	...........	1425.87
	64	6	-4.00492E-001	-1.30560E-004	0.00000E+000	-4.00011E-001	0.00000E+000	9	...........	1425.83
	65	6.1	-4.00500E-001	-1.30105E-004	0.00000E+000	-4.00011E-001	0.00000E+000	9	...........	1425.51
	66	7.1	-4.00489E-001	-1.26331E-004	0.00000E+000	-4.00011E-001	0.00000E+000	9	...........	1425.60
	67	8.1	-4.00496E-001	-1.22995E-004	0.00000E+000	-4.00011E-001	0.00000E+000	9	...........	1425.95
	68	9.1	-4.00508E-001	-1.20076E-004	0.00000E+000	-4.00011E-001	0.00000E+000	9	...........	1425.95
	69	10.1	-4.00506E-001	-1.17461E-004	0.00000E+000	-4.00011E-001	0.00000E+000	9	...........	1425.95
	70	11.1	-4.00498E-001	-1.15073E-004	0.00000E+000	-4.00011E-001	0.00000E+000	9	...........	1425.95
	71	12.1	-4.00507E-001	-1.12918E-004	0.00000E+000	-4.00011E-001	0.00000E+000	9	...........	1425.95
	72	13.1	-4.00493E-001	-1.10932E-004	0.00000E+000	-4.00011E-001	0.00000E+000	9	...........	1426.04
	73	14.1	-4.00494E-001	-1.09093E-004	0.00000E+000	-4.00011E-001	0.00000E+000	9	...........	1425.95
	74	15.1	-4.00486E-001	-1.07379E-004	0.00000E+000	-4.00011E-001	0.00000E+000	9	...........	1425.95
	75	16.1	-4.00494E-001	-1.05836E-004	0.00000E+000	-4.00011E-001	0.00000E+000	9	...........	1425.95
	76	26.1	-4.00498E-001	-9.45361E-005	0.00000E+000	-4.00011E-001	0.00000E+000	9	...........	1425.95
	77	36.1	-4.00510E-001	-8.75236E-005	0.00000E+000	-4.00011E-001	0.00000E+000	9	...........	1426.04
	78	46.1	-4.00510E-001	-8.26589E-005	0.00000E+000	-4.00011E-001	0.00000E+000	9	...........	1426.04
	79	56.1	-4.00501E-001	-7.90050E-005	0.00000E+000	-4.00011E-001	0.00000E+000	9	...........	1426.04
	80	66.1	-4.00495E-001	-7.61307E-005	0.00000E+000	-4.00011E-001	0.00000E+000	9	...........	1426.04
	81	76.1	-4.00495E-001	-7.38713E-005	0.00000E+000	-4.00011E-001	0.00000E+000	9	...........	1426.04
	82	86.1	-4.00507E-001	-7.19165E-005	0.00000E+000	-4.00011E-001	0.00000E+000	9	...........	1426.04
	83	96.1	-4.00500E-001	-7.03396E-005	0.00000E+000	-4.00011E-001	0.00000E+000	9	...........	1426.04
	84	106.1	-4.00492E-001	-6.89252E-005	0.00000E+000	-4.00011E-001	0.00000E+000	9	...........	1426.04
	85	116.1	-4.00511E-001	-6.77223E-005	0.00000E+000	-4.00011E-001	0.00000E+000	9	...........	1426.04
	86	216.1	-4.00503E-001	-5.99868E-005	0.00000E+000	-4.00011E-001	0.00000E+000	9	...........	1426.13
	87	300	-4.00495E-001	-5.62268E-005	0.00000E+000	-4.00011E-001	0.00000E+000	9	...........	1426.13
	88	300.1	-4.50507E-001	-2.22433E-004	0.00000E+000	-4.50011E-001	0.00000E+000	9	...........	1426.13
	89	300.2	-4.50521E-001	-1.75550E-004	0.00000E+000	-4.50011E-001	0.00000E+000	9	...........	1426.13
	90	300.3	-4.50514E-001	-1.46611E-004	0.00000E+000	-4.50011E-001	0.00000E+000	9	...........	1426.13
	91	300.4	-4.50508E-001	-1.27958E-004	0.00000E+000	-4.50011E-001	0.00000E+000	9	...........	1426.13
	92	300.5	-4.50508E-001	-1.15516E-004	0.00000E+000	-4.50011E-001	0.00000E+000	9	...........	1426.13
	93	300.6	-4.50500E-001	-1.06972E-004	0.00000E+000	-4.50011E-001	0.00000E+000	9	...........	1426.13
	94	300.7	-4.50515E-001	-1.00980E-004	0.00000E+000	-4.50011E-001	0.00000E+000	9	...........	1426.13
	95	300.8	-4.50511E-001	-9.66377E-005	0.00000E+000	-4.50011E-001	0.00000E+000	9	...........	1426.13
	96	300.9	-4.50503E-001	-9.33823E-005	0.00000E+000	-4.50011E-001	0.00000E+000	9	...........	1426.13
	97	301	-4.50502E-001	-9.08920E-005	0.00000E+000	-4.50011E-001	0.00000E+000	9	...........	1426.10
