EXPLAIN
TAG	CHRONOA
TITLE	LABEL	Chronoamperometry Scan	Test Identifier
DATE	LABEL	18/7/2022	Date
TIME	LABEL	11:50:06	Time
NOTES	NOTES	1	Notes...
	
PSTAT	PSTAT	IFC1010-21051	Potentiostat
VPRESTEP	POTEN	5.00000E-002	F	Pre-step Voltage (V)
TPRESTEP	QUANT	5.00000E-001	Pre-step Delay Time (s)
VSTEP1	POTEN	0.00000E+000	F	Step 1 Voltage (V)
TSTEP1	QUANT	3.00000E+002	Step 1 Time (s)
VSTEP2	POTEN	-5.00000E-002	F	Step 2 Voltage (V)
TSTEP2	QUANT	1.00000E+000	Step 2 Time (s)
SAMPLETIME	QUANT	1.00000E-001	Sample Period (s)
DECIMATE	TOGGLE	T	Decimate
ILIMIT	QUANT	1.00000E+000	Limit I (mA/cm^2)
IMODE	SELECTOR	1	I/E Range Mode
IRANGE	QUANT	3.00000E-001	Max Current (mA)
EQDELAY	QUANT	5.00000E+000	Equil. Time (s)
SAMPLINGMODE	SELECTOR	1	Sampling Mode
AREA	QUANT	1.00000E+000	Sample Area (cm^2)
IRCOMP	SELECTOR	0	IRComp
PFCOR	QUANT	5.00000E+001	PF Corr. (ohm)
SEQUENCER	TOGGLE	TRUE	Run as Sequence
PSTATMODEL	IQUANT	64	Pstat Model
PSTATSECTION	LABEL	IFC1010-21051	Pstat Section
PSTATSERIALNO	LABEL	21051	Pstat Serial Number
CTRLMODE	IQUANT	1	Control Mode
ELECTROMETER	IQUANT	0	RE=0 or CS=1
IESTAB	IQUANT	0	I/E Stability
CASPEED	IQUANT	4	Control Amp Speed
CONVENTION	IQUANT	1	Current Convention
ICHRANGE	IQUANT	2	Ich Range
ICHRANGEMODE	TOGGLE	T	Ich Auto Range
ICHOFFSETENABLE	TOGGLE	F	Ich Offset Enable
ICHOFFSET	QUANT	0	Ich Offset (V)
ICHFILTER	IQUANT	3	Ich Filter
VCHRANGE	IQUANT	3	Vch Range
VCHRANGEMODE	TOGGLE	T	Vch Auto Range
VCHOFFSETENABLE	TOGGLE	F	Vch Offset Enable
VCHOFFSET	QUANT	0	Vch Offset (V)
VCHFILTER	IQUANT	3	Vch Filter
IERANGELOWERLIMIT	IQUANT	4	I/E Range Lower Limit
IERANGEMODE	TOGGLE	F	I/E AutoRange
IERANGE	IQUANT	9	I/E Range
ACHSELECT	IQUANT	0	Ach Select
ACHRANGE	IQUANT	2	Ach Range
ACHOFFSETENABLE	TOGGLE	F	Ach Offset Enable
ACHOFFSET	QUANT	0	Ach Offset (V)
ACHFILTER	IQUANT	1	Ach Filter
SENSECABLEID	IQUANT	14	Sense Cable ID
PWRCABLEID	IQUANT	14	Power Cable ID
DCCALDATE	LABEL	7/12/2022	DC Calibration Date
ACCALDATE	LABEL	4/2/2018	AC Calibration Date
FRAMEWORKVERSION	QUANT	7.06	Framework Version
INSTRUMENTVERSION	LABEL	4.30	Instrument Version
CURVE	TABLE	98
	Pt	T	Vf	Im	Vu	Sig	Ach	IERange	Over	Temp
	#	s	V vs. Ref.	A	V	V	V	#	bits	deg C
	0	-0.4	4.99844E-002	-1.23155E-005	0.00000E+000	4.99998E-002	0.00000E+000	9	...........	1425.69
	1	-0.3	5.00096E-002	-1.22286E-005	0.00000E+000	4.99998E-002	0.00000E+000	9	...........	1425.69
	2	-0.2	5.00327E-002	-1.21458E-005	0.00000E+000	4.99998E-002	0.00000E+000	9	...........	1425.69
	3	-0.1	5.00312E-002	-1.20599E-005	0.00000E+000	4.99998E-002	0.00000E+000	9	...........	1425.69
	4	0	5.00333E-002	-1.19683E-005	0.00000E+000	4.99998E-002	0.00000E+000	9	...........	1425.69
	5	0.1	1.47707E-005	-1.50755E-004	0.00000E+000	0.00000E+000	0.00000E+000	9	...........	1425.69
	6	0.2	1.44984E-005	-9.72288E-005	0.00000E+000	0.00000E+000	0.00000E+000	9	...........	1425.69
	7	0.3	1.46186E-005	-7.13676E-005	0.00000E+000	0.00000E+000	0.00000E+000	9	...........	1425.69
	8	0.4	1.53405E-005	-5.73960E-005	0.00000E+000	0.00000E+000	0.00000E+000	9	...........	1425.69
	9	0.5	1.38206E-005	-4.92277E-005	0.00000E+000	0.00000E+000	0.00000E+000	9	...........	1425.69
	10	0.6	1.41971E-005	-4.41272E-005	0.00000E+000	0.00000E+000	0.00000E+000	9	...........	1425.69
	11	0.7	1.36954E-005	-4.07463E-005	0.00000E+000	0.00000E+000	0.00000E+000	9	...........	1425.69
	12	0.8	1.43953E-005	-3.83757E-005	0.00000E+000	0.00000E+000	0.00000E+000	9	...........	1425.69
	13	0.9	1.36404E-005	-3.66434E-005	0.00000E+000	0.00000E+000	0.00000E+000	9	...........	1425.95
	14	1	1.36113E-005	-3.52978E-005	0.00000E+000	0.00000E+000	0.00000E+000	9	...........	1425.95
	15	1.1	1.43412E-005	-3.42270E-005	0.00000E+000	0.00000E+000	0.00000E+000	9	...........	1425.95
	16	1.2	1.40038E-005	-3.33601E-005	0.00000E+000	0.00000E+000	0.00000E+000	9	...........	1425.95
	17	1.3	1.39778E-005	-3.26200E-005	0.00000E+000	0.00000E+000	0.00000E+000	9	...........	1425.95
	18	1.4	1.44394E-005	-3.19910E-005	0.00000E+000	0.00000E+000	0.00000E+000	9	...........	1425.95
	19	1.5	1.50201E-005	-3.14416E-005	0.00000E+000	0.00000E+000	0.00000E+000	9	...........	1425.95
	20	1.6	1.39738E-005	-3.09351E-005	0.00000E+000	0.00000E+000	0.00000E+000	9	...........	1425.95
	21	1.7	1.48719E-005	-3.04829E-005	0.00000E+000	0.00000E+000	0.00000E+000	9	...........	1425.95
	22	1.8	1.36123E-005	-3.00638E-005	0.00000E+000	0.00000E+000	0.00000E+000	9	...........	1425.95
	23	1.9	1.36684E-005	-2.96792E-005	0.00000E+000	0.00000E+000	0.00000E+000	9	...........	1426.13
	24	2	1.49430E-005	-2.93267E-005	0.00000E+000	0.00000E+000	0.00000E+000	9	...........	1426.13
	25	2.1	1.34952E-005	-2.90055E-005	0.00000E+000	0.00000E+000	0.00000E+000	9	...........	1426.13
	26	2.2	1.42281E-005	-2.86921E-005	0.00000E+000	0.00000E+000	0.00000E+000	9	...........	1426.13
	27	2.3	1.38176E-005	-2.83910E-005	0.00000E+000	0.00000E+000	0.00000E+000	9	...........	1426.13
	28	2.4	1.38677E-005	-2.81061E-005	0.00000E+000	0.00000E+000	0.00000E+000	9	...........	1426.13
	29	2.5	1.39458E-005	-2.78265E-005	0.00000E+000	0.00000E+000	0.00000E+000	9	...........	1426.13
	30	2.6	1.47838E-005	-2.75696E-005	0.00000E+000	0.00000E+000	0.00000E+000	9	...........	1426.13
	31	2.7	1.44394E-005	-2.73292E-005	0.00000E+000	0.00000E+000	0.00000E+000	9	...........	1426.13
	32	2.8	1.46827E-005	-2.70874E-005	0.00000E+000	0.00000E+000	0.00000E+000	9	...........	1426.13
	33	2.9	1.41049E-005	-2.68589E-005	0.00000E+000	0.00000E+000	0.00000E+000	9	...........	1426.04
	34	3	1.35653E-005	-2.66421E-005	0.00000E+000	0.00000E+000	0.00000E+000	9	...........	1426.04
	35	3.1	1.41340E-005	-2.64284E-005	0.00000E+000	0.00000E+000	0.00000E+000	9	...........	1426.04
	36	3.2	1.37956E-005	-2.62197E-005	0.00000E+000	0.00000E+000	0.00000E+000	9	...........	1426.04
	37	3.3	1.35503E-005	-2.60055E-005	0.00000E+000	0.00000E+000	0.00000E+000	9	...........	1426.04
	38	3.4	1.44614E-005	-2.58047E-005	0.00000E+000	0.00000E+000	0.00000E+000	9	...........	1426.04
	39	3.5	1.37836E-005	-2.56201E-005	0.00000E+000	0.00000E+000	0.00000E+000	9	...........	1426.04
	40	3.6	1.27723E-005	-2.54386E-005	0.00000E+000	0.00000E+000	0.00000E+000	9	...........	1426.04
	41	3.7	1.39808E-005	-2.52548E-005	0.00000E+000	0.00000E+000	0.00000E+000	9	...........	1426.04
	42	3.8	1.42141E-005	-2.50956E-005	0.00000E+000	0.00000E+000	0.00000E+000	9	...........	1426.04
	43	3.9	1.35052E-005	-2.49335E-005	0.00000E+000	0.00000E+000	0.00000E+000	9	...........	1426.04
	44	4	1.43042E-005	-2.47653E-005	0.00000E+000	0.00000E+000	0.00000E+000	9	...........	1426.04
	45	4.1	1.34772E-005	-2.46187E-005	0.00000E+000	0.00000E+000	0.00000E+000	9	...........	1426.04
	46	4.2	1.33050E-005	-2.44769E-005	0.00000E+000	0.00000E+000	0.00000E+000	9	...........	1426.04
	47	4.3	1.29726E-005	-2.43419E-005	0.00000E+000	0.00000E+000	0.00000E+000	9	...........	1426.04
	48	4.4	1.38857E-005	-2.41924E-005	0.00000E+000	0.00000E+000	0.00000E+000	9	...........	1426.04
	49	4.5	1.45175E-005	-2.40669E-005	0.00000E+000	0.00000E+000	0.00000E+000	9	...........	1426.04
	50	4.6	1.54466E-005	-2.39363E-005	0.00000E+000	0.00000E+000	0.00000E+000	9	...........	1426.04
	51	4.7	1.42381E-005	-2.38086E-005	0.00000E+000	0.00000E+000	0.00000E+000	9	...........	1426.04
	52	4.8	1.43673E-005	-2.36881E-005	0.00000E+000	0.00000E+000	0.00000E+000	9	...........	1426.04
	53	4.9	1.46736E-005	-2.35526E-005	0.00000E+000	0.00000E+000	0.00000E+000	9	...........	1426.04
	54	5	1.40999E-005	-2.34293E-005	0.00000E+000	0.00000E+000	0.00000E+000	9	...........	1426.04
	55	5.1	1.46096E-005	-2.33151E-005	0.00000E+000	0.00000E+000	0.00000E+000	9	...........	1426.04
	56	5.2	1.53265E-005	-2.31985E-005	0.00000E+000	0.00000E+000	0.00000E+000	9	...........	1426.04
	57	5.3	1.31918E-005	-2.30816E-005	0.00000E+000	0.00000E+000	0.00000E+000	9	...........	1426.04
	58	5.4	1.47648E-005	-2.29644E-005	0.00000E+000	0.00000E+000	0.00000E+000	9	...........	1426.04
	59	5.5	1.47477E-005	-2.28638E-005	0.00000E+000	0.00000E+000	0.00000E+000	9	...........	1426.04
	60	5.6	1.46656E-005	-2.27553E-005	0.00000E+000	0.00000E+000	0.00000E+000	9	...........	1426.04
	61	5.7	1.35032E-005	-2.26564E-005	0.00000E+000	0.00000E+000	0.00000E+000	9	...........	1426.04
	62	5.8	1.27353E-005	-2.25551E-005	0.00000E+000	0.00000E+000	0.00000E+000	9	...........	1426.04
	63	5.9	1.48228E-005	-2.24548E-005	0.00000E+000	0.00000E+000	0.00000E+000	9	...........	1425.69
	64	6	1.50581E-005	-2.23585E-005	0.00000E+000	0.00000E+000	0.00000E+000	9	...........	1425.69
	65	6.1	1.36674E-005	-2.22703E-005	0.00000E+000	0.00000E+000	0.00000E+000	9	...........	1425.69
	66	7.1	1.31408E-005	-2.14813E-005	0.00000E+000	0.00000E+000	0.00000E+000	9	...........	1426.04
	67	8.1	1.37595E-005	-2.07994E-005	0.00000E+000	0.00000E+000	0.00000E+000	9	...........	1426.04
	68	9.1	1.28023E-005	-2.02585E-005	0.00000E+000	0.00000E+000	0.00000E+000	9	...........	1426.04
	69	10.1	1.49920E-005	-1.97703E-005	0.00000E+000	0.00000E+000	0.00000E+000	9	...........	1426.13
	70	11.1	1.46286E-005	-1.93483E-005	0.00000E+000	0.00000E+000	0.00000E+000	9	...........	1426.13
	71	12.1	1.49840E-005	-1.89861E-005	0.00000E+000	0.00000E+000	0.00000E+000	9	...........	1426.13
	72	13.1	1.39007E-005	-1.86517E-005	0.00000E+000	0.00000E+000	0.00000E+000	9	...........	1426.13
	73	14.1	1.52103E-005	-1.83336E-005	0.00000E+000	0.00000E+000	0.00000E+000	9	...........	1426.13
	74	15.1	1.40499E-005	-1.80653E-005	0.00000E+000	0.00000E+000	0.00000E+000	9	...........	1426.13
	75	16.1	1.48088E-005	-1.78275E-005	0.00000E+000	0.00000E+000	0.00000E+000	9	...........	1426.13
	76	26.1	1.40329E-005	-1.61834E-005	0.00000E+000	0.00000E+000	0.00000E+000	9	...........	1426.04
	77	36.1	1.29635E-005	-1.53219E-005	0.00000E+000	0.00000E+000	0.00000E+000	9	...........	1426.04
	78	46.1	1.51402E-005	-1.47472E-005	0.00000E+000	0.00000E+000	0.00000E+000	9	...........	1426.04
	79	56.1	1.42992E-005	-1.43935E-005	0.00000E+000	0.00000E+000	0.00000E+000	9	...........	1426.04
	80	66.1	1.40439E-005	-1.41271E-005	0.00000E+000	0.00000E+000	0.00000E+000	9	...........	1426.04
	81	76.1	1.38566E-005	-1.39619E-005	0.00000E+000	0.00000E+000	0.00000E+000	9	...........	1426.13
	82	86.1	1.55087E-005	-1.38228E-005	0.00000E+000	0.00000E+000	0.00000E+000	9	...........	1426.04
	83	96.1	1.38657E-005	-1.37066E-005	0.00000E+000	0.00000E+000	0.00000E+000	9	...........	1426.04
	84	106.1	1.33180E-005	-1.36059E-005	0.00000E+000	0.00000E+000	0.00000E+000	9	...........	1426.04
	85	116.1	1.35483E-005	-1.35174E-005	0.00000E+000	0.00000E+000	0.00000E+000	9	...........	1426.04
	86	216.1	1.32479E-005	-1.24402E-005	0.00000E+000	0.00000E+000	0.00000E+000	9	...........	1426.04
	87	300	1.20004E-005	-1.15317E-005	0.00000E+000	0.00000E+000	0.00000E+000	9	...........	1426.13
	88	300.1	-3.28713E-002	-1.51811E-004	0.00000E+000	-4.99998E-002	0.00000E+000	9	.........v.	1426.13
	89	300.2	-5.00003E-002	-9.72332E-005	0.00000E+000	-4.99998E-002	0.00000E+000	9	...........	1426.13
	90	300.3	-4.99995E-002	-7.08280E-005	0.00000E+000	-4.99998E-002	0.00000E+000	9	...........	1426.13
	91	300.4	-4.99989E-002	-5.68031E-005	0.00000E+000	-4.99998E-002	0.00000E+000	9	...........	1426.13
	92	300.5	-4.99993E-002	-4.88251E-005	0.00000E+000	-4.99998E-002	0.00000E+000	9	...........	1426.13
	93	300.6	-4.99998E-002	-4.39815E-005	0.00000E+000	-4.99998E-002	0.00000E+000	9	...........	1426.13
	94	300.7	-4.99994E-002	-4.08708E-005	0.00000E+000	-4.99998E-002	0.00000E+000	9	...........	1426.13
	95	300.8	-4.99995E-002	-3.87556E-005	0.00000E+000	-4.99998E-002	0.00000E+000	9	...........	1426.13
	96	300.9	-4.99999E-002	-3.72528E-005	0.00000E+000	-4.99998E-002	0.00000E+000	9	...........	1426.13
	97	301	-4.99989E-002	-3.61271E-005	0.00000E+000	-4.99998E-002	0.00000E+000	9	...........	1426.13
