Data from AgNPs_FTO_APTES_UA_0um_CRN_0.1mM_R6G_10uM_NaF_0.1M_Addition_RamanShift__24__10-39-18-920.txt Node

Date: Tue Dec 21 10:39:18 GMT 2021
User: TCL
Spectrometer: QEP01345
Trigger mode: 4
Integration Time (sec): 7.000000E0
Scans to average: 10
Electric dark correction enabled: true
Nonlinearity correction enabled: false
Boxcar width: 0
XAxis mode: Raman Shifts
Number of Pixels in Spectrum: 1044
>>>>>Begin Spectral Data<<<<<
46.04893	0.3625
50.45542	-1.5375
54.85868	-1.1375
59.25871	0.4625
63.6555	18.5625
68.04907	25.2625
72.43941	23.0625
76.82654	23.7625
81.21044	29.9625
85.59113	29.8625
89.96862	31.6625
94.34289	29.4625
98.71396	30.1625
103.08183	35.3625
107.4465	35.4625
111.80798	33.8625
116.16626	30.4625
120.52136	32.4625
124.87327	35.3625
129.222	30.3625
133.56755	33.6625
137.90993	36.0625
142.24913	32.7625
146.58517	40.0625
150.91804	42.3625
155.24774	47.5625
159.57429	57.9625
163.89768	68.0625
168.21792	83.8625
172.53501	103.6625
176.84895	140.1625
181.15975	190.5625
185.46741	263.4625
189.77193	359.0625
194.07331	478.6625
198.37157	629.8625
202.6667	784.8625
206.9587	940.8625
211.24758	1098.8625
215.53334	1255.5625
219.81599	1412.8625
224.09553	1578.3625
228.37195	1763.9625
232.64527	1954.5625
236.91549	2146.6625
241.18261	2331.5625
245.44663	2498.3625
249.70755	2668.5625
253.96539	2798.2625
258.22014	2881.8625
262.4718	2910.1625
266.72039	2893.4625
270.96589	2847.0625
275.20832	2753.2625
279.44768	2670.8625
283.68397	2580.4625
287.91719	2499.6625
292.14735	2465.8625
296.37445	2478.5625
300.59849	2531.3625
304.81948	2649.5625
309.03742	2719.6625
313.25231	2701.0625
317.46415	2619.4625
321.67296	2442.4625
325.87872	2276.5625
330.08145	2206.8625
334.28114	2196.4625
338.47781	2230.7625
342.67145	2295.6625
346.86207	2377.8625
351.04966	2501.8625
355.23424	2648.8625
359.4158	2783.6625
363.59435	2849.9625
367.76989	2877.4625
371.94243	2891.6625
376.11196	2879.0625
380.27849	2869.7625
384.44203	2821.8625
388.60257	2775.7625
392.76012	2743.1625
396.91468	2742.5625
401.06626	2788.7625
405.21485	2823.1625
409.36047	2788.7625
413.50311	2661.4625
417.64277	2534.8625
421.77947	2470.2625
425.9132	2434.5625
430.04396	2436.0625
434.17176	2474.2625
438.2966	2546.0625
442.41849	2624.1625
446.53742	2733.7625
450.6534	2812.2625
454.76644	2875.8625
458.87653	2853.2625
462.98368	2822.2625
467.08789	2748.4625
471.18916	2677.5625
475.2875	2591.0625
479.38291	2519.2625
483.4754	2455.3625
487.56496	2422.5625
491.6516	2399.8625
495.73531	2380.9625
499.81612	2385.4625
503.89401	2396.9625
507.96899	2435.3625
512.04106	2469.4625
516.11023	2521.3625
520.1765	2570.9625
524.23987	2566.8625
528.30034	2530.0625
532.35792	2485.5625
536.41261	2428.9625
540.46441	2384.2625
544.51333	2359.8625
548.55936	2362.3625
552.60252	2376.8625
556.64279	2423.7625
560.6802	2459.3625
564.71473	2496.5625
568.7464	2581.9625
572.7752	2645.2625
576.80114	2594.6625
580.82422	2478.2625
584.84444	2390.5625
588.86181	2388.0625
592.87633	2424.9625
596.888	2494.8625
600.89682	2593.2625
604.9028	2878.2625
608.90594	3591.7625
612.90624	4610.6625
616.90371	4603.0625
620.89834	3338.4625
624.89015	2641.7625
628.87913	2475.8625
632.86528	2448.4625
636.84862	2494.3625
640.82913	2510.6625
644.80683	2465.2625
648.78172	2414.2625
652.75379	2418.0625
656.72306	2499.5625
660.68952	2609.6625
664.65319	2569.6625
668.61405	2440.3625
672.57211	2398.0625
676.52738	2444.4625
680.47986	2507.7625
684.42955	2488.8625
688.37646	2470.6625
692.32058	2492.6625
696.26192	2546.6625
700.20048	2625.3625
704.13626	2661.0625
708.06928	2577.9625
711.99952	2467.5625
715.927	2389.2625
719.85171	2355.9625
723.77365	2359.4625
727.69284	2357.3625
731.60928	2347.4625
735.52295	2359.1625
739.43388	2372.9625
743.34206	2361.1625
747.24749	2345.6625
751.15017	2373.2625
755.05012	2396.3625
758.94733	2484.4625
762.8418	2653.7625
766.73354	2975.1625
770.62254	3365.0625
774.50882	3646.1625
778.39237	3620.3625
782.27321	3200.3625
786.15132	2737.6625
790.02671	2463.9625
793.89938	2354.0625
797.76935	2297.9625
801.6366	2291.9625
805.50115	2271.9625
809.36299	2261.6625
813.22213	2255.5625
817.07857	2237.9625
820.93231	2231.1625
824.78336	2228.7625
828.63172	2237.6625
832.47738	2232.8625
836.32036	2234.2625
840.16066	2227.1625
843.99827	2219.0625
847.8332	2247.2625
851.66546	2272.4625
855.49504	2336.3625
859.32195	2408.8625
863.1462	2434.8625
866.96777	2378.4625
870.78668	2325.7625
874.60293	2267.6625
878.41652	2232.7625
882.22745	2211.5625
886.03573	2203.3625
889.84136	2202.1625
893.64433	2184.7625
897.44466	2186.8625
901.24235	2175.9625
905.0374	2172.3625
908.8298	2165.9625
912.61957	2177.7625
916.40671	2220.9625
920.19121	2293.2625
923.97308	2379.1625
927.75233	2461.5625
931.52895	2529.0625
935.30295	2509.2625
939.07433	2399.2625
942.84309	2280.3625
946.60924	2174.0625
950.37278	2097.8625
954.13371	2044.5625
957.89203	2029.2625
961.64774	2001.8625
965.40086	1987.2625
969.15137	1979.5625
972.89929	1963.3625
976.64461	1954.4625
980.38733	1952.2625
984.12747	1954.5625
987.86502	1957.8625
991.59999	1948.1625
995.33237	1956.4625
999.06217	1979.4625
1002.78939	2004.4625
1006.51404	2029.8625
1010.23611	2052.9625
1013.95561	2089.8625
1017.67255	2090.7625
1021.38692	2066.1625
1025.09872	2050.2625
1028.80796	2042.1625
1032.51465	2047.5625
1036.21877	2091.7625
1039.92035	2142.7625
1043.61937	2171.0625
1047.31584	2180.4625
1051.00976	2165.4625
1054.70114	2136.2625
1058.38998	2084.4625
1062.07627	2060.8625
1065.76003	2035.2625
1069.44126	2018.8625
1073.11995	2014.1625
1076.79611	2054.6625
1080.46974	2108.3625
1084.14085	2163.2625
1087.80943	2202.6625
1091.47549	2220.1625
1095.13903	2169.3625
1098.80005	2099.2625
1102.45857	2038.3625
1106.11456	2016.2625
1109.76805	2043.5625
1113.41903	2099.5625
1117.06751	2187.2625
1120.71348	2293.2625
1124.35696	2402.3625
1127.99793	2508.8625
1131.63641	2513.3625
1135.2724	2389.1625
1138.90589	2254.6625
1142.5369	2154.7625
1146.16542	2101.6625
1149.79145	2074.4625
1153.415	2050.3625
1157.03607	2064.8625
1160.65467	2105.5625
1164.27079	2151.1625
1167.88443	2241.9625
1171.49561	2394.5625
1175.10432	2635.4625
1178.71056	3017.3625
1182.31434	3319.8625
1185.91565	3432.8625
1189.51451	3364.7625
1193.11091	3159.3625
1196.70485	2937.4625
1200.29634	2748.5625
1203.88538	2579.1625
1207.47197	2408.7625
1211.05612	2247.4625
1214.63782	2162.8625
1218.21708	2130.5625
1221.79391	2118.1625
1225.36829	2107.6625
1228.94024	2094.8625
1232.50976	2092.6625
1236.07685	2107.3625
1239.6415	2127.5625
1243.20374	2172.8625
1246.76355	2185.9625
1250.32093	2215.0625
1253.8759	2276.8625
1257.42845	2339.2625
1260.97859	2433.1625
1264.52631	2516.7625
1268.07163	2605.9625
1271.61453	2650.2625
1275.15503	2670.8625
1278.69312	2650.7625
1282.22882	2626.1625
1285.76211	2651.9625
1289.29301	2731.5625
1292.82151	2831.7625
1296.34761	2927.7625
1299.87133	3038.1625
1303.39266	3245.5625
1306.9116	3575.2625
1310.42815	3994.9625
1313.94233	4232.2625
1317.45412	4119.2625
1320.96354	3780.8625
1324.47058	3416.9625
1327.97525	3076.3625
1331.47754	2878.7625
1334.97747	2828.7625
1338.47502	2896.2625
1341.97022	3009.2625
1345.46305	3166.9625
1348.95352	3410.5625
1352.44163	3785.3625
1355.92738	4313.7625
1359.41078	5012.6625
1362.89183	5680.8625
1366.37053	5619.0625
1369.84688	4850.7625
1373.32088	3993.4625
1376.79254	3425.6625
1380.26186	3111.8625
1383.72883	2927.2625
1387.19347	2763.8625
1390.65578	2606.0625
1394.11575	2489.0625
1397.57339	2434.3625
1401.0287	2422.7625
1404.48168	2455.7625
1407.93234	2505.0625
1411.38068	2578.1625
1414.82669	2648.3625
1418.27039	2721.0625
1421.71177	2757.7625
1425.15083	2767.7625
1428.58758	2771.3625
1432.02203	2784.1625
1435.45416	2777.0625
1438.88399	2754.0625
1442.31151	2674.6625
1445.73673	2624.0625
1449.15965	2577.3625
1452.58027	2530.2625
1455.9986	2431.9625
1459.41463	2376.2625
1462.82837	2382.5625
1466.23982	2403.1625
1469.64898	2451.8625
1473.05586	2494.7625
1476.46045	2528.1625
1479.86276	2575.9625
1483.26279	2629.0625
1486.66054	2672.9625
1490.05602	2703.3625
1493.44922	2768.6625
1496.84016	2882.4625
1500.22882	3122.1625
1503.61521	3513.5625
1506.99934	4019.4625
1510.38121	4507.8625
1513.76081	4754.9625
1517.13816	4541.2625
1520.51324	3927.9625
1523.88607	3297.5625
1527.25665	2860.5625
1530.62498	2638.2625
1533.99105	2526.1625
1537.35488	2453.4625
1540.71647	2430.7625
1544.07581	2424.8625
1547.4329	2416.7625
1550.78776	2432.1625
1554.14038	2417.0625
1557.49077	2437.1625
1560.83892	2454.9625
1564.18484	2530.2625
1567.52853	2642.5625
1570.86999	2760.6625
1574.20922	2825.2625
1577.54624	2832.9625
1580.88103	2695.7625
1584.2136	2474.3625
1587.54395	2321.4625
1590.87208	2302.5625
1594.19801	2404.6625
1597.52172	2575.3625
1600.84321	2698.1625
1604.16251	2674.2625
1607.47959	2510.6625
1610.79447	2334.1625
1614.10715	2145.1625
1617.41763	2040.9625
1620.7259	1977.4625
1624.03199	1962.4625
1627.33587	1973.8625
1630.63757	2011.0625
1633.93707	2066.9625
1637.23439	2187.5625
1640.52951	2375.1625
1643.82246	2664.1625
1647.11321	3044.7625
1650.40179	3336.7625
1653.68819	3288.9625
1656.97241	2895.6625
1660.25446	2408.2625
1663.53433	2076.5625
1666.81203	1883.6625
1670.08756	1778.8625
1673.36092	1707.0625
1676.63211	1661.0625
1679.90115	1602.7625
1683.16801	1572.4625
1686.43272	1533.2625
1689.69527	1503.4625
1692.95567	1486.8625
1696.2139	1468.5625
1699.46999	1462.9625
1702.72392	1456.0625
1705.97571	1441.1625
1709.22535	1449.7625
1712.47284	1451.3625
1715.71819	1464.8625
1718.96139	1475.8625
1722.20246	1468.0625
1725.44139	1459.8625
1728.67818	1456.3625
1731.91284	1429.2625
1735.14537	1405.3625
1738.37576	1394.2625
1741.60403	1379.4625
1744.83017	1367.5625
1748.05418	1375.8625
1751.27607	1365.1625
1754.49584	1343.9625
1757.71349	1324.0625
1760.92903	1290.1625
1764.14244	1268.5625
1767.35375	1253.6625
1770.56294	1234.8625
1773.77002	1224.4625
1776.97499	1212.8625
1780.17785	1203.1625
1783.37861	1197.8625
1786.57727	1191.8625
1789.77382	1192.9625
1792.96828	1175.1625
1796.16064	1177.1625
1799.3509	1164.9625
1802.53907	1164.3625
1805.72514	1144.4625
1808.90913	1148.8625
1812.09102	1139.7625
1815.27083	1133.1625
1818.44856	1121.9625
1821.6242	1121.9625
1824.79776	1118.6625
1827.96924	1116.0625
1831.13864	1111.7625
1834.30597	1108.9625
1837.47122	1105.1625
1840.6344	1100.2625
1843.7955	1099.3625
1846.95454	1099.3625
1850.11151	1090.7625
1853.26642	1094.2625
1856.41926	1094.5625
1859.57004	1084.8625
1862.71876	1081.8625
1865.86542	1078.9625
1869.01003	1078.4625
1872.15258	1077.7625
1875.29308	1077.5625
1878.43152	1068.5625
1881.56792	1075.1625
1884.70227	1061.0625
1887.83457	1065.7625
1890.96482	1064.4625
1894.09304	1060.1625
1897.21921	1045.3625
1900.34335	1065.1625
1903.46544	1057.5625
1906.58551	1053.1625
1909.70353	1049.2625
1912.81953	1047.5625
1915.93349	1049.0625
1919.04543	1053.1625
1922.15534	1033.5625
1925.26322	1036.1625
1928.36908	1037.0625
1931.47292	1028.9625
1934.57473	1025.7625
1937.67453	1022.3625
1940.77232	1019.0625
1943.86808	1013.9625
1946.96184	1013.4625
1950.05358	1006.3625
1953.14331	1009.8625
1956.23103	1002.4625
1959.31675	990.7625
1962.40046	996.4625
1965.48217	979.2625
1968.56188	989.2625
1971.63959	983.4625
1974.7153	985.9625
1977.78901	978.7625
1980.86073	974.8625
1983.93046	964.7625
1986.99819	963.0625
1990.06394	958.2625
1993.1277	957.7625
1996.18947	944.2625
1999.24925	947.2625
2002.30706	938.5625
2005.36288	942.4625
2008.41672	944.4625
2011.46859	933.0625
2014.51848	934.6625
2017.56639	921.8625
2020.61233	921.7625
2023.6563	921.4625
2026.6983	919.6625
2029.73833	915.2625
2032.7764	912.6625
2035.8125	906.5625
2038.84664	904.0625
2041.87881	897.2625
2044.90903	896.1625
2047.93729	894.0625
2050.96359	899.0625
2053.98794	903.5625
2057.01034	893.2625
2060.03078	891.1625
2063.04927	893.5625
2066.06582	881.9625
2069.08042	887.9625
2072.09307	891.3625
2075.10378	889.5625
2078.11255	884.1625
2081.11938	891.2625
2084.12426	890.3625
2087.12722	888.3625
2090.12824	883.6625
2093.12732	888.7625
2096.12447	889.0625
2099.11969	887.8625
2102.11299	893.7625
2105.10435	889.1625
2108.09379	893.5625
2111.08131	891.4625
2114.0669	882.9625
2117.05057	882.9625
2120.03233	879.4625
2123.01216	872.7625
2125.99008	870.1625
2128.96609	865.7625
2131.94018	866.5625
2134.91236	876.5625
2137.88263	866.8625
2140.851	867.7625
2143.81746	867.7625
2146.78201	863.0625
2149.74466	866.5625
2152.7054	863.2625
2155.66425	862.6625
2158.6212	856.7625
2161.57625	856.2625
2164.52941	861.6625
2167.48067	856.4625
2170.43004	853.8625
2173.37752	847.6625
2176.32311	851.4625
2179.26681	845.9625
2182.20863	855.2625
2185.14856	845.0625
2188.08661	848.4625
2191.02278	849.1625
2193.95707	842.9625
2196.88948	841.9625
2199.82001	841.9625
2202.74867	832.8625
2205.67545	839.1625
2208.60037	834.0625
2211.52341	835.7625
2214.44458	838.0625
2217.36388	823.0625
2220.28132	825.5625
2223.1969	822.2625
2226.11061	821.3625
2229.02246	814.3625
2231.93245	810.8625
2234.84058	813.7625
2237.74686	814.5625
2240.65128	801.9625
2243.55385	804.0625
2246.45456	808.1625
2249.35343	794.3625
2252.25044	805.0625
2255.14561	797.3625
2258.03893	806.6625
2260.93041	808.4625
2263.82004	802.4625
2266.70783	797.0625
2269.59378	790.9625
2272.4779	787.4625
2275.36017	789.7625
2278.24061	788.9625
2281.11922	776.8625
2283.996	777.3625
2286.87094	779.6625
2289.74405	767.7625
2292.61534	771.9625
2295.4848	777.2625
2298.35243	767.4625
2301.21824	764.2625
2304.08223	769.2625
2306.94439	761.9625
2309.80474	752.6625
2312.66327	758.5625
2315.51999	763.5625
2318.37489	760.1625
2321.22797	752.5625
2324.07925	754.8625
2326.92871	755.3625
2329.77637	759.7625
2332.62222	754.4625
2335.46626	751.4625
2338.3085	749.7625
2341.14893	743.4625
2343.98756	744.7625
2346.8244	748.1625
2349.65943	743.1625
2352.49267	747.7625
2355.32411	746.1625
2358.15376	747.9625
2360.98161	747.1625
2363.80768	743.6625
2366.63195	750.2625
2369.45444	744.4625
2372.27514	749.3625
2375.09405	749.8625
2377.91118	745.4625
2380.72652	744.0625
2383.54009	736.0625
2386.35187	734.7625
2389.16188	725.8625
2391.97011	728.7625
2394.77657	728.8625
2397.58125	717.6625
2400.38416	729.3625
2403.18529	719.1625
2405.98466	721.6625
2408.78226	708.4625
2411.57809	710.9625
2414.37216	717.9625
2417.16446	708.0625
2419.955	708.2625
2422.74378	709.4625
2425.5308	703.1625
2428.31606	699.9625
2431.09956	693.7625
2433.88131	707.2625
2436.6613	705.2625
2439.43954	705.5625
2442.21603	698.0625
2444.99077	696.9625
2447.76377	702.0625
2450.53501	693.9625
2453.30451	707.6625
2456.07226	701.5625
2458.83827	698.4625
2461.60254	696.6625
2464.36507	692.1625
2467.12586	688.9625
2469.88492	688.0625
2472.64224	690.1625
2475.39782	695.8625
2478.15167	695.8625
2480.90379	699.4625
2483.65417	698.3625
2486.40283	700.9625
2489.14976	700.8625
2491.89497	699.9625
2494.63845	698.7625
2497.3802	704.1625
2500.12024	701.0625
2502.85855	701.2625
2505.59514	691.4625
2508.33002	684.6625
2511.06318	680.1625
2513.79462	686.3625
2516.52435	672.9625
2519.25237	672.2625
2521.97867	668.2625
2524.70327	667.2625
2527.42616	667.8625
2530.14734	660.3625
2532.86681	664.7625
2535.58458	664.2625
2538.30065	659.4625
2541.01501	660.7625
2543.72768	661.6625
2546.43864	656.1625
2549.14791	659.0625
2551.85548	657.6625
2554.56136	656.4625
2557.26554	654.3625
2559.96803	660.2625
2562.66883	657.7625
2565.36794	653.7625
2568.06536	655.0625
2570.7611	649.3625
2573.45514	654.4625
2576.14751	653.8625
2578.83819	650.2625
2581.52719	653.4625
2584.21451	650.6625
2586.90015	648.7625
2589.58411	644.7625
2592.2664	644.0625
2594.94701	648.4625
2597.62594	647.0625
2600.30321	639.3625
2602.9788	635.9625
2605.65273	643.1625
2608.32498	639.1625
2610.99557	641.3625
2613.66449	634.5625
2616.33175	631.3625
2618.99734	635.0625
2621.66128	631.0625
2624.32355	630.7625
2626.98416	631.6625
2629.64311	630.9625
2632.30041	626.5625
2634.95605	635.5625
2637.61004	626.1625
2640.26238	631.5625
2642.91306	626.8625
2645.56209	627.5625
2648.20948	626.8625
2650.85521	623.0625
2653.4993	621.2625
2656.14175	627.9625
2658.78255	628.6625
2661.42171	640.4625
2664.05923	634.3625
2666.6951	636.7625
2669.32934	635.4625
2671.96194	642.4625
2674.59291	636.3625
2677.22224	645.6625
2679.84993	647.7625
2682.476	643.8625
2685.10043	645.5625
2687.72324	643.6625
2690.34441	645.2625
2692.96396	646.2625
2695.58188	656.1625
2698.19818	652.3625
2700.81285	661.2625
2703.4259	668.6625
2706.03733	696.3625
2708.64714	679.1625
2711.25533	674.6625
2713.86191	676.6625
2716.46687	682.9625
2719.07021	682.0625
2721.67194	676.1625
2724.27206	667.8625
2726.87057	677.9625
2729.46747	687.1625
2732.06276	682.6625
2734.65644	680.3625
2737.24852	676.4625
2739.83899	669.0625
2742.42786	673.4625
2745.01513	676.5625
2747.60079	672.5625
2750.18486	674.9625
2752.76733	675.1625
2755.3482	680.8625
2757.92747	679.6625
2760.50515	686.0625
2763.08123	688.8625
2765.65573	685.3625
2768.22863	700.5625
2770.79994	703.2625
2773.36967	711.2625
2775.9378	727.6625
2778.50435	725.0625
2781.06932	732.7625
2783.6327	737.0625
2786.1945	744.5625
2788.75471	751.0625
2791.31335	768.8625
2793.87041	777.5625
2796.42589	781.0625
2798.97979	789.8625
2801.53212	802.0625
2804.08288	829.3625
2806.63206	837.5625
2809.17967	841.6625
2811.72571	864.4625
2814.27018	880.1625
2816.81308	886.4625
2819.35442	889.0625
2821.89419	903.1625
2824.43239	910.1625
2826.96904	910.5625
2829.50412	913.4625
2832.03763	917.4625
2834.56959	931.4625
2837.1	933.0625
2839.62884	956.3625
2842.15613	972.2625
2844.68186	1002.8625
2847.20604	1043.7625
2849.72867	1073.5625
2852.24974	1074.7625
2854.76927	1084.1625
2857.28724	1096.9625
2859.80367	1076.1625
2862.31855	1071.5625
2864.83189	1072.5625
2867.34368	1070.2625
2869.85393	1069.1625
2872.36264	1071.7625
2874.8698	1085.7625
2877.37543	1097.2625
2879.87952	1104.7625
2882.38207	1107.5625
2884.88308	1114.2625
2887.38256	1129.4625
2889.88051	1131.1625
2892.37692	1145.7625
2894.8718	1143.9625
2897.36515	1154.5625
2899.85698	1159.2625
2902.34727	1172.1625
2904.83604	1178.5625
2907.32328	1173.1625
2909.809	1177.3625
2912.29319	1182.4625
2914.77587	1186.8625
2917.25702	1189.2625
2919.73665	1177.6625
2922.21476	1173.2625
2924.69136	1162.7625
2927.16644	1152.6625
2929.64	1153.9625
2932.11205	1130.8625
2934.58258	1099.6625
2937.05161	1090.2625
2939.51912	1071.0625
2941.98513	1045.2625
2944.44962	1013.6625
2946.91261	979.5625
2949.37409	946.9625
2951.83407	925.1625
2954.29254	899.0625
2956.74951	877.1625
2959.20498	863.1625
2961.65895	840.8625
2964.11142	819.6625
2966.56239	807.6625
2969.01186	788.4625
2971.45984	773.3625
2973.90632	762.9625
2976.35131	750.4625
2978.7948	741.1625
2981.23681	734.1625
2983.67732	717.1625
2986.11635	715.1625
2988.55388	710.5625
2990.98993	701.6625
2993.4245	700.9625
2995.85758	691.4625
2998.28917	691.7625
3000.71928	691.2625
3003.14791	687.3625
3005.57506	690.8625
3008.00073	683.0625
3010.42493	681.8625
3012.84764	676.9625
3015.26888	673.8625
3017.68865	672.0625
3020.10694	661.2625
3022.52376	669.2625
3024.9391	665.7625
3027.35298	661.7625
3029.76539	652.7625
3032.17632	654.7625
3034.5858	641.3625
3036.9938	645.2625
3039.40034	639.1625
3041.80542	639.5625
3044.20903	637.1625
3046.61118	634.6625
3049.01187	633.0625
3051.4111	634.6625
3053.80888	632.3625
3056.20519	629.2625
3058.60005	632.2625
3060.99345	637.5625
3063.3854	639.0625
3065.7759	630.5625
3068.16494	634.7625
3070.55254	633.7625
3072.93868	632.7625
3075.32338	634.6625
3077.70662	633.5625
3080.08842	631.1625
3082.46878	630.8625
3084.84769	626.5625
3087.22515	636.0625
3089.60118	640.1625
3091.97576	638.5625
3094.3489	638.0625
3096.72061	641.7625
3099.09087	641.0625
3101.4597	644.3625
3103.82709	638.3625
3106.19305	644.9625
3108.55757	649.5625
3110.92066	646.6625
3113.28232	655.4625
3115.64255	652.2625
3118.00134	650.5625
3120.35871	655.5625
3122.71466	654.2625
3125.06917	658.3625
3127.42226	666.6625
3129.77393	673.2625
3132.12417	677.7625
3134.47299	681.3625
3136.82039	689.8625
3139.16636	691.7625
3141.51092	691.4625
3143.85406	696.7625
3146.19579	701.9625
3148.53609	698.2625
3150.87499	708.3625
3153.21246	713.8625
3155.54853	721.8625
3157.88318	729.1625
3160.21642	729.4625
3162.54826	729.0625
3164.87868	739.0625
3167.2077	744.4625
3169.5353	746.8625
3171.86151	756.9625
3174.18631	755.2625
3176.5097	759.3625
3178.83169	763.6625
3181.15228	771.2625
3183.47147	769.9625
3185.78926	771.7625
3188.10565	775.8625
3190.42065	779.2625
3192.73424	787.3625
3195.04645	786.7625
3197.35725	793.1625
3199.66667	800.5625
3201.97469	794.9625
3204.28132	800.5625
3206.58656	808.0625
3208.8904	805.9625
3211.19287	815.9625
3213.49394	815.0625
3215.79363	816.3625
3218.09193	816.6625
3220.38884	828.9625
3222.68438	830.0625
3224.97853	833.1625
3227.2713	826.9625
3229.56269	828.7625
3231.8527	840.9625
3234.14133	828.3625
3236.42858	832.9625
3238.71446	835.3625
3240.99896	829.2625
3243.28209	836.0625
3245.56384	840.8625
3247.84423	834.7625
3250.12324	837.1625
3252.40088	837.9625
3254.67715	842.7625
3256.95205	842.0625
3259.22558	845.0625
3261.49775	838.3625
3263.76855	836.8625
3266.03799	837.5625
3268.30606	839.9625
3270.57277	838.3625
3272.83812	839.0625
3275.10211	841.3625
3277.36474	843.3625
3279.62601	848.1625
3281.88593	845.8625
3284.14448	843.1625
3286.40168	841.1625
3288.65753	840.6625
3290.91202	842.0625
3293.16516	846.3625
3295.41695	838.2625
3297.66738	832.9625
3299.91647	839.9625
3302.16421	834.1625
3304.4106	825.9625
3306.65564	822.8625
3308.89933	824.3625
3311.14169	822.5625
3313.38269	823.2625
3315.62236	811.0625
3317.86068	808.6625
3320.09766	806.6625
3322.3333	801.6625
3324.5676	797.8625
3326.80056	800.9625
3329.03219	789.1625
3331.26248	1.2625
3333.49143	0.8625
3335.71905	0.2625
