Data from AgNPs_FTO_APTES_UA_0um_CRN_0.1mM_R6G_10uM_NaF_0.1M_Addition_RamanShift__56__11-16-38-963.txt Node

Date: Tue Dec 21 11:16:38 GMT 2021
User: TCL
Spectrometer: QEP01345
Trigger mode: 4
Integration Time (sec): 7.000000E0
Scans to average: 10
Electric dark correction enabled: true
Nonlinearity correction enabled: false
Boxcar width: 0
XAxis mode: Raman Shifts
Number of Pixels in Spectrum: 1044
>>>>>Begin Spectral Data<<<<<
46.04893	-2.3375
50.45542	-0.7375
54.85868	-0.6375
59.25871	-0.3375
63.6555	50.7625
68.04907	53.8625
72.43941	57.2625
76.82654	57.2625
81.21044	60.5625
85.59113	62.5625
89.96862	66.4625
94.34289	63.2625
98.71396	68.0625
103.08183	72.4625
107.4465	73.5625
111.80798	79.2625
116.16626	77.2625
120.52136	84.8625
124.87327	86.7625
129.222	88.4625
133.56755	93.4625
137.90993	105.6625
142.24913	113.0625
146.58517	128.5625
150.91804	152.5625
155.24774	179.9625
159.57429	222.5625
163.89768	290.7625
168.21792	380.7625
172.53501	519.5625
176.84895	723.0625
181.15975	1015.0625
185.46741	1405.3625
189.77193	1944.9625
194.07331	2589.5625
198.37157	3317.3625
202.6667	4096.1625
206.9587	4878.7625
211.24758	5665.3625
215.53334	6448.7625
219.81599	7256.3625
224.09553	8179.9625
228.37195	9201.5625
232.64527	10307.4625
236.91549	11437.8625
241.18261	12515.8625
245.44663	13544.8625
249.70755	14441.2625
253.96539	15222.8625
258.22014	15914.9625
262.4718	16493.5625
266.72039	16890.7625
270.96589	17078.3625
275.20832	17094.7625
279.44768	17051.2625
283.68397	17045.6625
287.91719	17044.1625
292.14735	17065.7625
296.37445	17070.3625
300.59849	17041.3625
304.81948	17058.9625
309.03742	17025.6625
313.25231	16818.3625
317.46415	16351.5625
321.67296	15820.3625
325.87872	15390.6625
330.08145	15160.6625
334.28114	15113.9625
338.47781	15193.2625
342.67145	15385.2625
346.86207	15624.9625
351.04966	15953.1625
355.23424	16297.0625
359.4158	16592.9625
363.59435	16785.3625
367.76989	16869.9625
371.94243	16936.6625
376.11196	16997.1625
380.27849	17058.9625
384.44203	17171.3625
388.60257	17347.6625
392.76012	17470.7625
396.91468	17761.5625
401.06626	18086.0625
405.21485	18332.2625
409.36047	18333.4625
413.50311	18068.0625
417.64277	17994.8625
421.77947	18018.9625
425.9132	18262.9625
430.04396	18543.5625
434.17176	18763.6625
438.2966	19034.2625
442.41849	19576.9625
446.53742	20518.0625
450.6534	21512.0625
454.76644	22192.3625
458.87653	22211.0625
462.98368	21728.5625
467.08789	21096.4625
471.18916	20560.9625
475.2875	20239.1625
479.38291	20212.2625
483.4754	20228.0625
487.56496	20074.4625
491.6516	19612.5625
495.73531	19087.7625
499.81612	18768.2625
503.89401	18757.3625
507.96899	18747.3625
512.04106	18495.5625
516.11023	18049.3625
520.1765	17600.3625
524.23987	17325.5625
528.30034	17188.4625
532.35792	17094.8625
536.41261	16826.6625
540.46441	16496.9625
544.51333	16377.0625
548.55936	16603.1625
552.60252	17191.8625
556.64279	17880.4625
560.6802	18538.7625
564.71473	18988.8625
568.7464	19614.3625
572.7752	20412.3625
576.80114	21034.5625
580.82422	21413.2625
584.84444	21926.1625
588.86181	22781.0625
592.87633	24099.7625
596.888	24872.3625
600.89682	24395.4625
604.9028	23848.6625
608.90594	24599.5625
612.90624	25619.9625
616.90371	23388.9625
620.89834	19105.3625
624.89015	17256.8625
628.87913	17177.2625
632.86528	17391.0625
636.84862	17389.0625
640.82913	16996.5625
644.80683	16368.7625
648.78172	15875.1625
652.75379	15663.5625
656.72306	15693.7625
660.68952	15998.7625
664.65319	15943.2625
668.61405	15673.7625
672.57211	15568.3625
676.52738	15627.8625
680.47986	15604.9625
684.42955	15506.8625
688.37646	15384.5625
692.32058	15446.3625
696.26192	15606.7625
700.20048	15856.1625
704.13626	16079.9625
708.06928	16112.6625
711.99952	15989.7625
715.927	15879.6625
719.85171	15844.2625
723.77365	15799.0625
727.69284	15631.5625
731.60928	15476.8625
735.52295	15477.6625
739.43388	15539.7625
743.34206	15574.7625
747.24749	15706.5625
751.15017	15947.5625
755.05012	16371.8625
758.94733	17064.7625
762.8418	18184.2625
766.73354	19962.4625
770.62254	21425.7625
774.50882	21443.5625
778.39237	19977.7625
782.27321	18154.1625
786.15132	16692.8625
790.02671	15843.7625
793.89938	15426.7625
797.76935	15289.5625
801.6366	15296.2625
805.50115	15309.7625
809.36299	15220.2625
813.22213	15057.2625
817.07857	14971.7625
820.93231	14872.6625
824.78336	14766.7625
828.63172	14694.1625
832.47738	14642.6625
836.32036	14652.6625
840.16066	14668.3625
843.99827	14680.9625
847.8332	14612.1625
851.66546	14554.8625
855.49504	14525.4625
859.32195	14490.6625
863.1462	14424.6625
866.96777	14363.5625
870.78668	14278.2625
874.60293	14262.3625
878.41652	14293.1625
882.22745	14352.7625
886.03573	14401.0625
889.84136	14405.7625
893.64433	14344.0625
897.44466	14282.4625
901.24235	14192.6625
905.0374	14104.4625
908.8298	13989.6625
912.61957	14022.6625
916.40671	14151.9625
920.19121	14451.1625
923.97308	14737.8625
927.75233	14830.5625
931.52895	14669.9625
935.30295	14374.1625
939.07433	13971.3625
942.84309	13663.7625
946.60924	13506.8625
950.37278	13445.7625
954.13371	13434.3625
957.89203	13408.4625
961.64774	13369.9625
965.40086	13355.6625
969.15137	13309.5625
972.89929	13181.9625
976.64461	13050.1625
980.38733	12998.9625
984.12747	13059.9625
987.86502	13155.2625
991.59999	13361.7625
995.33237	13718.7625
999.06217	14315.6625
1002.78939	15127.9625
1006.51404	15737.6625
1010.23611	16087.3625
1013.95561	16212.3625
1017.67255	16177.2625
1021.38692	15764.5625
1025.09872	15274.8625
1028.80796	15053.0625
1032.51465	15261.6625
1036.21877	15586.0625
1039.92035	15655.9625
1043.61937	15517.0625
1047.31584	15261.1625
1051.00976	14973.4625
1054.70114	14763.0625
1058.38998	14769.0625
1062.07627	14831.0625
1065.76003	15008.8625
1069.44126	15254.7625
1073.11995	15507.4625
1076.79611	15745.4625
1080.46974	15856.7625
1084.14085	16002.1625
1087.80943	16287.1625
1091.47549	16590.0625
1095.13903	16669.8625
1098.80005	16375.7625
1102.45857	15852.6625
1106.11456	15378.2625
1109.76805	15189.8625
1113.41903	15217.9625
1117.06751	15386.7625
1120.71348	15604.7625
1124.35696	15846.6625
1127.99793	16084.3625
1131.63641	16259.5625
1135.2724	16199.2625
1138.90589	16127.2625
1142.5369	16190.9625
1146.16542	16296.7625
1149.79145	16510.9625
1153.415	16777.9625
1157.03607	17159.7625
1160.65467	17806.4625
1164.27079	18878.0625
1167.88443	20424.6625
1171.49561	22420.7625
1175.10432	24933.3625
1178.71056	28081.1625
1182.31434	30863.2625
1185.91565	32018.7625
1189.51451	31599.9625
1193.11091	30386.2625
1196.70485	28960.4625
1200.29634	27353.1625
1203.88538	25976.1625
1207.47197	24954.2625
1211.05612	24230.3625
1214.63782	23606.1625
1218.21708	23320.4625
1221.79391	23275.7625
1225.36829	23252.7625
1228.94024	22772.3625
1232.50976	21867.2625
1236.07685	21016.7625
1239.6415	20482.6625
1243.20374	20237.8625
1246.76355	20238.6625
1250.32093	20574.8625
1253.8759	21135.6625
1257.42845	21945.6625
1260.97859	22745.1625
1264.52631	23504.1625
1268.07163	24342.4625
1271.61453	25283.4625
1275.15503	26272.5625
1278.69312	27346.2625
1282.22882	28430.6625
1285.76211	29708.0625
1289.29301	31167.0625
1292.82151	32971.6625
1296.34761	35243.9625
1299.87133	37959.6625
1303.39266	40996.1625
1306.9116	44211.7625
1310.42815	47466.2625
1313.94233	49921.6625
1317.45412	50830.3625
1320.96354	50208.6625
1324.47058	49190.2625
1327.97525	48019.8625
1331.47754	47053.1625
1334.97747	46376.4625
1338.47502	45817.1625
1341.97022	44878.8625
1345.46305	43310.9625
1348.95352	41434.4625
1352.44163	40271.6625
1355.92738	40517.9625
1359.41078	42142.1625
1362.89183	43932.1625
1366.37053	44115.0625
1369.84688	41351.1625
1373.32088	36762.7625
1376.79254	32937.4625
1380.26186	31343.9625
1383.72883	31182.6625
1387.19347	31384.8625
1390.65578	31514.1625
1394.11575	32073.2625
1397.57339	33556.1625
1401.0287	35530.5625
1404.48168	37305.2625
1407.93234	38145.5625
1411.38068	37850.1625
1414.82669	36302.2625
1418.27039	33938.6625
1421.71177	31267.8625
1425.15083	28982.4625
1428.58758	27534.1625
1432.02203	27242.4625
1435.45416	27818.9625
1438.88399	28912.2625
1442.31151	30008.9625
1445.73673	31067.8625
1449.15965	32081.9625
1452.58027	32716.0625
1455.9986	32765.7625
1459.41463	32896.5625
1462.82837	33450.4625
1466.23982	34487.3625
1469.64898	35546.1625
1473.05586	36074.9625
1476.46045	36057.6625
1479.86276	35746.4625
1483.26279	35195.6625
1486.66054	34523.0625
1490.05602	34230.5625
1493.44922	33919.2625
1496.84016	33169.9625
1500.22882	32348.2625
1503.61521	31905.9625
1506.99934	32009.7625
1510.38121	32414.7625
1513.76081	32519.1625
1517.13816	32059.2625
1520.51324	31080.1625
1523.88607	30267.8625
1527.25665	29942.9625
1530.62498	30023.6625
1533.99105	30229.2625
1537.35488	30393.1625
1540.71647	30241.9625
1544.07581	29686.8625
1547.4329	28798.2625
1550.78776	27831.1625
1554.14038	27008.4625
1557.49077	26559.9625
1560.83892	26302.6625
1564.18484	26227.8625
1567.52853	26200.4625
1570.86999	26266.8625
1574.20922	26648.6625
1577.54624	27113.9625
1580.88103	27351.2625
1584.2136	27852.6625
1587.54395	29227.2625
1590.87208	31737.0625
1594.19801	35090.1625
1597.52172	38638.1625
1600.84321	40474.2625
1604.16251	39021.9625
1607.47959	34987.8625
1610.79447	30187.9625
1614.10715	25830.8625
1617.41763	22600.5625
1620.7259	20536.9625
1624.03199	19487.3625
1627.33587	19359.0625
1630.63757	20089.9625
1633.93707	21827.6625
1637.23439	24916.9625
1640.52951	29635.9625
1643.82246	35483.2625
1647.11321	40505.7625
1650.40179	42023.5625
1653.68819	38938.6625
1656.97241	32769.1625
1660.25446	26402.5625
1663.53433	21555.7625
1666.81203	18357.0625
1670.08756	16440.2625
1673.36092	15239.3625
1676.63211	14507.5625
1679.90115	13961.3625
1683.16801	13597.6625
1686.43272	13304.7625
1689.69527	13101.0625
1692.95567	12951.0625
1696.2139	12855.2625
1699.46999	12760.0625
1702.72392	12679.5625
1705.97571	12619.7625
1709.22535	12554.3625
1712.47284	12490.4625
1715.71819	12436.2625
1718.96139	12404.7625
1722.20246	12317.6625
1725.44139	12224.1625
1728.67818	12149.7625
1731.91284	12076.9625
1735.14537	12039.2625
1738.37576	11945.9625
1741.60403	11872.6625
1744.83017	11847.9625
1748.05418	11831.0625
1751.27607	11830.3625
1754.49584	11800.9625
1757.71349	11782.1625
1760.92903	11768.4625
1764.14244	11718.2625
1767.35375	11687.9625
1770.56294	11649.8625
1773.77002	11609.2625
1776.97499	11576.1625
1780.17785	11558.3625
1783.37861	11512.3625
1786.57727	11507.5625
1789.77382	11439.1625
1792.96828	11398.9625
1796.16064	11399.2625
1799.3509	11353.4625
1802.53907	11327.8625
1805.72514	11274.5625
1808.90913	11227.7625
1812.09102	11211.3625
1815.27083	11187.1625
1818.44856	11119.8625
1821.6242	11144.0625
1824.79776	11111.8625
1827.96924	11140.5625
1831.13864	11126.9625
1834.30597	11104.9625
1837.47122	11110.8625
1840.6344	11089.5625
1843.7955	11113.3625
1846.95454	11104.4625
1850.11151	11091.8625
1853.26642	11125.5625
1856.41926	11128.3625
1859.57004	11114.4625
1862.71876	11105.6625
1865.86542	11099.6625
1869.01003	11104.6625
1872.15258	11111.6625
1875.29308	11104.7625
1878.43152	11118.5625
1881.56792	11086.6625
1884.70227	11110.2625
1887.83457	11139.3625
1890.96482	11146.6625
1894.09304	11125.1625
1897.21921	11145.7625
1900.34335	11123.9625
1903.46544	11149.4625
1906.58551	11140.8625
1909.70353	11119.6625
1912.81953	11097.3625
1915.93349	11072.3625
1919.04543	11042.3625
1922.15534	10990.9625
1925.26322	10962.3625
1928.36908	10931.3625
1931.47292	10878.2625
1934.57473	10816.8625
1937.67453	10794.3625
1940.77232	10767.4625
1943.86808	10696.8625
1946.96184	10676.6625
1950.05358	10611.9625
1953.14331	10600.3625
1956.23103	10523.9625
1959.31675	10500.6625
1962.40046	10445.9625
1965.48217	10427.7625
1968.56188	10390.1625
1971.63959	10355.9625
1974.7153	10316.1625
1977.78901	10281.1625
1980.86073	10235.6625
1983.93046	10190.3625
1986.99819	10158.6625
1990.06394	10117.6625
1993.1277	10095.7625
1996.18947	10051.0625
1999.24925	10024.3625
2002.30706	10022.3625
2005.36288	9973.7625
2008.41672	9972.0625
2011.46859	9922.1625
2014.51848	9896.5625
2017.56639	9881.4625
2020.61233	9845.9625
2023.6563	9841.5625
2026.6983	9812.8625
2029.73833	9806.7625
2032.7764	9794.2625
2035.8125	9753.6625
2038.84664	9720.2625
2041.87881	9720.1625
2044.90903	9725.0625
2047.93729	9680.1625
2050.96359	9714.8625
2053.98794	9692.0625
2057.01034	9690.0625
2060.03078	9640.5625
2063.04927	9642.1625
2066.06582	9644.7625
2069.08042	9625.2625
2072.09307	9607.2625
2075.10378	9588.4625
2078.11255	9592.3625
2081.11938	9598.6625
2084.12426	9563.4625
2087.12722	9591.3625
2090.12824	9577.8625
2093.12732	9568.9625
2096.12447	9560.2625
2099.11969	9558.3625
2102.11299	9563.6625
2105.10435	9532.2625
2108.09379	9528.4625
2111.08131	9538.9625
2114.0669	9514.6625
2117.05057	9554.7625
2120.03233	9524.6625
2123.01216	9530.5625
2125.99008	9524.5625
2128.96609	9503.0625
2131.94018	9520.8625
2134.91236	9548.3625
2137.88263	9520.0625
2140.851	9525.9625
2143.81746	9517.7625
2146.78201	9523.1625
2149.74466	9511.6625
2152.7054	9500.8625
2155.66425	9525.2625
2158.6212	9527.1625
2161.57625	9502.6625
2164.52941	9501.0625
2167.48067	9496.9625
2170.43004	9505.1625
2173.37752	9499.3625
2176.32311	9502.6625
2179.26681	9480.0625
2182.20863	9489.7625
2185.14856	9490.0625
2188.08661	9484.7625
2191.02278	9486.5625
2193.95707	9494.5625
2196.88948	9483.5625
2199.82001	9478.8625
2202.74867	9460.9625
2205.67545	9452.9625
2208.60037	9430.2625
2211.52341	9418.1625
2214.44458	9401.2625
2217.36388	9407.0625
2220.28132	9378.8625
2223.1969	9371.6625
2226.11061	9342.3625
2229.02246	9341.0625
2231.93245	9334.8625
2234.84058	9277.5625
2237.74686	9296.1625
2240.65128	9284.0625
2243.55385	9266.3625
2246.45456	9260.2625
2249.35343	9232.3625
2252.25044	9212.7625
2255.14561	9189.1625
2258.03893	9180.0625
2260.93041	9151.2625
2263.82004	9121.4625
2266.70783	9109.0625
2269.59378	9034.0625
2272.4779	9015.7625
2275.36017	8992.7625
2278.24061	8980.3625
2281.11922	8969.2625
2283.996	8952.7625
2286.87094	8960.3625
2289.74405	8942.1625
2292.61534	8941.8625
2295.4848	8916.0625
2298.35243	8915.5625
2301.21824	8900.6625
2304.08223	8923.7625
2306.94439	8893.9625
2309.80474	8931.2625
2312.66327	8913.8625
2315.51999	8916.7625
2318.37489	8909.3625
2321.22797	8904.4625
2324.07925	8883.3625
2326.92871	8874.4625
2329.77637	8867.9625
2332.62222	8885.7625
2335.46626	8861.7625
2338.3085	8858.1625
2341.14893	8866.0625
2343.98756	8885.1625
2346.8244	8884.4625
2349.65943	8874.0625
2352.49267	8886.4625
2355.32411	8886.0625
2358.15376	8874.1625
2360.98161	8871.5625
2363.80768	8868.8625
2366.63195	8856.2625
2369.45444	8833.9625
2372.27514	8815.9625
2375.09405	8795.1625
2377.91118	8796.0625
2380.72652	8756.9625
2383.54009	8745.0625
2386.35187	8721.4625
2389.16188	8684.9625
2391.97011	8652.1625
2394.77657	8654.0625
2397.58125	8665.6625
2400.38416	8643.6625
2403.18529	8640.5625
2405.98466	8617.8625
2408.78226	8601.1625
2411.57809	8566.7625
2414.37216	8582.0625
2417.16446	8574.2625
2419.955	8548.8625
2422.74378	8521.6625
2425.5308	8539.6625
2428.31606	8524.5625
2431.09956	8495.9625
2433.88131	8487.9625
2436.6613	8499.7625
2439.43954	8494.3625
2442.21603	8467.4625
2444.99077	8496.8625
2447.76377	8484.7625
2450.53501	8487.0625
2453.30451	8518.7625
2456.07226	8489.0625
2458.83827	8498.8625
2461.60254	8503.6625
2464.36507	8509.3625
2467.12586	8496.3625
2469.88492	8497.1625
2472.64224	8513.0625
2475.39782	8536.7625
2478.15167	8532.5625
2480.90379	8540.9625
2483.65417	8538.4625
2486.40283	8539.1625
2489.14976	8571.7625
2491.89497	8568.8625
2494.63845	8596.2625
2497.3802	8599.8625
2500.12024	8588.1625
2502.85855	8582.2625
2505.59514	8578.4625
2508.33002	8563.7625
2511.06318	8538.5625
2513.79462	8563.3625
2516.52435	8533.3625
2519.25237	8532.2625
2521.97867	8536.9625
2524.70327	8510.5625
2527.42616	8520.1625
2530.14734	8486.7625
2532.86681	8488.4625
2535.58458	8486.8625
2538.30065	8452.1625
2541.01501	8464.9625
2543.72768	8479.7625
2546.43864	8476.8625
2549.14791	8474.0625
2551.85548	8452.6625
2554.56136	8451.5625
2557.26554	8426.2625
2559.96803	8445.6625
2562.66883	8455.3625
2565.36794	8442.8625
2568.06536	8454.4625
2570.7611	8453.5625
2573.45514	8443.5625
2576.14751	8445.9625
2578.83819	8449.0625
2581.52719	8444.8625
2584.21451	8439.7625
2586.90015	8458.1625
2589.58411	8447.5625
2592.2664	8458.8625
2594.94701	8471.8625
2597.62594	8448.6625
2600.30321	8469.8625
2602.9788	8457.1625
2605.65273	8447.3625
2608.32498	8475.4625
2610.99557	8472.2625
2613.66449	8488.0625
2616.33175	8484.5625
2618.99734	8470.7625
2621.66128	8482.2625
2624.32355	8476.2625
2626.98416	8509.5625
2629.64311	8508.8625
2632.30041	8506.8625
2634.95605	8504.9625
2637.61004	8509.0625
2640.26238	8497.6625
2642.91306	8483.1625
2645.56209	8488.1625
2648.20948	8483.6625
2650.85521	8465.2625
2653.4993	8469.6625
2656.14175	8482.9625
2658.78255	8496.4625
2661.42171	8490.1625
2664.05923	8531.2625
2666.6951	8519.3625
2669.32934	8540.6625
2671.96194	8554.9625
2674.59291	8539.1625
2677.22224	8532.1625
2679.84993	8548.1625
2682.476	8507.5625
2685.10043	8492.6625
2687.72324	8489.3625
2690.34441	8496.6625
2692.96396	8459.8625
2695.58188	8499.9625
2698.19818	8494.3625
2700.81285	8491.7625
2703.4259	8508.0625
2706.03733	8563.6625
2708.64714	8529.1625
2711.25533	8525.3625
2713.86191	8509.1625
2716.46687	8541.6625
2719.07021	8543.6625
2721.67194	8548.5625
2724.27206	8527.1625
2726.87057	8554.6625
2729.46747	8559.2625
2732.06276	8573.3625
2734.65644	8566.1625
2737.24852	8586.3625
2739.83899	8558.4625
2742.42786	8572.9625
2745.01513	8592.1625
2747.60079	8563.8625
2750.18486	8568.1625
2752.76733	8583.2625
2755.3482	8577.9625
2757.92747	8586.4625
2760.50515	8589.5625
2763.08123	8597.4625
2765.65573	8606.8625
2768.22863	8609.6625
2770.79994	8615.1625
2773.36967	8651.0625
2775.9378	8627.0625
2778.50435	8642.0625
2781.06932	8620.6625
2783.6327	8640.2625
2786.1945	8660.4625
2788.75471	8651.1625
2791.31335	8625.9625
2793.87041	8605.9625
2796.42589	8594.2625
2798.97979	8600.5625
2801.53212	8596.7625
2804.08288	8592.9625
2806.63206	8594.3625
2809.17967	8568.9625
2811.72571	8529.5625
2814.27018	8558.8625
2816.81308	8520.8625
2819.35442	8513.5625
2821.89419	8506.7625
2824.43239	8490.4625
2826.96904	8509.8625
2829.50412	8493.7625
2832.03763	8471.4625
2834.56959	8473.2625
2837.1	8458.0625
2839.62884	8464.8625
2842.15613	8445.9625
2844.68186	8440.2625
2847.20604	8469.6625
2849.72867	8462.0625
2852.24974	8454.8625
2854.76927	8439.9625
2857.28724	8441.0625
2859.80367	8404.9625
2862.31855	8399.7625
2864.83189	8402.6625
2867.34368	8391.4625
2869.85393	8410.8625
2872.36264	8382.3625
2874.8698	8422.9625
2877.37543	8393.0625
2879.87952	8397.8625
2882.38207	8400.0625
2884.88308	8406.2625
2887.38256	8444.2625
2889.88051	8436.6625
2892.37692	8418.1625
2894.8718	8445.4625
2897.36515	8457.5625
2899.85698	8467.0625
2902.34727	8504.3625
2904.83604	8477.2625
2907.32328	8534.7625
2909.809	8507.6625
2912.29319	8536.6625
2914.77587	8531.2625
2917.25702	8533.5625
2919.73665	8508.8625
2922.21476	8521.7625
2924.69136	8515.7625
2927.16644	8535.7625
2929.64	8513.5625
2932.11205	8510.3625
2934.58258	8461.2625
2937.05161	8498.1625
2939.51912	8503.2625
2941.98513	8480.4625
2944.44962	8455.3625
2946.91261	8442.3625
2949.37409	8442.8625
2951.83407	8430.0625
2954.29254	8422.7625
2956.74951	8405.4625
2959.20498	8388.3625
2961.65895	8376.3625
2964.11142	8334.7625
2966.56239	8330.8625
2969.01186	8290.0625
2971.45984	8281.6625
2973.90632	8251.7625
2976.35131	8196.8625
2978.7948	8186.2625
2981.23681	8153.4625
2983.67732	8136.6625
2986.11635	8117.9625
2988.55388	8119.4625
2990.98993	8056.0625
2993.4245	8050.7625
2995.85758	8034.6625
2998.28917	8014.9625
3000.71928	8011.9625
3003.14791	7990.2625
3005.57506	7959.8625
3008.00073	7969.2625
3010.42493	7935.5625
3012.84764	7907.8625
3015.26888	7907.3625
3017.68865	7887.0625
3020.10694	7853.0625
3022.52376	7842.9625
3024.9391	7809.1625
3027.35298	7812.8625
3029.76539	7793.6625
3032.17632	7791.6625
3034.5858	7790.0625
3036.9938	7774.1625
3039.40034	7756.5625
3041.80542	7772.9625
3044.20903	7769.7625
3046.61118	7765.8625
3049.01187	7735.9625
3051.4111	7729.3625
3053.80888	7716.6625
3056.20519	7702.3625
3058.60005	7690.7625
3060.99345	7644.1625
3063.3854	7624.2625
3065.7759	7594.0625
3068.16494	7569.4625
3070.55254	7536.1625
3072.93868	7510.0625
3075.32338	7503.2625
3077.70662	7477.1625
3080.08842	7444.7625
3082.46878	7437.9625
3084.84769	7415.6625
3087.22515	7422.6625
3089.60118	7432.2625
3091.97576	7410.4625
3094.3489	7425.1625
3096.72061	7402.0625
3099.09087	7417.8625
3101.4597	7370.2625
3103.82709	7378.1625
3106.19305	7353.0625
3108.55757	7352.3625
3110.92066	7329.9625
3113.28232	7314.7625
3115.64255	7280.2625
3118.00134	7253.9625
3120.35871	7249.4625
3122.71466	7234.9625
3125.06917	7228.4625
3127.42226	7187.3625
3129.77393	7210.6625
3132.12417	7210.8625
3134.47299	7179.7625
3136.82039	7195.3625
3139.16636	7185.6625
3141.51092	7158.7625
3143.85406	7180.4625
3146.19579	7155.0625
3148.53609	7148.8625
3150.87499	7159.5625
3153.21246	7142.8625
3155.54853	7137.4625
3157.88318	7132.1625
3160.21642	7127.2625
3162.54826	7129.3625
3164.87868	7125.1625
3167.2077	7122.5625
3169.5353	7124.8625
3171.86151	7108.4625
3174.18631	7129.1625
3176.5097	7098.6625
3178.83169	7118.0625
3181.15228	7108.2625
3183.47147	7090.5625
3185.78926	7092.1625
3188.10565	7078.3625
3190.42065	7090.3625
3192.73424	7097.2625
3195.04645	7089.8625
3197.35725	7080.2625
3199.66667	7086.1625
3201.97469	7084.9625
3204.28132	7069.8625
3206.58656	7078.1625
3208.8904	7073.6625
3211.19287	7060.3625
3213.49394	7053.0625
3215.79363	7049.5625
3218.09193	7072.6625
3220.38884	7078.4625
3222.68438	7071.6625
3224.97853	7051.7625
3227.2713	7070.1625
3229.56269	7034.4625
3231.8527	7051.8625
3234.14133	7030.7625
3236.42858	7038.1625
3238.71446	7042.3625
3240.99896	7005.0625
3243.28209	7022.8625
3245.56384	7014.3625
3247.84423	7006.0625
3250.12324	6992.1625
3252.40088	6966.1625
3254.67715	6977.6625
3256.95205	6961.2625
3259.22558	6934.6625
3261.49775	6943.2625
3263.76855	6896.5625
3266.03799	6886.4625
3268.30606	6866.4625
3270.57277	6850.2625
3272.83812	6865.0625
3275.10211	6839.5625
3277.36474	6825.8625
3279.62601	6835.8625
3281.88593	6849.5625
3284.14448	6850.2625
3286.40168	6861.0625
3288.65753	6846.7625
3290.91202	6844.2625
3293.16516	6821.5625
3295.41695	6788.6625
3297.66738	6765.6625
3299.91647	6701.1625
3302.16421	6677.3625
3304.4106	6641.0625
3306.65564	6609.7625
3308.89933	6563.1625
3311.14169	6539.6625
3313.38269	6470.7625
3315.62236	6431.2625
3317.86068	6384.4625
3320.09766	6302.1625
3322.3333	6267.9625
3324.5676	6275.7625
3326.80056	6164.1625
3329.03219	6120.7625
3331.26248	2.0625
3333.49143	-0.0375
3335.71905	0.6625
