Data from AgNPs_FTO_APTES_UA_50um_CRN_0.1mM_R6G_10uM_NaF_0.1M_Addition_RamanShift__5__15-08-49-228.txt Node

Date: Tue Dec 21 15:08:49 GMT 2021
User: TCL
Spectrometer: QEP01345
Trigger mode: 4
Integration Time (sec): 7.000000E0
Scans to average: 10
Electric dark correction enabled: true
Nonlinearity correction enabled: false
Boxcar width: 0
XAxis mode: Raman Shifts
Number of Pixels in Spectrum: 1044
>>>>>Begin Spectral Data<<<<<
46.04893	-0.2375
50.45542	-1.0375
54.85868	-0.4375
59.25871	-0.2375
63.6555	36.4625
68.04907	44.3625
72.43941	47.4625
76.82654	48.2625
81.21044	53.4625
85.59113	51.8625
89.96862	52.8625
94.34289	55.5625
98.71396	55.1625
103.08183	63.2625
107.4465	65.5625
111.80798	64.6625
116.16626	63.9625
120.52136	62.0625
124.87327	64.0625
129.222	68.0625
133.56755	73.7625
137.90993	80.2625
142.24913	80.4625
146.58517	90.6625
150.91804	101.0625
155.24774	115.0625
159.57429	139.2625
163.89768	180.8625
168.21792	228.4625
172.53501	308.6625
176.84895	421.4625
181.15975	593.0625
185.46741	825.4625
189.77193	1132.2625
194.07331	1524.1625
198.37157	1949.6625
202.6667	2424.0625
206.9587	2896.6625
211.24758	3360.7625
215.53334	3832.8625
219.81599	4312.0625
224.09553	4881.2625
228.37195	5478.2625
232.64527	6151.8625
236.91549	6837.5625
241.18261	7516.0625
245.44663	8118.7625
249.70755	8654.6625
253.96539	9103.1625
258.22014	9443.1625
262.4718	9761.2625
266.72039	9973.3625
270.96589	10095.3625
275.20832	10079.1625
279.44768	10007.0625
283.68397	9845.1625
287.91719	9787.9625
292.14735	9745.2625
296.37445	9781.2625
300.59849	9856.1625
304.81948	9970.0625
309.03742	10024.1625
313.25231	9960.9625
317.46415	9754.2625
321.67296	9412.2625
325.87872	9100.5625
330.08145	8936.7625
334.28114	8883.4625
338.47781	8940.5625
342.67145	9018.2625
346.86207	9172.3625
351.04966	9420.6625
355.23424	9628.8625
359.4158	9826.1625
363.59435	9960.5625
367.76989	10027.7625
371.94243	10091.1625
376.11196	10124.5625
380.27849	10147.2625
384.44203	10174.4625
388.60257	10234.7625
392.76012	10305.3625
396.91468	10413.4625
401.06626	10563.8625
405.21485	10665.2625
409.36047	10620.4625
413.50311	10359.7625
417.64277	10145.9625
421.77947	10014.7625
425.9132	10009.8625
430.04396	10027.7625
434.17176	10057.8625
438.2966	10113.4625
442.41849	10236.1625
446.53742	10469.0625
450.6534	10718.9625
454.76644	10898.2625
458.87653	10970.2625
462.98368	10931.5625
467.08789	10833.5625
471.18916	10698.1625
475.2875	10580.4625
479.38291	10534.9625
483.4754	10497.6625
487.56496	10373.4625
491.6516	10265.1625
495.73531	10119.6625
499.81612	10053.8625
503.89401	10084.7625
507.96899	10126.4625
512.04106	10083.3625
516.11023	10076.9625
520.1765	10017.4625
524.23987	9960.2625
528.30034	9873.7625
532.35792	9762.3625
536.41261	9689.3625
540.46441	9543.2625
544.51333	9502.1625
548.55936	9552.7625
552.60252	9746.6625
556.64279	9996.2625
560.6802	10125.3625
564.71473	10222.4625
568.7464	10372.5625
572.7752	10661.6625
576.80114	10833.4625
580.82422	11005.8625
584.84444	11182.6625
588.86181	11431.7625
592.87633	11654.6625
596.888	11617.1625
600.89682	11430.3625
604.9028	11648.1625
608.90594	12812.6625
612.90624	14378.0625
616.90371	13809.7625
620.89834	11176.3625
624.89015	9852.7625
628.87913	9675.6625
632.86528	9811.3625
636.84862	9957.8625
640.82913	9889.6625
644.80683	9601.5625
648.78172	9317.4625
652.75379	9221.1625
656.72306	9313.4625
660.68952	9459.4625
664.65319	9439.0625
668.61405	9209.5625
672.57211	9127.3625
676.52738	9159.3625
680.47986	9168.6625
684.42955	9134.0625
688.37646	9039.2625
692.32058	9013.8625
696.26192	9071.2625
700.20048	9164.4625
704.13626	9229.1625
708.06928	9244.7625
711.99952	9185.3625
715.927	9170.7625
719.85171	9151.5625
723.77365	9152.8625
727.69284	9086.2625
731.60928	8973.8625
735.52295	8920.1625
739.43388	8928.4625
743.34206	8943.7625
747.24749	8968.1625
751.15017	9062.5625
755.05012	9178.4625
758.94733	9460.8625
762.8418	10036.3625
766.73354	11018.2625
770.62254	12025.6625
774.50882	12439.8625
778.39237	11903.6625
782.27321	10804.4625
786.15132	9853.3625
790.02671	9247.4625
793.89938	8969.6625
797.76935	8853.9625
801.6366	8795.6625
805.50115	8758.7625
809.36299	8728.9625
813.22213	8670.2625
817.07857	8634.7625
820.93231	8620.6625
824.78336	8577.7625
828.63172	8509.6625
832.47738	8481.6625
836.32036	8467.4625
840.16066	8458.6625
843.99827	8429.0625
847.8332	8405.6625
851.66546	8374.7625
855.49504	8357.0625
859.32195	8336.0625
863.1462	8335.4625
866.96777	8320.9625
870.78668	8292.0625
874.60293	8307.9625
878.41652	8321.4625
882.22745	8359.6625
886.03573	8392.2625
889.84136	8408.8625
893.64433	8384.9625
897.44466	8337.5625
901.24235	8272.1625
905.0374	8228.8625
908.8298	8182.3625
912.61957	8163.3625
916.40671	8193.2625
920.19121	8290.5625
923.97308	8362.5625
927.75233	8380.7625
931.52895	8357.0625
935.30295	8234.1625
939.07433	8063.7625
942.84309	7908.8625
946.60924	7813.2625
950.37278	7763.5625
954.13371	7744.4625
957.89203	7727.0625
961.64774	7718.1625
965.40086	7699.4625
969.15137	7659.5625
972.89929	7645.5625
976.64461	7585.1625
980.38733	7578.3625
984.12747	7583.1625
987.86502	7607.8625
991.59999	7630.2625
995.33237	7710.0625
999.06217	7833.8625
1002.78939	7980.1625
1006.51404	8098.2625
1010.23611	8247.9625
1013.95561	8327.4625
1017.67255	8377.4625
1021.38692	8311.1625
1025.09872	8198.8625
1028.80796	8078.2625
1032.51465	8083.3625
1036.21877	8141.4625
1039.92035	8177.5625
1043.61937	8234.3625
1047.31584	8207.5625
1051.00976	8187.0625
1054.70114	8173.0625
1058.38998	8153.4625
1062.07627	8243.7625
1065.76003	8300.4625
1069.44126	8408.6625
1073.11995	8539.7625
1076.79611	8634.0625
1080.46974	8712.4625
1084.14085	8769.5625
1087.80943	8844.1625
1091.47549	8920.3625
1095.13903	8924.6625
1098.80005	8833.3625
1102.45857	8586.0625
1106.11456	8427.3625
1109.76805	8296.1625
1113.41903	8365.7625
1117.06751	8478.4625
1120.71348	8660.1625
1124.35696	8870.1625
1127.99793	9080.9625
1131.63641	9211.4625
1135.2724	9142.5625
1138.90589	8996.8625
1142.5369	8871.3625
1146.16542	8829.7625
1149.79145	8825.6625
1153.415	8820.8625
1157.03607	8885.7625
1160.65467	9061.8625
1164.27079	9404.0625
1167.88443	9905.5625
1171.49561	10560.5625
1175.10432	11422.8625
1178.71056	12526.8625
1182.31434	13561.7625
1185.91565	13958.1625
1189.51451	13807.8625
1193.11091	13279.6625
1196.70485	12644.9625
1200.29634	12058.4625
1203.88538	11623.2625
1207.47197	11232.5625
1211.05612	10880.3625
1214.63782	10580.3625
1218.21708	10305.6625
1221.79391	10104.0625
1225.36829	10000.5625
1228.94024	9914.1625
1232.50976	9837.7625
1236.07685	9717.4625
1239.6415	9606.5625
1243.20374	9619.4625
1246.76355	9648.3625
1250.32093	9764.1625
1253.8759	9936.8625
1257.42845	10194.1625
1260.97859	10506.7625
1264.52631	10797.2625
1268.07163	11071.4625
1271.61453	11363.3625
1275.15503	11638.5625
1278.69312	11922.6625
1282.22882	12214.5625
1285.76211	12598.1625
1289.29301	13090.7625
1292.82151	13695.6625
1296.34761	14405.1625
1299.87133	15208.9625
1303.39266	16116.6625
1306.9116	17096.9625
1310.42815	18035.9625
1313.94233	18579.9625
1317.45412	18430.2625
1320.96354	17934.3625
1324.47058	17319.8625
1327.97525	16798.5625
1331.47754	16371.9625
1334.97747	16134.5625
1338.47502	15940.8625
1341.97022	15831.4625
1345.46305	15779.6625
1348.95352	15893.3625
1352.44163	16253.1625
1355.92738	16984.8625
1359.41078	18131.3625
1362.89183	19392.0625
1366.37053	19396.5625
1369.84688	17627.0625
1373.32088	15306.6625
1376.79254	13679.7625
1380.26186	12942.0625
1383.72883	12709.2625
1387.19347	12561.7625
1390.65578	12356.3625
1394.11575	12212.0625
1397.57339	12229.6625
1401.0287	12306.0625
1404.48168	12319.6625
1407.93234	12182.4625
1411.38068	11921.8625
1414.82669	11574.9625
1418.27039	11155.9625
1421.71177	10792.7625
1425.15083	10413.0625
1428.58758	10210.3625
1432.02203	10252.3625
1435.45416	10391.1625
1438.88399	10659.4625
1442.31151	10799.6625
1445.73673	10929.3625
1449.15965	11123.2625
1452.58027	11184.2625
1455.9986	11233.6625
1459.41463	11311.3625
1462.82837	11423.8625
1466.23982	11614.2625
1469.64898	11785.7625
1473.05586	11929.6625
1476.46045	11977.2625
1479.86276	12039.1625
1483.26279	11980.3625
1486.66054	12085.7625
1490.05602	12271.5625
1493.44922	12575.1625
1496.84016	13030.6625
1500.22882	13703.7625
1503.61521	14709.0625
1506.99934	15737.4625
1510.38121	16668.5625
1513.76081	16889.7625
1517.13816	16266.4625
1520.51324	15115.8625
1523.88607	14065.7625
1527.25665	13365.0625
1530.62498	13014.1625
1533.99105	12772.2625
1537.35488	12558.2625
1540.71647	12232.0625
1544.07581	11862.0625
1547.4329	11518.6625
1550.78776	11246.6625
1554.14038	11068.7625
1557.49077	11043.0625
1560.83892	11098.0625
1564.18484	11256.4625
1567.52853	11446.7625
1570.86999	11674.1625
1574.20922	11886.9625
1577.54624	12053.0625
1580.88103	11926.4625
1584.2136	11682.1625
1587.54395	11629.0625
1590.87208	11864.6625
1594.19801	12385.5625
1597.52172	12987.6625
1600.84321	13257.3625
1604.16251	12789.8625
1607.47959	11901.4625
1610.79447	10948.1625
1614.10715	10066.1625
1617.41763	9356.6625
1620.7259	8851.4625
1624.03199	8619.6625
1627.33587	8573.2625
1630.63757	8740.2625
1633.93707	9198.0625
1637.23439	10010.0625
1640.52951	11286.8625
1643.82246	12903.6625
1647.11321	14514.2625
1650.40179	15293.2625
1653.68819	14702.5625
1656.97241	12942.0625
1660.25446	10962.6625
1663.53433	9434.1625
1666.81203	8449.4625
1670.08756	7814.9625
1673.36092	7434.8625
1676.63211	7183.0625
1679.90115	7007.3625
1683.16801	6876.6625
1686.43272	6778.8625
1689.69527	6687.4625
1692.95567	6630.0625
1696.2139	6579.8625
1699.46999	6532.7625
1702.72392	6484.3625
1705.97571	6422.8625
1709.22535	6372.6625
1712.47284	6327.0625
1715.71819	6290.4625
1718.96139	6267.2625
1722.20246	6240.8625
1725.44139	6212.7625
1728.67818	6160.6625
1731.91284	6106.7625
1735.14537	6054.0625
1738.37576	6045.1625
1741.60403	6020.3625
1744.83017	6017.2625
1748.05418	5983.6625
1751.27607	5968.6625
1754.49584	6002.8625
1757.71349	6014.7625
1760.92903	6009.1625
1764.14244	5961.2625
1767.35375	5950.5625
1770.56294	5913.8625
1773.77002	5873.2625
1776.97499	5838.1625
1780.17785	5825.9625
1783.37861	5818.2625
1786.57727	5785.8625
1789.77382	5775.1625
1792.96828	5749.6625
1796.16064	5721.8625
1799.3509	5705.7625
1802.53907	5694.1625
1805.72514	5662.0625
1808.90913	5658.4625
1812.09102	5641.9625
1815.27083	5603.7625
1818.44856	5602.8625
1821.6242	5595.9625
1824.79776	5576.6625
1827.96924	5580.2625
1831.13864	5556.4625
1834.30597	5553.5625
1837.47122	5542.6625
1840.6344	5543.7625
1843.7955	5528.2625
1846.95454	5530.0625
1850.11151	5529.7625
1853.26642	5488.1625
1856.41926	5513.0625
1859.57004	5504.7625
1862.71876	5483.0625
1865.86542	5473.7625
1869.01003	5472.8625
1872.15258	5455.8625
1875.29308	5471.2625
1878.43152	5452.4625
1881.56792	5436.8625
1884.70227	5442.9625
1887.83457	5431.5625
1890.96482	5420.8625
1894.09304	5403.8625
1897.21921	5386.8625
1900.34335	5387.6625
1903.46544	5371.6625
1906.58551	5363.0625
1909.70353	5352.4625
1912.81953	5350.2625
1915.93349	5333.6625
1919.04543	5327.0625
1922.15534	5297.0625
1925.26322	5297.6625
1928.36908	5272.8625
1931.47292	5259.3625
1934.57473	5246.4625
1937.67453	5214.6625
1940.77232	5197.9625
1943.86808	5193.9625
1946.96184	5185.0625
1950.05358	5171.7625
1953.14331	5142.2625
1956.23103	5129.5625
1959.31675	5107.1625
1962.40046	5092.9625
1965.48217	5092.0625
1968.56188	5063.1625
1971.63959	5064.0625
1974.7153	5039.9625
1977.78901	5013.0625
1980.86073	4992.4625
1983.93046	4971.8625
1986.99819	4970.9625
1990.06394	4950.0625
1993.1277	4937.1625
1996.18947	4891.2625
1999.24925	4887.3625
2002.30706	4892.3625
2005.36288	4871.8625
2008.41672	4838.4625
2011.46859	4828.3625
2014.51848	4823.5625
2017.56639	4788.7625
2020.61233	4778.6625
2023.6563	4767.0625
2026.6983	4749.5625
2029.73833	4726.0625
2032.7764	4715.1625
2035.8125	4714.8625
2038.84664	4707.2625
2041.87881	4705.8625
2044.90903	4692.8625
2047.93729	4686.1625
2050.96359	4671.1625
2053.98794	4665.9625
2057.01034	4657.5625
2060.03078	4655.3625
2063.04927	4644.7625
2066.06582	4634.5625
2069.08042	4624.3625
2072.09307	4627.9625
2075.10378	4609.8625
2078.11255	4625.6625
2081.11938	4631.2625
2084.12426	4626.5625
2087.12722	4616.1625
2090.12824	4607.1625
2093.12732	4613.9625
2096.12447	4602.1625
2099.11969	4597.3625
2102.11299	4593.2625
2105.10435	4601.8625
2108.09379	4603.7625
2111.08131	4610.8625
2114.0669	4600.6625
2117.05057	4604.4625
2120.03233	4612.7625
2123.01216	4605.5625
2125.99008	4612.0625
2128.96609	4603.7625
2131.94018	4602.3625
2134.91236	4588.0625
2137.88263	4593.3625
2140.851	4596.4625
2143.81746	4600.3625
2146.78201	4591.5625
2149.74466	4596.0625
2152.7054	4593.6625
2155.66425	4569.6625
2158.6212	4574.5625
2161.57625	4576.7625
2164.52941	4568.6625
2167.48067	4561.5625
2170.43004	4562.9625
2173.37752	4549.1625
2176.32311	4558.0625
2179.26681	4548.3625
2182.20863	4543.9625
2185.14856	4550.8625
2188.08661	4560.3625
2191.02278	4550.6625
2193.95707	4543.9625
2196.88948	4515.8625
2199.82001	4528.7625
2202.74867	4530.1625
2205.67545	4507.7625
2208.60037	4500.0625
2211.52341	4505.2625
2214.44458	4496.3625
2217.36388	4473.7625
2220.28132	4467.0625
2223.1969	4464.5625
2226.11061	4446.4625
2229.02246	4440.7625
2231.93245	4424.8625
2234.84058	4423.0625
2237.74686	4402.0625
2240.65128	4404.3625
2243.55385	4397.7625
2246.45456	4392.8625
2249.35343	4382.6625
2252.25044	4368.3625
2255.14561	4370.3625
2258.03893	4364.3625
2260.93041	4378.2625
2263.82004	4349.7625
2266.70783	4329.7625
2269.59378	4328.6625
2272.4779	4321.8625
2275.36017	4300.0625
2278.24061	4291.2625
2281.11922	4293.3625
2283.996	4266.0625
2286.87094	4265.2625
2289.74405	4256.2625
2292.61534	4248.6625
2295.4848	4239.9625
2298.35243	4231.3625
2301.21824	4231.9625
2304.08223	4226.1625
2306.94439	4215.9625
2309.80474	4210.8625
2312.66327	4225.0625
2315.51999	4200.3625
2318.37489	4199.4625
2321.22797	4192.0625
2324.07925	4190.4625
2326.92871	4187.0625
2329.77637	4192.0625
2332.62222	4175.9625
2335.46626	4167.7625
2338.3085	4158.3625
2341.14893	4147.9625
2343.98756	4151.6625
2346.8244	4155.9625
2349.65943	4158.2625
2352.49267	4145.7625
2355.32411	4145.7625
2358.15376	4152.0625
2360.98161	4145.3625
2363.80768	4144.0625
2366.63195	4154.8625
2369.45444	4128.4625
2372.27514	4130.9625
2375.09405	4115.6625
2377.91118	4106.8625
2380.72652	4103.0625
2383.54009	4096.4625
2386.35187	4065.9625
2389.16188	4060.2625
2391.97011	4066.5625
2394.77657	4039.8625
2397.58125	4032.9625
2400.38416	4034.1625
2403.18529	4014.0625
2405.98466	4008.5625
2408.78226	4017.0625
2411.57809	4001.8625
2414.37216	3996.0625
2417.16446	3986.3625
2419.955	3982.3625
2422.74378	3986.5625
2425.5308	3971.1625
2428.31606	3961.4625
2431.09956	3965.9625
2433.88131	3963.0625
2436.6613	3957.1625
2439.43954	3952.3625
2442.21603	3947.8625
2444.99077	3945.0625
2447.76377	3942.8625
2450.53501	3959.2625
2453.30451	3948.2625
2456.07226	3942.6625
2458.83827	3953.3625
2461.60254	3931.0625
2464.36507	3937.5625
2467.12586	3931.3625
2469.88492	3933.9625
2472.64224	3928.2625
2475.39782	3940.2625
2478.15167	3939.8625
2480.90379	3930.7625
2483.65417	3941.1625
2486.40283	3939.5625
2489.14976	3928.9625
2491.89497	3929.3625
2494.63845	3944.1625
2497.3802	3945.5625
2500.12024	3938.1625
2502.85855	3917.8625
2505.59514	3905.9625
2508.33002	3911.2625
2511.06318	3894.1625
2513.79462	3875.2625
2516.52435	3889.4625
2519.25237	3884.7625
2521.97867	3872.8625
2524.70327	3868.4625
2527.42616	3856.9625
2530.14734	3834.9625
2532.86681	3843.5625
2535.58458	3839.3625
2538.30065	3823.5625
2541.01501	3841.7625
2543.72768	3828.6625
2546.43864	3824.3625
2549.14791	3803.2625
2551.85548	3800.1625
2554.56136	3814.9625
2557.26554	3805.6625
2559.96803	3804.5625
2562.66883	3776.4625
2565.36794	3787.0625
2568.06536	3785.1625
2570.7611	3780.2625
2573.45514	3770.0625
2576.14751	3782.8625
2578.83819	3767.5625
2581.52719	3762.7625
2584.21451	3748.6625
2586.90015	3754.4625
2589.58411	3740.8625
2592.2664	3734.5625
2594.94701	3748.7625
2597.62594	3720.1625
2600.30321	3711.2625
2602.9788	3735.2625
2605.65273	3715.6625
2608.32498	3714.1625
2610.99557	3707.8625
2613.66449	3706.1625
2616.33175	3699.2625
2618.99734	3697.1625
2621.66128	3712.6625
2624.32355	3694.5625
2626.98416	3685.9625
2629.64311	3680.3625
2632.30041	3668.4625
2634.95605	3675.3625
2637.61004	3661.5625
2640.26238	3661.9625
2642.91306	3654.5625
2645.56209	3650.7625
2648.20948	3654.4625
2650.85521	3658.9625
2653.4993	3648.5625
2656.14175	3657.9625
2658.78255	3661.5625
2661.42171	3667.4625
2664.05923	3656.6625
2666.6951	3667.8625
2669.32934	3649.1625
2671.96194	3659.4625
2674.59291	3662.8625
2677.22224	3662.8625
2679.84993	3661.5625
2682.476	3649.8625
2685.10043	3642.3625
2687.72324	3642.5625
2690.34441	3646.8625
2692.96396	3633.0625
2695.58188	3651.9625
2698.19818	3654.9625
2700.81285	3652.4625
2703.4259	3669.7625
2706.03733	3715.0625
2708.64714	3674.4625
2711.25533	3637.8625
2713.86191	3654.6625
2716.46687	3670.2625
2719.07021	3648.4625
2721.67194	3649.1625
2724.27206	3631.8625
2726.87057	3643.6625
2729.46747	3645.8625
2732.06276	3653.6625
2734.65644	3634.1625
2737.24852	3650.8625
2739.83899	3622.1625
2742.42786	3634.6625
2745.01513	3629.1625
2747.60079	3636.3625
2750.18486	3627.7625
2752.76733	3609.8625
2755.3482	3618.7625
2757.92747	3612.5625
2760.50515	3605.6625
2763.08123	3607.7625
2765.65573	3607.7625
2768.22863	3605.3625
2770.79994	3583.5625
2773.36967	3596.4625
2775.9378	3593.3625
2778.50435	3599.1625
2781.06932	3583.8625
2783.6327	3581.3625
2786.1945	3589.6625
2788.75471	3583.4625
2791.31335	3574.8625
2793.87041	3564.3625
2796.42589	3555.8625
2798.97979	3547.6625
2801.53212	3547.1625
2804.08288	3546.3625
2806.63206	3545.5625
2809.17967	3532.2625
2811.72571	3519.3625
2814.27018	3524.9625
2816.81308	3526.2625
2819.35442	3526.7625
2821.89419	3515.1625
2824.43239	3510.8625
2826.96904	3517.9625
2829.50412	3519.8625
2832.03763	3499.0625
2834.56959	3504.0625
2837.1	3508.2625
2839.62884	3506.4625
2842.15613	3507.9625
2844.68186	3513.0625
2847.20604	3533.9625
2849.72867	3535.5625
2852.24974	3537.1625
2854.76927	3547.0625
2857.28724	3554.2625
2859.80367	3539.3625
2862.31855	3520.8625
2864.83189	3515.3625
2867.34368	3520.4625
2869.85393	3533.7625
2872.36264	3499.6625
2874.8698	3507.6625
2877.37543	3488.4625
2879.87952	3508.1625
2882.38207	3505.0625
2884.88308	3504.1625
2887.38256	3494.0625
2889.88051	3506.2625
2892.37692	3512.5625
2894.8718	3506.1625
2897.36515	3510.8625
2899.85698	3513.8625
2902.34727	3529.2625
2904.83604	3508.9625
2907.32328	3520.5625
2909.809	3525.4625
2912.29319	3529.5625
2914.77587	3533.3625
2917.25702	3526.4625
2919.73665	3531.6625
2922.21476	3531.2625
2924.69136	3520.5625
2927.16644	3538.5625
2929.64	3512.2625
2932.11205	3532.7625
2934.58258	3508.3625
2937.05161	3517.5625
2939.51912	3513.7625
2941.98513	3494.4625
2944.44962	3489.4625
2946.91261	3479.5625
2949.37409	3483.5625
2951.83407	3485.2625
2954.29254	3470.7625
2956.74951	3457.4625
2959.20498	3458.1625
2961.65895	3449.2625
2964.11142	3433.3625
2966.56239	3422.8625
2969.01186	3427.6625
2971.45984	3427.3625
2973.90632	3407.5625
2976.35131	3384.9625
2978.7948	3387.6625
2981.23681	3376.5625
2983.67732	3362.6625
2986.11635	3356.8625
2988.55388	3348.4625
2990.98993	3339.6625
2993.4245	3335.4625
2995.85758	3317.9625
2998.28917	3326.4625
3000.71928	3325.8625
3003.14791	3309.7625
3005.57506	3328.0625
3008.00073	3306.6625
3010.42493	3306.7625
3012.84764	3286.1625
3015.26888	3288.5625
3017.68865	3304.7625
3020.10694	3268.9625
3022.52376	3288.7625
3024.9391	3279.8625
3027.35298	3265.3625
3029.76539	3268.6625
3032.17632	3266.2625
3034.5858	3248.1625
3036.9938	3250.9625
3039.40034	3248.0625
3041.80542	3241.6625
3044.20903	3223.4625
3046.61118	3236.5625
3049.01187	3233.0625
3051.4111	3226.2625
3053.80888	3222.3625
3056.20519	3217.7625
3058.60005	3214.8625
3060.99345	3208.8625
3063.3854	3198.0625
3065.7759	3208.0625
3068.16494	3197.0625
3070.55254	3179.9625
3072.93868	3184.5625
3075.32338	3175.4625
3077.70662	3170.3625
3080.08842	3165.7625
3082.46878	3173.1625
3084.84769	3159.0625
3087.22515	3165.9625
3089.60118	3166.8625
3091.97576	3157.7625
3094.3489	3163.8625
3096.72061	3158.2625
3099.09087	3161.1625
3101.4597	3156.6625
3103.82709	3159.4625
3106.19305	3160.1625
3108.55757	3152.4625
3110.92066	3151.5625
3113.28232	3143.7625
3115.64255	3136.6625
3118.00134	3136.7625
3120.35871	3128.6625
3122.71466	3123.3625
3125.06917	3134.9625
3127.42226	3120.5625
3129.77393	3125.6625
3132.12417	3142.9625
3134.47299	3140.4625
3136.82039	3146.6625
3139.16636	3136.9625
3141.51092	3150.6625
3143.85406	3147.9625
3146.19579	3152.2625
3148.53609	3153.2625
3150.87499	3158.5625
3153.21246	3160.5625
3155.54853	3167.9625
3157.88318	3165.6625
3160.21642	3163.0625
3162.54826	3164.9625
3164.87868	3178.8625
3167.2077	3175.2625
3169.5353	3184.9625
3171.86151	3178.9625
3174.18631	3177.4625
3176.5097	3185.9625
3178.83169	3187.5625
3181.15228	3198.1625
3183.47147	3179.8625
3185.78926	3179.2625
3188.10565	3175.4625
3190.42065	3183.6625
3192.73424	3184.3625
3195.04645	3182.0625
3197.35725	3185.6625
3199.66667	3187.9625
3201.97469	3186.0625
3204.28132	3187.2625
3206.58656	3205.2625
3208.8904	3197.0625
3211.19287	3201.7625
3213.49394	3208.5625
3215.79363	3208.8625
3218.09193	3206.0625
3220.38884	3206.1625
3222.68438	3226.3625
3224.97853	3211.6625
3227.2713	3209.5625
3229.56269	3206.4625
3231.8527	3207.3625
3234.14133	3205.2625
3236.42858	3201.9625
3238.71446	3201.8625
3240.99896	3181.4625
3243.28209	3200.8625
3245.56384	3187.8625
3247.84423	3201.0625
3250.12324	3180.8625
3252.40088	3176.8625
3254.67715	3172.9625
3256.95205	3161.8625
3259.22558	3168.2625
3261.49775	3156.9625
3263.76855	3166.5625
3266.03799	3146.0625
3268.30606	3150.6625
3270.57277	3143.6625
3272.83812	3134.5625
3275.10211	3128.7625
3277.36474	3124.2625
3279.62601	3132.9625
3281.88593	3122.4625
3284.14448	3126.8625
3286.40168	3127.3625
3288.65753	3131.0625
3290.91202	3123.4625
3293.16516	3117.4625
3295.41695	3099.7625
3297.66738	3094.3625
3299.91647	3085.6625
3302.16421	3048.8625
3304.4106	3043.9625
3306.65564	3031.3625
3308.89933	3013.4625
3311.14169	3003.1625
3313.38269	2978.5625
3315.62236	2970.5625
3317.86068	2948.2625
3320.09766	2910.4625
3322.3333	2892.2625
3324.5676	2900.1625
3326.80056	2846.8625
3329.03219	2829.7625
3331.26248	1.3625
3333.49143	-0.3375
3335.71905	-0.0375
