Data from AgNPs_FTO_APTES_UA_0um_CRN_0.1mM_R6G_10uM_NaF_0.1M_Addition_RamanShift__7__10-19-28-897.txt Node

Date: Tue Dec 21 10:19:28 GMT 2021
User: TCL
Spectrometer: QEP01345
Trigger mode: 4
Integration Time (sec): 7.000000E0
Scans to average: 10
Electric dark correction enabled: true
Nonlinearity correction enabled: false
Boxcar width: 0
XAxis mode: Raman Shifts
Number of Pixels in Spectrum: 1044
>>>>>Begin Spectral Data<<<<<
46.04893	0.0625
50.45542	0.3625
54.85868	-0.5375
59.25871	-0.1375
63.6555	17.1625
68.04907	23.1625
72.43941	24.4625
76.82654	23.9625
81.21044	29.7625
85.59113	29.2625
89.96862	32.1625
94.34289	31.6625
98.71396	31.6625
103.08183	32.9625
107.4465	35.0625
111.80798	35.4625
116.16626	33.3625
120.52136	32.9625
124.87327	30.3625
129.222	28.7625
133.56755	32.6625
137.90993	36.5625
142.24913	35.9625
146.58517	35.0625
150.91804	38.2625
155.24774	39.3625
159.57429	45.3625
163.89768	57.7625
168.21792	69.1625
172.53501	83.3625
176.84895	107.9625
181.15975	145.0625
185.46741	195.5625
189.77193	262.3625
194.07331	362.1625
198.37157	474.5625
202.6667	602.8625
206.9587	749.1625
211.24758	892.8625
215.53334	1040.4625
219.81599	1197.0625
224.09553	1339.5625
228.37195	1508.2625
232.64527	1670.5625
236.91549	1809.6625
241.18261	1928.3625
245.44663	2043.3625
249.70755	2125.7625
253.96539	2191.8625
258.22014	2227.9625
262.4718	2243.4625
266.72039	2230.1625
270.96589	2188.9625
275.20832	2136.9625
279.44768	2056.6625
283.68397	1967.7625
287.91719	1900.2625
292.14735	1820.4625
296.37445	1759.6625
300.59849	1706.8625
304.81948	1667.2625
309.03742	1630.5625
313.25231	1593.8625
317.46415	1555.2625
321.67296	1523.1625
325.87872	1498.0625
330.08145	1475.1625
334.28114	1475.7625
338.47781	1461.4625
342.67145	1466.7625
346.86207	1467.3625
351.04966	1471.8625
355.23424	1480.0625
359.4158	1485.8625
363.59435	1467.6625
367.76989	1478.6625
371.94243	1474.1625
376.11196	1473.0625
380.27849	1469.9625
384.44203	1459.4625
388.60257	1464.4625
392.76012	1468.7625
396.91468	1471.8625
401.06626	1465.5625
405.21485	1478.0625
409.36047	1475.2625
413.50311	1472.4625
417.64277	1471.5625
421.77947	1480.4625
425.9132	1483.7625
430.04396	1495.9625
434.17176	1516.7625
438.2966	1530.0625
442.41849	1539.7625
446.53742	1559.9625
450.6534	1584.1625
454.76644	1596.2625
458.87653	1602.8625
462.98368	1613.5625
467.08789	1611.3625
471.18916	1616.2625
475.2875	1599.4625
479.38291	1606.5625
483.4754	1598.0625
487.56496	1593.8625
491.6516	1603.0625
495.73531	1598.0625
499.81612	1595.5625
503.89401	1610.8625
507.96899	1598.7625
512.04106	1587.9625
516.11023	1590.4625
520.1765	1578.7625
524.23987	1567.1625
528.30034	1552.4625
532.35792	1550.5625
536.41261	1546.6625
540.46441	1550.3625
544.51333	1546.7625
548.55936	1541.8625
552.60252	1541.7625
556.64279	1551.2625
560.6802	1553.3625
564.71473	1557.3625
568.7464	1565.3625
572.7752	1568.4625
576.80114	1564.6625
580.82422	1562.6625
584.84444	1549.3625
588.86181	1538.0625
592.87633	1534.3625
596.888	1543.5625
600.89682	1551.6625
604.9028	1574.5625
608.90594	1610.9625
612.90624	1696.0625
616.90371	1710.6625
620.89834	1646.4625
624.89015	1615.8625
628.87913	1599.3625
632.86528	1620.6625
636.84862	1626.5625
640.82913	1658.1625
644.80683	1688.4625
648.78172	1723.0625
652.75379	1733.5625
656.72306	1721.3625
660.68952	1708.5625
664.65319	1707.7625
668.61405	1734.9625
672.57211	1823.9625
676.52738	1951.5625
680.47986	2071.1625
684.42955	2138.3625
688.37646	2118.0625
692.32058	2021.4625
696.26192	1927.3625
700.20048	1858.4625
704.13626	1813.2625
708.06928	1782.8625
711.99952	1746.1625
715.927	1740.4625
719.85171	1731.2625
723.77365	1731.4625
727.69284	1745.3625
731.60928	1755.6625
735.52295	1746.6625
739.43388	1728.0625
743.34206	1697.8625
747.24749	1693.0625
751.15017	1695.5625
755.05012	1708.6625
758.94733	1730.6625
762.8418	1718.2625
766.73354	1736.8625
770.62254	1757.6625
774.50882	1769.1625
778.39237	1748.9625
782.27321	1700.7625
786.15132	1665.1625
790.02671	1650.9625
793.89938	1652.8625
797.76935	1651.4625
801.6366	1657.3625
805.50115	1663.5625
809.36299	1666.6625
813.22213	1658.5625
817.07857	1647.2625
820.93231	1643.8625
824.78336	1637.7625
828.63172	1631.1625
832.47738	1621.8625
836.32036	1618.3625
840.16066	1615.0625
843.99827	1602.8625
847.8332	1609.7625
851.66546	1602.4625
855.49504	1589.9625
859.32195	1593.0625
863.1462	1601.1625
866.96777	1612.7625
870.78668	1623.3625
874.60293	1641.1625
878.41652	1633.3625
882.22745	1639.5625
886.03573	1645.5625
889.84136	1650.9625
893.64433	1663.1625
897.44466	1672.0625
901.24235	1676.5625
905.0374	1688.4625
908.8298	1701.4625
912.61957	1730.5625
916.40671	1767.1625
920.19121	1820.8625
923.97308	1887.3625
927.75233	1934.7625
931.52895	1960.3625
935.30295	1957.3625
939.07433	1932.2625
942.84309	1884.0625
946.60924	1846.9625
950.37278	1809.5625
954.13371	1787.6625
957.89203	1760.8625
961.64774	1744.1625
965.40086	1725.8625
969.15137	1707.2625
972.89929	1691.6625
976.64461	1672.5625
980.38733	1665.7625
984.12747	1647.6625
987.86502	1641.8625
991.59999	1623.3625
995.33237	1628.2625
999.06217	1637.1625
1002.78939	1635.7625
1006.51404	1632.8625
1010.23611	1648.3625
1013.95561	1657.7625
1017.67255	1654.7625
1021.38692	1653.0625
1025.09872	1672.1625
1028.80796	1672.2625
1032.51465	1681.0625
1036.21877	1693.3625
1039.92035	1707.4625
1043.61937	1704.1625
1047.31584	1709.8625
1051.00976	1718.1625
1054.70114	1720.7625
1058.38998	1698.3625
1062.07627	1683.8625
1065.76003	1653.0625
1069.44126	1622.8625
1073.11995	1602.4625
1076.79611	1585.0625
1080.46974	1560.4625
1084.14085	1550.3625
1087.80943	1544.5625
1091.47549	1535.6625
1095.13903	1523.7625
1098.80005	1516.4625
1102.45857	1503.8625
1106.11456	1491.5625
1109.76805	1490.0625
1113.41903	1497.4625
1117.06751	1508.9625
1120.71348	1517.9625
1124.35696	1532.7625
1127.99793	1551.4625
1131.63641	1570.4625
1135.2724	1575.3625
1138.90589	1568.4625
1142.5369	1561.3625
1146.16542	1548.4625
1149.79145	1553.6625
1153.415	1551.0625
1157.03607	1542.0625
1160.65467	1524.9625
1164.27079	1541.9625
1167.88443	1551.7625
1171.49561	1559.8625
1175.10432	1570.8625
1178.71056	1604.7625
1182.31434	1633.6625
1185.91565	1640.7625
1189.51451	1652.1625
1193.11091	1639.9625
1196.70485	1612.0625
1200.29634	1605.7625
1203.88538	1588.8625
1207.47197	1584.1625
1211.05612	1579.3625
1214.63782	1567.7625
1218.21708	1562.7625
1221.79391	1581.1625
1225.36829	1585.7625
1228.94024	1601.2625
1232.50976	1604.6625
1236.07685	1622.4625
1239.6415	1637.9625
1243.20374	1642.4625
1246.76355	1662.0625
1250.32093	1668.1625
1253.8759	1682.8625
1257.42845	1691.0625
1260.97859	1714.6625
1264.52631	1725.1625
1268.07163	1722.6625
1271.61453	1744.5625
1275.15503	1745.7625
1278.69312	1761.6625
1282.22882	1782.4625
1285.76211	1790.0625
1289.29301	1831.0625
1292.82151	1855.7625
1296.34761	1880.0625
1299.87133	1910.0625
1303.39266	1938.8625
1306.9116	1981.9625
1310.42815	2027.3625
1313.94233	2053.3625
1317.45412	2052.0625
1320.96354	2018.1625
1324.47058	2000.2625
1327.97525	1978.4625
1331.47754	1964.4625
1334.97747	1977.0625
1338.47502	1988.5625
1341.97022	2029.8625
1345.46305	2061.0625
1348.95352	2121.3625
1352.44163	2179.8625
1355.92738	2246.9625
1359.41078	2321.4625
1362.89183	2404.2625
1366.37053	2428.0625
1369.84688	2380.3625
1373.32088	2305.1625
1376.79254	2237.2625
1380.26186	2204.1625
1383.72883	2168.5625
1387.19347	2152.2625
1390.65578	2137.8625
1394.11575	2118.3625
1397.57339	2096.3625
1401.0287	2102.4625
1404.48168	2104.8625
1407.93234	2117.2625
1411.38068	2137.0625
1414.82669	2165.3625
1418.27039	2197.7625
1421.71177	2205.1625
1425.15083	2195.2625
1428.58758	2138.0625
1432.02203	2082.9625
1435.45416	2040.7625
1438.88399	2010.9625
1442.31151	1983.0625
1445.73673	1998.0625
1449.15965	1989.0625
1452.58027	1976.5625
1455.9986	1979.7625
1459.41463	1963.8625
1462.82837	1963.7625
1466.23982	1957.5625
1469.64898	1955.6625
1473.05586	1952.8625
1476.46045	1927.7625
1479.86276	1909.2625
1483.26279	1898.3625
1486.66054	1887.7625
1490.05602	1880.4625
1493.44922	1864.8625
1496.84016	1872.7625
1500.22882	1877.9625
1503.61521	1906.6625
1506.99934	1944.3625
1510.38121	1977.9625
1513.76081	1995.7625
1517.13816	1961.1625
1520.51324	1918.3625
1523.88607	1859.9625
1527.25665	1834.1625
1530.62498	1805.9625
1533.99105	1796.0625
1537.35488	1785.5625
1540.71647	1792.9625
1544.07581	1782.3625
1547.4329	1792.3625
1550.78776	1785.7625
1554.14038	1800.9625
1557.49077	1794.9625
1560.83892	1781.8625
1564.18484	1775.4625
1567.52853	1783.8625
1570.86999	1771.7625
1574.20922	1763.2625
1577.54624	1744.6625
1580.88103	1726.8625
1584.2136	1686.4625
1587.54395	1662.9625
1590.87208	1655.0625
1594.19801	1636.3625
1597.52172	1632.7625
1600.84321	1627.1625
1604.16251	1633.7625
1607.47959	1608.9625
1610.79447	1602.6625
1614.10715	1588.8625
1617.41763	1585.4625
1620.7259	1579.3625
1624.03199	1582.5625
1627.33587	1580.7625
1630.63757	1570.7625
1633.93707	1578.4625
1637.23439	1570.5625
1640.52951	1583.7625
1643.82246	1589.8625
1647.11321	1594.2625
1650.40179	1605.9625
1653.68819	1592.5625
1656.97241	1547.0625
1660.25446	1496.3625
1663.53433	1450.0625
1666.81203	1418.5625
1670.08756	1379.3625
1673.36092	1353.4625
1676.63211	1328.9625
1679.90115	1298.1625
1683.16801	1280.6625
1686.43272	1252.8625
1689.69527	1227.7625
1692.95567	1209.6625
1696.2139	1194.7625
1699.46999	1170.5625
1702.72392	1155.5625
1705.97571	1145.1625
1709.22535	1140.2625
1712.47284	1133.2625
1715.71819	1125.0625
1718.96139	1118.8625
1722.20246	1118.3625
1725.44139	1119.5625
1728.67818	1116.0625
1731.91284	1113.2625
1735.14537	1113.0625
1738.37576	1113.4625
1741.60403	1108.2625
1744.83017	1128.0625
1748.05418	1149.4625
1751.27607	1178.3625
1754.49584	1214.3625
1757.71349	1229.0625
1760.92903	1228.0625
1764.14244	1209.5625
1767.35375	1181.5625
1770.56294	1136.2625
1773.77002	1095.3625
1776.97499	1065.2625
1780.17785	1053.6625
1783.37861	1033.7625
1786.57727	1029.8625
1789.77382	1016.7625
1792.96828	1000.2625
1796.16064	981.8625
1799.3509	967.1625
1802.53907	960.5625
1805.72514	948.9625
1808.90913	945.6625
1812.09102	936.5625
1815.27083	937.0625
1818.44856	930.4625
1821.6242	926.2625
1824.79776	928.2625
1827.96924	913.4625
1831.13864	918.3625
1834.30597	921.4625
1837.47122	912.1625
1840.6344	917.2625
1843.7955	912.1625
1846.95454	911.0625
1850.11151	903.8625
1853.26642	912.5625
1856.41926	901.9625
1859.57004	903.5625
1862.71876	905.7625
1865.86542	898.0625
1869.01003	896.7625
1872.15258	899.3625
1875.29308	897.0625
1878.43152	896.5625
1881.56792	889.3625
1884.70227	891.2625
1887.83457	893.4625
1890.96482	879.0625
1894.09304	888.9625
1897.21921	884.6625
1900.34335	881.1625
1903.46544	876.1625
1906.58551	874.2625
1909.70353	883.6625
1912.81953	873.7625
1915.93349	868.2625
1919.04543	874.6625
1922.15534	868.1625
1925.26322	874.0625
1928.36908	866.2625
1931.47292	863.4625
1934.57473	864.6625
1937.67453	864.3625
1940.77232	861.8625
1943.86808	861.8625
1946.96184	857.3625
1950.05358	850.3625
1953.14331	847.0625
1956.23103	843.8625
1959.31675	845.9625
1962.40046	843.5625
1965.48217	840.9625
1968.56188	824.9625
1971.63959	829.8625
1974.7153	828.0625
1977.78901	823.1625
1980.86073	820.7625
1983.93046	824.1625
1986.99819	812.7625
1990.06394	814.7625
1993.1277	816.7625
1996.18947	814.3625
1999.24925	804.5625
2002.30706	806.6625
2005.36288	803.7625
2008.41672	803.0625
2011.46859	800.4625
2014.51848	794.4625
2017.56639	795.2625
2020.61233	789.8625
2023.6563	785.0625
2026.6983	785.8625
2029.73833	782.9625
2032.7764	781.9625
2035.8125	775.1625
2038.84664	784.0625
2041.87881	780.8625
2044.90903	774.3625
2047.93729	767.4625
2050.96359	777.5625
2053.98794	786.3625
2057.01034	778.9625
2060.03078	781.7625
2063.04927	785.8625
2066.06582	775.3625
2069.08042	779.5625
2072.09307	786.1625
2075.10378	793.9625
2078.11255	788.6625
2081.11938	802.2625
2084.12426	803.3625
2087.12722	804.7625
2090.12824	810.2625
2093.12732	811.9625
2096.12447	817.5625
2099.11969	822.1625
2102.11299	831.3625
2105.10435	836.7625
2108.09379	841.7625
2111.08131	837.4625
2114.0669	835.8625
2117.05057	835.8625
2120.03233	836.4625
2123.01216	827.4625
2125.99008	830.3625
2128.96609	828.2625
2131.94018	821.4625
2134.91236	821.7625
2137.88263	818.5625
2140.851	812.4625
2143.81746	799.5625
2146.78201	800.9625
2149.74466	795.9625
2152.7054	789.1625
2155.66425	783.8625
2158.6212	769.8625
2161.57625	774.7625
2164.52941	763.3625
2167.48067	762.4625
2170.43004	755.4625
2173.37752	754.8625
2176.32311	743.0625
2179.26681	752.4625
2182.20863	745.5625
2185.14856	748.1625
2188.08661	745.1625
2191.02278	735.3625
2193.95707	749.1625
2196.88948	740.9625
2199.82001	746.9625
2202.74867	738.9625
2205.67545	741.3625
2208.60037	727.3625
2211.52341	740.4625
2214.44458	732.2625
2217.36388	727.4625
2220.28132	727.4625
2223.1969	729.2625
2226.11061	725.9625
2229.02246	717.4625
2231.93245	717.5625
2234.84058	719.3625
2237.74686	718.7625
2240.65128	712.3625
2243.55385	710.4625
2246.45456	719.1625
2249.35343	701.0625
2252.25044	707.6625
2255.14561	706.6625
2258.03893	703.6625
2260.93041	701.9625
2263.82004	706.3625
2266.70783	701.4625
2269.59378	699.8625
2272.4779	692.1625
2275.36017	694.8625
2278.24061	693.5625
2281.11922	699.2625
2283.996	694.9625
2286.87094	689.0625
2289.74405	685.2625
2292.61534	687.2625
2295.4848	683.3625
2298.35243	684.1625
2301.21824	681.9625
2304.08223	682.1625
2306.94439	679.6625
2309.80474	681.6625
2312.66327	676.3625
2315.51999	676.3625
2318.37489	673.9625
2321.22797	671.9625
2324.07925	670.2625
2326.92871	673.4625
2329.77637	679.0625
2332.62222	671.5625
2335.46626	665.5625
2338.3085	661.7625
2341.14893	664.2625
2343.98756	657.3625
2346.8244	653.3625
2349.65943	657.7625
2352.49267	659.6625
2355.32411	655.7625
2358.15376	654.8625
2360.98161	662.4625
2363.80768	649.1625
2366.63195	657.1625
2369.45444	651.8625
2372.27514	645.4625
2375.09405	647.4625
2377.91118	647.4625
2380.72652	648.7625
2383.54009	652.9625
2386.35187	648.4625
2389.16188	646.0625
2391.97011	640.3625
2394.77657	640.7625
2397.58125	637.7625
2400.38416	643.6625
2403.18529	636.9625
2405.98466	636.1625
2408.78226	632.1625
2411.57809	631.9625
2414.37216	637.3625
2417.16446	627.7625
2419.955	634.5625
2422.74378	634.5625
2425.5308	630.1625
2428.31606	629.7625
2431.09956	632.0625
2433.88131	632.0625
2436.6613	634.3625
2439.43954	622.1625
2442.21603	618.9625
2444.99077	620.7625
2447.76377	622.4625
2450.53501	624.5625
2453.30451	616.7625
2456.07226	619.1625
2458.83827	618.9625
2461.60254	613.8625
2464.36507	615.4625
2467.12586	610.3625
2469.88492	614.6625
2472.64224	611.1625
2475.39782	613.0625
2478.15167	609.7625
2480.90379	608.8625
2483.65417	611.3625
2486.40283	610.3625
2489.14976	609.2625
2491.89497	608.6625
2494.63845	608.6625
2497.3802	608.3625
2500.12024	605.8625
2502.85855	608.6625
2505.59514	605.0625
2508.33002	600.7625
2511.06318	601.8625
2513.79462	598.1625
2516.52435	600.3625
2519.25237	601.5625
2521.97867	595.9625
2524.70327	593.9625
2527.42616	596.1625
2530.14734	592.9625
2532.86681	587.9625
2535.58458	586.7625
2538.30065	591.1625
2541.01501	589.9625
2543.72768	591.3625
2546.43864	588.5625
2549.14791	587.4625
2551.85548	580.3625
2554.56136	583.9625
2557.26554	576.0625
2559.96803	582.6625
2562.66883	580.3625
2565.36794	577.8625
2568.06536	580.7625
2570.7611	573.3625
2573.45514	577.2625
2576.14751	573.5625
2578.83819	572.2625
2581.52719	580.5625
2584.21451	569.1625
2586.90015	571.3625
2589.58411	572.6625
2592.2664	570.1625
2594.94701	565.6625
2597.62594	568.3625
2600.30321	563.2625
2602.9788	563.4625
2605.65273	558.4625
2608.32498	562.0625
2610.99557	559.6625
2613.66449	557.6625
2616.33175	558.9625
2618.99734	558.2625
2621.66128	555.9625
2624.32355	553.1625
2626.98416	558.0625
2629.64311	558.3625
2632.30041	552.9625
2634.95605	555.4625
2637.61004	551.7625
2640.26238	559.1625
2642.91306	555.1625
2645.56209	553.2625
2648.20948	553.8625
2650.85521	551.3625
2653.4993	549.0625
2656.14175	548.1625
2658.78255	551.9625
2661.42171	552.5625
2664.05923	556.3625
2666.6951	553.3625
2669.32934	556.3625
2671.96194	554.8625
2674.59291	557.2625
2677.22224	560.5625
2679.84993	561.5625
2682.476	557.8625
2685.10043	557.7625
2687.72324	555.6625
2690.34441	549.6625
2692.96396	555.2625
2695.58188	557.0625
2698.19818	557.3625
2700.81285	557.2625
2703.4259	565.5625
2706.03733	565.0625
2708.64714	556.6625
2711.25533	561.2625
2713.86191	557.3625
2716.46687	566.9625
2719.07021	561.5625
2721.67194	556.3625
2724.27206	557.1625
2726.87057	552.4625
2729.46747	559.5625
2732.06276	563.6625
2734.65644	559.6625
2737.24852	559.8625
2739.83899	552.8625
2742.42786	559.8625
2745.01513	555.3625
2747.60079	551.6625
2750.18486	554.1625
2752.76733	551.9625
2755.3482	551.3625
2757.92747	548.4625
2760.50515	548.6625
2763.08123	547.2625
2765.65573	549.3625
2768.22863	547.1625
2770.79994	546.9625
2773.36967	549.7625
2775.9378	547.3625
2778.50435	544.9625
2781.06932	543.1625
2783.6327	550.1625
2786.1945	546.2625
2788.75471	551.6625
2791.31335	548.6625
2793.87041	543.6625
2796.42589	548.8625
2798.97979	550.1625
2801.53212	544.2625
2804.08288	551.2625
2806.63206	552.5625
2809.17967	551.5625
2811.72571	550.9625
2814.27018	560.8625
2816.81308	555.7625
2819.35442	554.0625
2821.89419	559.5625
2824.43239	557.1625
2826.96904	556.7625
2829.50412	554.8625
2832.03763	556.1625
2834.56959	553.1625
2837.1	557.5625
2839.62884	555.5625
2842.15613	558.2625
2844.68186	557.7625
2847.20604	562.9625
2849.72867	565.2625
2852.24974	570.1625
2854.76927	561.3625
2857.28724	568.1625
2859.80367	566.8625
2862.31855	564.0625
2864.83189	563.6625
2867.34368	574.2625
2869.85393	577.0625
2872.36264	572.4625
2874.8698	572.7625
2877.37543	584.0625
2879.87952	587.3625
2882.38207	592.7625
2884.88308	601.6625
2887.38256	605.0625
2889.88051	610.4625
2892.37692	617.8625
2894.8718	618.6625
2897.36515	633.3625
2899.85698	635.2625
2902.34727	653.6625
2904.83604	655.1625
2907.32328	660.5625
2909.809	674.2625
2912.29319	684.1625
2914.77587	704.0625
2917.25702	708.8625
2919.73665	718.4625
2922.21476	720.4625
2924.69136	741.1625
2927.16644	749.2625
2929.64	756.9625
2932.11205	767.0625
2934.58258	773.2625
2937.05161	780.7625
2939.51912	790.4625
2941.98513	787.7625
2944.44962	791.5625
2946.91261	794.1625
2949.37409	789.4625
2951.83407	782.0625
2954.29254	771.6625
2956.74951	766.7625
2959.20498	747.7625
2961.65895	736.6625
2964.11142	722.8625
2966.56239	707.7625
2969.01186	698.8625
2971.45984	681.4625
2973.90632	667.6625
2976.35131	658.5625
2978.7948	648.1625
2981.23681	647.1625
2983.67732	626.3625
2986.11635	633.4625
2988.55388	623.0625
2990.98993	617.4625
2993.4245	624.9625
2995.85758	617.5625
2998.28917	616.2625
3000.71928	616.6625
3003.14791	616.1625
3005.57506	619.6625
3008.00073	617.8625
3010.42493	606.8625
3012.84764	610.9625
3015.26888	619.6625
3017.68865	606.4625
3020.10694	609.0625
3022.52376	602.5625
3024.9391	602.6625
3027.35298	599.7625
3029.76539	589.5625
3032.17632	589.8625
3034.5858	585.8625
3036.9938	578.8625
3039.40034	578.2625
3041.80542	576.9625
3044.20903	574.2625
3046.61118	568.4625
3049.01187	565.8625
3051.4111	566.4625
3053.80888	558.1625
3056.20519	566.6625
3058.60005	571.2625
3060.99345	566.4625
3063.3854	563.1625
3065.7759	564.9625
3068.16494	558.3625
3070.55254	561.7625
3072.93868	568.2625
3075.32338	565.4625
3077.70662	560.3625
3080.08842	571.2625
3082.46878	572.3625
3084.84769	571.4625
3087.22515	579.2625
3089.60118	583.0625
3091.97576	582.9625
3094.3489	582.6625
3096.72061	594.0625
3099.09087	594.3625
3101.4597	601.2625
3103.82709	603.7625
3106.19305	603.8625
3108.55757	607.3625
3110.92066	608.3625
3113.28232	606.9625
3115.64255	616.1625
3118.00134	612.4625
3120.35871	612.8625
3122.71466	623.0625
3125.06917	626.6625
3127.42226	631.9625
3129.77393	639.3625
3132.12417	636.8625
3134.47299	635.5625
3136.82039	643.6625
3139.16636	651.0625
3141.51092	656.0625
3143.85406	657.7625
3146.19579	665.5625
3148.53609	668.2625
3150.87499	668.7625
3153.21246	670.3625
3155.54853	683.3625
3157.88318	683.7625
3160.21642	684.4625
3162.54826	695.1625
3164.87868	701.1625
3167.2077	712.4625
3169.5353	705.1625
3171.86151	709.3625
3174.18631	719.8625
3176.5097	717.7625
3178.83169	725.3625
3181.15228	727.1625
3183.47147	729.9625
3185.78926	733.5625
3188.10565	734.1625
3190.42065	738.6625
3192.73424	747.5625
3195.04645	747.3625
3197.35725	753.1625
3199.66667	754.2625
3201.97469	758.6625
3204.28132	757.6625
3206.58656	770.2625
3208.8904	768.5625
3211.19287	773.2625
3213.49394	771.4625
3215.79363	771.1625
3218.09193	778.0625
3220.38884	776.0625
3222.68438	777.3625
3224.97853	781.8625
3227.2713	782.9625
3229.56269	782.6625
3231.8527	792.5625
3234.14133	794.7625
3236.42858	785.9625
3238.71446	797.9625
3240.99896	788.7625
3243.28209	795.7625
3245.56384	789.1625
3247.84423	790.2625
3250.12324	790.4625
3252.40088	797.7625
3254.67715	794.3625
3256.95205	800.2625
3259.22558	791.1625
3261.49775	799.5625
3263.76855	798.4625
3266.03799	794.9625
3268.30606	796.2625
3270.57277	794.5625
3272.83812	789.7625
3275.10211	796.9625
3277.36474	796.8625
3279.62601	794.8625
3281.88593	787.6625
3284.14448	798.0625
3286.40168	795.5625
3288.65753	789.0625
3290.91202	797.1625
3293.16516	797.1625
3295.41695	786.3625
3297.66738	788.1625
3299.91647	785.1625
3302.16421	782.1625
3304.4106	781.4625
3306.65564	786.0625
3308.89933	776.0625
3311.14169	773.7625
3313.38269	774.2625
3315.62236	760.1625
3317.86068	762.2625
3320.09766	753.8625
3322.3333	757.0625
3324.5676	750.7625
3326.80056	742.8625
3329.03219	740.6625
3331.26248	-0.3375
3333.49143	-0.3375
3335.71905	0.1625
