Data from AgNPs_FTO_APTES_UA_0um_CRN_0.1mM_R6G_10uM_NaF_0.1M_Addition_RamanShift__46__11-04-58-949.txt Node

Date: Tue Dec 21 11:04:58 GMT 2021
User: TCL
Spectrometer: QEP01345
Trigger mode: 4
Integration Time (sec): 7.000000E0
Scans to average: 10
Electric dark correction enabled: true
Nonlinearity correction enabled: false
Boxcar width: 0
XAxis mode: Raman Shifts
Number of Pixels in Spectrum: 1044
>>>>>Begin Spectral Data<<<<<
46.04893	-0.9375
50.45542	-0.8375
54.85868	0.1625
59.25871	-0.6375
63.6555	30.2625
68.04907	34.5625
72.43941	38.0625
76.82654	37.8625
81.21044	41.9625
85.59113	39.1625
89.96862	39.7625
94.34289	43.6625
98.71396	44.8625
103.08183	47.4625
107.4465	48.0625
111.80798	50.7625
116.16626	51.7625
120.52136	49.9625
124.87327	54.2625
129.222	51.4625
133.56755	58.7625
137.90993	69.6625
142.24913	72.8625
146.58517	77.6625
150.91804	93.6625
155.24774	110.9625
159.57429	137.1625
163.89768	177.8625
168.21792	235.4625
172.53501	315.8625
176.84895	437.0625
181.15975	617.0625
185.46741	843.7625
189.77193	1176.1625
194.07331	1569.0625
198.37157	2023.4625
202.6667	2501.2625
206.9587	2985.1625
211.24758	3463.2625
215.53334	3963.5625
219.81599	4442.8625
224.09553	4991.6625
228.37195	5613.7625
232.64527	6263.2625
236.91549	6952.3625
241.18261	7621.5625
245.44663	8269.3625
249.70755	8780.4625
253.96539	9233.7625
258.22014	9630.2625
262.4718	9883.1625
266.72039	10058.2625
270.96589	10144.4625
275.20832	10108.0625
279.44768	10020.3625
283.68397	9933.9625
287.91719	9871.2625
292.14735	9851.1625
296.37445	9803.3625
300.59849	9803.7625
304.81948	9846.7625
309.03742	9908.5625
313.25231	9914.2625
317.46415	9798.9625
321.67296	9608.8625
325.87872	9399.9625
330.08145	9276.0625
334.28114	9185.7625
338.47781	9196.7625
342.67145	9282.7625
346.86207	9426.7625
351.04966	9585.9625
355.23424	9738.2625
359.4158	9852.1625
363.59435	9949.0625
367.76989	9944.1625
371.94243	9924.7625
376.11196	9853.5625
380.27849	9799.0625
384.44203	9790.0625
388.60257	9854.0625
392.76012	9955.7625
396.91468	10144.0625
401.06626	10358.8625
405.21485	10494.2625
409.36047	10457.7625
413.50311	10396.2625
417.64277	10518.5625
421.77947	10700.4625
425.9132	10574.9625
430.04396	10569.3625
434.17176	10638.7625
438.2966	10694.8625
442.41849	10880.0625
446.53742	11205.9625
450.6534	11492.0625
454.76644	11618.5625
458.87653	11588.2625
462.98368	11443.3625
467.08789	11282.1625
471.18916	11061.7625
475.2875	10814.6625
479.38291	10651.1625
483.4754	10576.3625
487.56496	10469.2625
491.6516	10366.8625
495.73531	10267.2625
499.81612	10161.5625
503.89401	10211.5625
507.96899	10250.9625
512.04106	10201.4625
516.11023	10058.5625
520.1765	9856.8625
524.23987	9671.3625
528.30034	9578.5625
532.35792	9446.5625
536.41261	9318.9625
540.46441	9181.8625
544.51333	9142.7625
548.55936	9251.9625
552.60252	9491.7625
556.64279	9783.9625
560.6802	10038.4625
564.71473	10153.0625
568.7464	10411.2625
572.7752	10941.2625
576.80114	11611.5625
580.82422	12389.8625
584.84444	13230.1625
588.86181	14366.2625
592.87633	15583.1625
596.888	15976.5625
600.89682	15011.3625
604.9028	13678.3625
608.90594	13340.8625
612.90624	13537.2625
616.90371	12431.8625
620.89834	10375.2625
624.89015	9487.3625
628.87913	9473.6625
632.86528	9689.7625
636.84862	9699.3625
640.82913	9416.0625
644.80683	9115.2625
648.78172	8881.1625
652.75379	8863.6625
656.72306	8941.4625
660.68952	9053.4625
664.65319	8998.9625
668.61405	8817.9625
672.57211	8797.5625
676.52738	8833.2625
680.47986	8842.3625
684.42955	8758.0625
688.37646	8643.0625
692.32058	8660.2625
696.26192	8813.3625
700.20048	8969.4625
704.13626	9131.0625
708.06928	9279.5625
711.99952	9359.4625
715.927	9343.7625
719.85171	9273.7625
723.77365	9110.2625
727.69284	8860.9625
731.60928	8669.3625
735.52295	8589.3625
739.43388	8589.5625
743.34206	8669.0625
747.24749	8801.6625
751.15017	8961.3625
755.05012	9214.5625
758.94733	9618.9625
762.8418	10242.8625
766.73354	11200.4625
770.62254	11963.3625
774.50882	11907.4625
778.39237	11062.7625
782.27321	10096.4625
786.15132	9428.0625
790.02671	8958.9625
793.89938	8689.6625
797.76935	8553.0625
801.6366	8506.5625
805.50115	8449.0625
809.36299	8376.6625
813.22213	8314.3625
817.07857	8260.4625
820.93231	8200.1625
824.78336	8104.8625
828.63172	8068.4625
832.47738	8012.2625
836.32036	7997.6625
840.16066	7993.0625
843.99827	7967.3625
847.8332	7987.9625
851.66546	7979.6625
855.49504	8028.9625
859.32195	8007.6625
863.1462	7935.9625
866.96777	7894.3625
870.78668	7864.2625
874.60293	7878.3625
878.41652	7872.8625
882.22745	7903.7625
886.03573	7920.9625
889.84136	7927.8625
893.64433	7921.2625
897.44466	7891.3625
901.24235	7880.5625
905.0374	7864.9625
908.8298	7860.5625
912.61957	7837.3625
916.40671	7983.8625
920.19121	8185.7625
923.97308	8398.7625
927.75233	8489.8625
931.52895	8333.2625
935.30295	8057.4625
939.07433	7703.6625
942.84309	7516.0625
946.60924	7379.8625
950.37278	7335.3625
954.13371	7331.3625
957.89203	7318.1625
961.64774	7303.8625
965.40086	7325.3625
969.15137	7319.6625
972.89929	7243.8625
976.64461	7156.0625
980.38733	7122.0625
984.12747	7118.5625
987.86502	7090.4625
991.59999	7140.1625
995.33237	7191.8625
999.06217	7309.9625
1002.78939	7469.2625
1006.51404	7679.8625
1010.23611	7906.3625
1013.95561	8088.4625
1017.67255	8140.5625
1021.38692	8064.0625
1025.09872	7844.5625
1028.80796	7654.5625
1032.51465	7559.0625
1036.21877	7542.4625
1039.92035	7595.0625
1043.61937	7693.9625
1047.31584	7745.2625
1051.00976	7794.6625
1054.70114	7835.7625
1058.38998	7925.5625
1062.07627	7998.6625
1065.76003	8133.1625
1069.44126	8341.8625
1073.11995	8608.4625
1076.79611	8830.9625
1080.46974	8915.1625
1084.14085	8972.1625
1087.80943	9095.8625
1091.47549	9285.6625
1095.13903	9380.2625
1098.80005	9205.1625
1102.45857	8753.9625
1106.11456	8368.9625
1109.76805	8158.8625
1113.41903	8110.5625
1117.06751	8154.7625
1120.71348	8299.8625
1124.35696	8466.1625
1127.99793	8624.3625
1131.63641	8768.2625
1135.2724	8769.6625
1138.90589	8779.6625
1142.5369	8823.9625
1146.16542	8936.8625
1149.79145	9099.1625
1153.415	9258.3625
1157.03607	9452.4625
1160.65467	9852.8625
1164.27079	10470.6625
1167.88443	11299.3625
1171.49561	12155.3625
1175.10432	13164.8625
1178.71056	14335.4625
1182.31434	15394.1625
1185.91565	15820.0625
1189.51451	15666.9625
1193.11091	15167.6625
1196.70485	14542.0625
1200.29634	13826.9625
1203.88538	13254.7625
1207.47197	13020.9625
1211.05612	12927.1625
1214.63782	12685.4625
1218.21708	12254.9625
1221.79391	11753.0625
1225.36829	11421.0625
1228.94024	11238.3625
1232.50976	11061.8625
1236.07685	10802.2625
1239.6415	10572.9625
1243.20374	10444.0625
1246.76355	10459.7625
1250.32093	10599.8625
1253.8759	10879.6625
1257.42845	11269.7625
1260.97859	11761.6625
1264.52631	12218.4625
1268.07163	12714.8625
1271.61453	13160.9625
1275.15503	13670.2625
1278.69312	14329.8625
1282.22882	15116.3625
1285.76211	16074.2625
1289.29301	17021.9625
1292.82151	18071.6625
1296.34761	19251.7625
1299.87133	20619.2625
1303.39266	21867.1625
1306.9116	22944.2625
1310.42815	23714.3625
1313.94233	24026.4625
1317.45412	23727.2625
1320.96354	23128.0625
1324.47058	22594.5625
1327.97525	22304.1625
1331.47754	22187.7625
1334.97747	21927.9625
1338.47502	21583.5625
1341.97022	21102.0625
1345.46305	20598.5625
1348.95352	20228.2625
1352.44163	20152.8625
1355.92738	20578.4625
1359.41078	21682.8625
1362.89183	22714.2625
1366.37053	23039.6625
1369.84688	21738.2625
1373.32088	19215.8625
1376.79254	16995.9625
1380.26186	16019.7625
1383.72883	15879.5625
1387.19347	15756.2625
1390.65578	15464.9625
1394.11575	15323.8625
1397.57339	15523.6625
1401.0287	15880.3625
1404.48168	16184.5625
1407.93234	16140.4625
1411.38068	15738.4625
1414.82669	15068.4625
1418.27039	14265.9625
1421.71177	13475.0625
1425.15083	12826.3625
1428.58758	12484.7625
1432.02203	12508.4625
1435.45416	12825.8625
1438.88399	13281.9625
1442.31151	13594.9625
1445.73673	13872.8625
1449.15965	14088.5625
1452.58027	14262.5625
1455.9986	14285.6625
1459.41463	14357.9625
1462.82837	14543.4625
1466.23982	14914.6625
1469.64898	15300.5625
1473.05586	15592.3625
1476.46045	15765.4625
1479.86276	15855.0625
1483.26279	15937.1625
1486.66054	16101.9625
1490.05602	16372.5625
1493.44922	16869.3625
1496.84016	17359.8625
1500.22882	17704.2625
1503.61521	17986.0625
1506.99934	18255.1625
1510.38121	18380.7625
1513.76081	18282.2625
1517.13816	17963.2625
1520.51324	17636.6625
1523.88607	17434.9625
1527.25665	17448.1625
1530.62498	17400.7625
1533.99105	17165.1625
1537.35488	16662.3625
1540.71647	15932.8625
1544.07581	15123.6625
1547.4329	14329.4625
1550.78776	13656.3625
1554.14038	13228.7625
1557.49077	13006.1625
1560.83892	12921.3625
1564.18484	12978.6625
1567.52853	13115.2625
1570.86999	13329.0625
1574.20922	13628.0625
1577.54624	13928.0625
1580.88103	14016.4625
1584.2136	14072.0625
1587.54395	14510.9625
1590.87208	15458.8625
1594.19801	16694.9625
1597.52172	17897.7625
1600.84321	18261.4625
1604.16251	17348.4625
1607.47959	15602.3625
1610.79447	13782.4625
1614.10715	12179.1625
1617.41763	10918.0625
1620.7259	10118.4625
1624.03199	9667.8625
1627.33587	9620.8625
1630.63757	9963.8625
1633.93707	10789.6625
1637.23439	12252.9625
1640.52951	14687.3625
1643.82246	17940.5625
1647.11321	21116.2625
1650.40179	22653.5625
1653.68819	21496.1625
1656.97241	18391.8625
1660.25446	14867.3625
1663.53433	12008.4625
1666.81203	10071.2625
1670.08756	8860.9625
1673.36092	8117.2625
1676.63211	7669.5625
1679.90115	7370.1625
1683.16801	7141.0625
1686.43272	6995.1625
1689.69527	6852.1625
1692.95567	6767.2625
1696.2139	6707.7625
1699.46999	6677.5625
1702.72392	6602.9625
1705.97571	6553.4625
1709.22535	6498.0625
1712.47284	6473.8625
1715.71819	6449.0625
1718.96139	6421.2625
1722.20246	6364.8625
1725.44139	6324.1625
1728.67818	6258.7625
1731.91284	6213.1625
1735.14537	6168.5625
1738.37576	6098.4625
1741.60403	6092.9625
1744.83017	6049.7625
1748.05418	6043.1625
1751.27607	6022.3625
1754.49584	6012.8625
1757.71349	6025.7625
1760.92903	6039.8625
1764.14244	6004.8625
1767.35375	5997.9625
1770.56294	5978.6625
1773.77002	5917.7625
1776.97499	5886.6625
1780.17785	5858.6625
1783.37861	5849.4625
1786.57727	5815.0625
1789.77382	5802.4625
1792.96828	5758.4625
1796.16064	5748.1625
1799.3509	5712.4625
1802.53907	5704.1625
1805.72514	5688.4625
1808.90913	5656.1625
1812.09102	5644.4625
1815.27083	5615.0625
1818.44856	5610.9625
1821.6242	5612.9625
1824.79776	5606.8625
1827.96924	5588.3625
1831.13864	5555.2625
1834.30597	5550.8625
1837.47122	5559.0625
1840.6344	5549.0625
1843.7955	5561.2625
1846.95454	5554.9625
1850.11151	5563.7625
1853.26642	5552.7625
1856.41926	5537.8625
1859.57004	5546.3625
1862.71876	5526.7625
1865.86542	5524.1625
1869.01003	5508.5625
1872.15258	5497.2625
1875.29308	5520.0625
1878.43152	5494.8625
1881.56792	5455.6625
1884.70227	5449.7625
1887.83457	5452.0625
1890.96482	5462.5625
1894.09304	5437.4625
1897.21921	5433.7625
1900.34335	5429.0625
1903.46544	5426.1625
1906.58551	5407.5625
1909.70353	5386.9625
1912.81953	5369.9625
1915.93349	5350.5625
1919.04543	5325.9625
1922.15534	5311.7625
1925.26322	5302.6625
1928.36908	5257.7625
1931.47292	5251.0625
1934.57473	5232.2625
1937.67453	5201.8625
1940.77232	5180.3625
1943.86808	5176.5625
1946.96184	5161.3625
1950.05358	5140.8625
1953.14331	5115.5625
1956.23103	5102.1625
1959.31675	5093.9625
1962.40046	5062.4625
1965.48217	5052.8625
1968.56188	5022.9625
1971.63959	5007.0625
1974.7153	4968.5625
1977.78901	4967.5625
1980.86073	4945.4625
1983.93046	4912.1625
1986.99819	4912.6625
1990.06394	4889.8625
1993.1277	4876.7625
1996.18947	4830.6625
1999.24925	4841.2625
2002.30706	4824.0625
2005.36288	4786.0625
2008.41672	4794.1625
2011.46859	4768.0625
2014.51848	4745.4625
2017.56639	4737.5625
2020.61233	4724.5625
2023.6563	4717.8625
2026.6983	4710.0625
2029.73833	4686.1625
2032.7764	4670.6625
2035.8125	4647.3625
2038.84664	4645.5625
2041.87881	4630.8625
2044.90903	4617.1625
2047.93729	4615.1625
2050.96359	4611.1625
2053.98794	4615.4625
2057.01034	4599.7625
2060.03078	4586.5625
2063.04927	4585.0625
2066.06582	4580.9625
2069.08042	4572.4625
2072.09307	4560.0625
2075.10378	4550.8625
2078.11255	4554.6625
2081.11938	4560.1625
2084.12426	4556.4625
2087.12722	4574.0625
2090.12824	4552.4625
2093.12732	4555.5625
2096.12447	4565.1625
2099.11969	4547.7625
2102.11299	4546.7625
2105.10435	4553.9625
2108.09379	4530.5625
2111.08131	4552.0625
2114.0669	4541.3625
2117.05057	4535.1625
2120.03233	4549.6625
2123.01216	4546.0625
2125.99008	4537.5625
2128.96609	4530.0625
2131.94018	4524.0625
2134.91236	4521.9625
2137.88263	4527.8625
2140.851	4514.1625
2143.81746	4504.1625
2146.78201	4503.1625
2149.74466	4500.8625
2152.7054	4491.9625
2155.66425	4485.1625
2158.6212	4478.2625
2161.57625	4476.3625
2164.52941	4484.9625
2167.48067	4472.9625
2170.43004	4459.8625
2173.37752	4458.5625
2176.32311	4460.5625
2179.26681	4458.1625
2182.20863	4441.9625
2185.14856	4462.8625
2188.08661	4455.7625
2191.02278	4446.8625
2193.95707	4440.5625
2196.88948	4430.0625
2199.82001	4426.1625
2202.74867	4431.9625
2205.67545	4406.0625
2208.60037	4388.0625
2211.52341	4375.2625
2214.44458	4371.3625
2217.36388	4343.8625
2220.28132	4356.3625
2223.1969	4355.3625
2226.11061	4344.3625
2229.02246	4322.4625
2231.93245	4340.4625
2234.84058	4311.2625
2237.74686	4349.7625
2240.65128	4324.5625
2243.55385	4315.1625
2246.45456	4322.5625
2249.35343	4297.5625
2252.25044	4282.7625
2255.14561	4261.8625
2258.03893	4268.0625
2260.93041	4240.9625
2263.82004	4233.5625
2266.70783	4198.1625
2269.59378	4196.7625
2272.4779	4180.8625
2275.36017	4166.5625
2278.24061	4154.2625
2281.11922	4138.6625
2283.996	4123.2625
2286.87094	4116.3625
2289.74405	4101.6625
2292.61534	4108.9625
2295.4848	4101.7625
2298.35243	4094.1625
2301.21824	4079.6625
2304.08223	4082.7625
2306.94439	4081.7625
2309.80474	4058.1625
2312.66327	4056.5625
2315.51999	4052.3625
2318.37489	4049.2625
2321.22797	4041.3625
2324.07925	4032.8625
2326.92871	4023.8625
2329.77637	4030.0625
2332.62222	4010.1625
2335.46626	4000.1625
2338.3085	4013.3625
2341.14893	4008.4625
2343.98756	4006.9625
2346.8244	4003.7625
2349.65943	3998.9625
2352.49267	3998.0625
2355.32411	4005.0625
2358.15376	4014.2625
2360.98161	3994.9625
2363.80768	4007.0625
2366.63195	4006.4625
2369.45444	3990.2625
2372.27514	3991.4625
2375.09405	3975.6625
2377.91118	3968.4625
2380.72652	3956.6625
2383.54009	3952.6625
2386.35187	3935.8625
2389.16188	3921.7625
2391.97011	3924.4625
2394.77657	3894.0625
2397.58125	3884.4625
2400.38416	3907.5625
2403.18529	3876.1625
2405.98466	3888.9625
2408.78226	3876.8625
2411.57809	3869.0625
2414.37216	3861.5625
2417.16446	3860.0625
2419.955	3841.5625
2422.74378	3845.8625
2425.5308	3844.3625
2428.31606	3836.2625
2431.09956	3821.5625
2433.88131	3829.2625
2436.6613	3840.5625
2439.43954	3811.6625
2442.21603	3824.7625
2444.99077	3811.5625
2447.76377	3818.3625
2450.53501	3804.6625
2453.30451	3813.7625
2456.07226	3806.8625
2458.83827	3800.8625
2461.60254	3811.7625
2464.36507	3812.3625
2467.12586	3808.6625
2469.88492	3798.6625
2472.64224	3806.5625
2475.39782	3807.9625
2478.15167	3807.7625
2480.90379	3803.2625
2483.65417	3810.7625
2486.40283	3788.7625
2489.14976	3801.1625
2491.89497	3783.0625
2494.63845	3791.1625
2497.3802	3813.0625
2500.12024	3787.3625
2502.85855	3788.9625
2505.59514	3775.4625
2508.33002	3777.2625
2511.06318	3759.5625
2513.79462	3774.2625
2516.52435	3737.8625
2519.25237	3740.9625
2521.97867	3737.4625
2524.70327	3747.6625
2527.42616	3734.2625
2530.14734	3723.9625
2532.86681	3720.2625
2535.58458	3716.0625
2538.30065	3701.9625
2541.01501	3707.8625
2543.72768	3701.0625
2546.43864	3705.0625
2549.14791	3690.3625
2551.85548	3683.2625
2554.56136	3693.0625
2557.26554	3688.1625
2559.96803	3673.8625
2562.66883	3685.5625
2565.36794	3688.3625
2568.06536	3671.7625
2570.7611	3669.9625
2573.45514	3666.1625
2576.14751	3664.8625
2578.83819	3668.8625
2581.52719	3663.1625
2584.21451	3646.4625
2586.90015	3645.1625
2589.58411	3650.5625
2592.2664	3636.9625
2594.94701	3639.1625
2597.62594	3633.0625
2600.30321	3618.5625
2602.9788	3628.2625
2605.65273	3642.3625
2608.32498	3629.9625
2610.99557	3639.0625
2613.66449	3621.2625
2616.33175	3614.0625
2618.99734	3621.0625
2621.66128	3629.7625
2624.32355	3606.3625
2626.98416	3617.7625
2629.64311	3616.8625
2632.30041	3600.5625
2634.95605	3613.5625
2637.61004	3585.9625
2640.26238	3577.0625
2642.91306	3586.8625
2645.56209	3591.4625
2648.20948	3593.2625
2650.85521	3597.9625
2653.4993	3613.7625
2656.14175	3595.0625
2658.78255	3620.4625
2661.42171	3613.6625
2664.05923	3615.9625
2666.6951	3616.5625
2669.32934	3608.0625
2671.96194	3619.5625
2674.59291	3614.7625
2677.22224	3613.5625
2679.84993	3607.4625
2682.476	3611.4625
2685.10043	3596.6625
2687.72324	3603.8625
2690.34441	3604.5625
2692.96396	3591.4625
2695.58188	3605.0625
2698.19818	3595.8625
2700.81285	3592.1625
2703.4259	3612.9625
2706.03733	3655.2625
2708.64714	3620.6625
2711.25533	3622.8625
2713.86191	3606.2625
2716.46687	3611.5625
2719.07021	3602.3625
2721.67194	3622.6625
2724.27206	3595.6625
2726.87057	3602.5625
2729.46747	3619.0625
2732.06276	3616.1625
2734.65644	3618.8625
2737.24852	3615.7625
2739.83899	3599.4625
2742.42786	3596.6625
2745.01513	3600.6625
2747.60079	3599.8625
2750.18486	3582.4625
2752.76733	3590.8625
2755.3482	3593.4625
2757.92747	3599.7625
2760.50515	3584.7625
2763.08123	3587.6625
2765.65573	3570.5625
2768.22863	3585.6625
2770.79994	3582.6625
2773.36967	3591.7625
2775.9378	3576.4625
2778.50435	3589.8625
2781.06932	3585.9625
2783.6327	3581.5625
2786.1945	3589.1625
2788.75471	3575.7625
2791.31335	3574.2625
2793.87041	3563.9625
2796.42589	3560.6625
2798.97979	3576.2625
2801.53212	3550.6625
2804.08288	3558.8625
2806.63206	3554.6625
2809.17967	3548.5625
2811.72571	3546.2625
2814.27018	3529.7625
2816.81308	3535.7625
2819.35442	3531.6625
2821.89419	3534.4625
2824.43239	3535.5625
2826.96904	3527.7625
2829.50412	3523.8625
2832.03763	3526.2625
2834.56959	3515.2625
2837.1	3525.1625
2839.62884	3520.0625
2842.15613	3531.3625
2844.68186	3537.3625
2847.20604	3548.8625
2849.72867	3558.8625
2852.24974	3550.3625
2854.76927	3544.1625
2857.28724	3570.6625
2859.80367	3535.4625
2862.31855	3528.6625
2864.83189	3519.0625
2867.34368	3518.8625
2869.85393	3514.1625
2872.36264	3517.8625
2874.8698	3502.8625
2877.37543	3501.7625
2879.87952	3496.6625
2882.38207	3503.9625
2884.88308	3491.8625
2887.38256	3490.1625
2889.88051	3492.2625
2892.37692	3496.0625
2894.8718	3495.5625
2897.36515	3501.7625
2899.85698	3505.8625
2902.34727	3528.3625
2904.83604	3523.1625
2907.32328	3518.6625
2909.809	3519.3625
2912.29319	3521.7625
2914.77587	3511.2625
2917.25702	3523.0625
2919.73665	3530.2625
2922.21476	3513.9625
2924.69136	3530.7625
2927.16644	3523.3625
2929.64	3521.0625
2932.11205	3517.7625
2934.58258	3491.8625
2937.05161	3512.0625
2939.51912	3527.2625
2941.98513	3497.1625
2944.44962	3496.0625
2946.91261	3494.5625
2949.37409	3481.0625
2951.83407	3471.6625
2954.29254	3482.2625
2956.74951	3472.1625
2959.20498	3471.7625
2961.65895	3437.5625
2964.11142	3446.2625
2966.56239	3415.1625
2969.01186	3407.4625
2971.45984	3408.2625
2973.90632	3389.7625
2976.35131	3372.3625
2978.7948	3370.4625
2981.23681	3365.4625
2983.67732	3343.1625
2986.11635	3334.9625
2988.55388	3312.4625
2990.98993	3318.3625
2993.4245	3306.5625
2995.85758	3296.4625
2998.28917	3278.7625
3000.71928	3282.3625
3003.14791	3270.3625
3005.57506	3274.1625
3008.00073	3256.3625
3010.42493	3245.8625
3012.84764	3237.1625
3015.26888	3237.3625
3017.68865	3219.7625
3020.10694	3212.6625
3022.52376	3208.5625
3024.9391	3195.5625
3027.35298	3198.1625
3029.76539	3187.0625
3032.17632	3187.8625
3034.5858	3175.0625
3036.9938	3182.9625
3039.40034	3158.5625
3041.80542	3153.8625
3044.20903	3154.0625
3046.61118	3141.7625
3049.01187	3144.9625
3051.4111	3148.8625
3053.80888	3125.7625
3056.20519	3132.9625
3058.60005	3125.2625
3060.99345	3127.9625
3063.3854	3106.2625
3065.7759	3116.3625
3068.16494	3085.3625
3070.55254	3070.8625
3072.93868	3078.7625
3075.32338	3069.8625
3077.70662	3044.1625
3080.08842	3045.1625
3082.46878	3050.2625
3084.84769	3028.6625
3087.22515	3038.1625
3089.60118	3035.7625
3091.97576	3037.8625
3094.3489	3023.5625
3096.72061	3027.9625
3099.09087	3027.2625
3101.4597	3017.6625
3103.82709	3027.9625
3106.19305	3005.7625
3108.55757	3003.9625
3110.92066	3010.2625
3113.28232	2985.6625
3115.64255	2986.7625
3118.00134	2984.4625
3120.35871	2968.5625
3122.71466	2959.8625
3125.06917	2955.5625
3127.42226	2959.1625
3129.77393	2960.1625
3132.12417	2975.7625
3134.47299	2957.7625
3136.82039	2971.6625
3139.16636	2951.0625
3141.51092	2956.6625
3143.85406	2957.4625
3146.19579	2962.3625
3148.53609	2955.9625
3150.87499	2967.0625
3153.21246	2951.0625
3155.54853	2962.3625
3157.88318	2966.9625
3160.21642	2963.1625
3162.54826	2958.1625
3164.87868	2949.4625
3167.2077	2942.3625
3169.5353	2941.2625
3171.86151	2948.8625
3174.18631	2934.0625
3176.5097	2940.3625
3178.83169	2937.5625
3181.15228	2938.9625
3183.47147	2929.9625
3185.78926	2936.2625
3188.10565	2914.8625
3190.42065	2916.8625
3192.73424	2928.0625
3195.04645	2911.8625
3197.35725	2914.3625
3199.66667	2920.8625
3201.97469	2899.8625
3204.28132	2898.5625
3206.58656	2905.8625
3208.8904	2905.4625
3211.19287	2912.4625
3213.49394	2894.5625
3215.79363	2902.3625
3218.09193	2905.4625
3220.38884	2903.3625
3222.68438	2914.8625
3224.97853	2900.5625
3227.2713	2904.8625
3229.56269	2898.8625
3231.8527	2914.6625
3234.14133	2896.3625
3236.42858	2885.0625
3238.71446	2887.4625
3240.99896	2893.6625
3243.28209	2881.3625
3245.56384	2876.7625
3247.84423	2878.8625
3250.12324	2880.9625
3252.40088	2864.8625
3254.67715	2873.1625
3256.95205	2864.7625
3259.22558	2856.1625
3261.49775	2832.0625
3263.76855	2821.2625
3266.03799	2830.6625
3268.30606	2810.1625
3270.57277	2801.8625
3272.83812	2793.9625
3275.10211	2804.9625
3277.36474	2800.3625
3279.62601	2808.1625
3281.88593	2805.1625
3284.14448	2804.3625
3286.40168	2803.8625
3288.65753	2800.0625
3290.91202	2802.4625
3293.16516	2791.7625
3295.41695	2782.8625
3297.66738	2773.1625
3299.91647	2759.8625
3302.16421	2731.6625
3304.4106	2729.3625
3306.65564	2716.1625
3308.89933	2693.1625
3311.14169	2681.0625
3313.38269	2648.3625
3315.62236	2629.6625
3317.86068	2600.3625
3320.09766	2565.2625
3322.3333	2556.5625
3324.5676	2558.9625
3326.80056	2521.1625
3329.03219	2491.3625
3331.26248	0.2625
3333.49143	0.4625
3335.71905	1.1625
