Data from AgNP_FTO_APTES_CRN_0uM_R6G_10uM_NaF_0.1M_Addition_RamanShift__23__11-56-32-923.txt Node

Date: Wed Dec 15 11:56:32 GMT 2021
User: TCL
Spectrometer: QEP01345
Trigger mode: 4
Integration Time (sec): 7.000000E0
Scans to average: 10
Electric dark correction enabled: true
Nonlinearity correction enabled: false
Boxcar width: 0
XAxis mode: Raman Shifts
Number of Pixels in Spectrum: 1044
>>>>>Begin Spectral Data<<<<<
46.04893	0.5
50.45542	-0.1
54.85868	-0.1
59.25871	-0.2
63.6555	62.6
68.04907	68.5
72.43941	73.2
76.82654	78.5
81.21044	80.7
85.59113	89.7
89.96862	93.9
94.34289	91.2
98.71396	96.6
103.08183	101.6
107.4465	106
111.80798	100.8
116.16626	102.6
120.52136	107
124.87327	107.1
129.222	109.5
133.56755	105.8
137.90993	113.7
142.24913	124.9
146.58517	124.5
150.91804	140
155.24774	155.4
159.57429	187.2
163.89768	225.2
168.21792	279.4
172.53501	361.6
176.84895	486.4
181.15975	661.6
185.46741	915
189.77193	1252.1
194.07331	1654.8
198.37157	2128.2
202.6667	2635.6
206.9587	3123.8
211.24758	3601.2
215.53334	4102.7
219.81599	4633.5
224.09553	5231
228.37195	5864
232.64527	6572.7
236.91549	7293.3
241.18261	7916.3
245.44663	8455.1
249.70755	8891.9
253.96539	9214.2
258.22014	9532.5
262.4718	9784.3
266.72039	9982.3
270.96589	10056.6
275.20832	10010.4
279.44768	9819.1
283.68397	9614.3
287.91719	9431
292.14735	9362.6
296.37445	9443.2
300.59849	9698.3
304.81948	10034.4
309.03742	10313.3
313.25231	10387.2
317.46415	10153
321.67296	9664
325.87872	9241.1
330.08145	9032.3
334.28114	9043.9
338.47781	9141.9
342.67145	9270.7
346.86207	9492.4
351.04966	9847.1
355.23424	10316.6
359.4158	10625.9
363.59435	10823.6
367.76989	10844
371.94243	10831.4
376.11196	10787.7
380.27849	10758.2
384.44203	10697.7
388.60257	10599.6
392.76012	10521.8
396.91468	10537.5
401.06626	10721.6
405.21485	10835.7
409.36047	10726.5
413.50311	10357
417.64277	10052.5
421.77947	9924.4
425.9132	9657.1
430.04396	9565.8
434.17176	9675
438.2966	9908.2
442.41849	10250.3
446.53742	10711.8
450.6534	11152.9
454.76644	11332.7
458.87653	11165.2
462.98368	10772.7
467.08789	10389.7
471.18916	10084.9
475.2875	9757.7
479.38291	9525.7
483.4754	9351.6
487.56496	9263.3
491.6516	9210
495.73531	9204
499.81612	9255.3
503.89401	9382.3
507.96899	9515.5
512.04106	9715.2
516.11023	9892.9
520.1765	10077
524.23987	10144.4
528.30034	10119.4
532.35792	10010.5
536.41261	9776.5
540.46441	9503.4
544.51333	9308.5
548.55936	9315.2
552.60252	9509
556.64279	9797
560.6802	9987.3
564.71473	10010.5
568.7464	10126.7
572.7752	10229.2
576.80114	9993
580.82422	9738.4
584.84444	9810
588.86181	10342.3
592.87633	11225.2
596.888	11819.1
600.89682	11567.8
604.9028	11715.7
608.90594	13688.2
612.90624	16717.9
616.90371	16243.5
620.89834	11910.9
624.89015	9628.5
628.87913	9153.2
632.86528	9162
636.84862	9249.2
640.82913	9145.6
644.80683	8826.7
648.78172	8589.6
652.75379	8603.7
656.72306	8886.9
660.68952	9234.7
664.65319	9128.7
668.61405	8694.8
672.57211	8493.3
676.52738	8498.7
680.47986	8505.6
684.42955	8412
688.37646	8350.5
692.32058	8357
696.26192	8423
700.20048	8559.8
704.13626	8636.1
708.06928	8664.9
711.99952	8630.6
715.927	8634.2
719.85171	8665.7
723.77365	8689.6
727.69284	8578.2
731.60928	8510.4
735.52295	8563.5
739.43388	8562.6
743.34206	8602.8
747.24749	8632.2
751.15017	8639.3
755.05012	8719.4
758.94733	9044
762.8418	9815.1
766.73354	11293.7
770.62254	12972.6
774.50882	13828.8
778.39237	13238.6
782.27321	11579.4
786.15132	10025.7
790.02671	9123.6
793.89938	8644.1
797.76935	8439.9
801.6366	8346.2
805.50115	8248.4
809.36299	8185.3
813.22213	8116
817.07857	8099.9
820.93231	8070.5
824.78336	8065.1
828.63172	8083.4
832.47738	8115.4
836.32036	8107.6
840.16066	8111.8
843.99827	8088.7
847.8332	8062
851.66546	8059.4
855.49504	8038
859.32195	8039.2
863.1462	7970.8
866.96777	7949.4
870.78668	7925.5
874.60293	7910.6
878.41652	7926.6
882.22745	7978.8
886.03573	8013.3
889.84136	8021
893.64433	8006.9
897.44466	8009.4
901.24235	8035.9
905.0374	8052.4
908.8298	8083.7
912.61957	8080.3
916.40671	8181.2
920.19121	8293.5
923.97308	8434.4
927.75233	8558.7
931.52895	8616.4
935.30295	8493.6
939.07433	8234.1
942.84309	7979.2
946.60924	7815.4
950.37278	7736.4
954.13371	7655
957.89203	7571.2
961.64774	7499.9
965.40086	7458.4
969.15137	7409.9
972.89929	7373.8
976.64461	7388.4
980.38733	7371.4
984.12747	7370.7
987.86502	7382.9
991.59999	7467.8
995.33237	7562.4
999.06217	7758.6
1002.78939	7966.2
1006.51404	8135.3
1010.23611	8254.4
1013.95561	8325.4
1017.67255	8300.6
1021.38692	8114.2
1025.09872	7869.5
1028.80796	7721
1032.51465	7698.4
1036.21877	7741.2
1039.92035	7803.9
1043.61937	7848.4
1047.31584	7884.2
1051.00976	7932.2
1054.70114	7953.1
1058.38998	7959.8
1062.07627	8013.5
1065.76003	8080.9
1069.44126	8163.3
1073.11995	8331
1076.79611	8490.2
1080.46974	8618.8
1084.14085	8698.6
1087.80943	8741.1
1091.47549	8708.2
1095.13903	8420.7
1098.80005	8070.5
1102.45857	7758.8
1106.11456	7622
1109.76805	7660.7
1113.41903	7826.1
1117.06751	8054.7
1120.71348	8310.2
1124.35696	8575.4
1127.99793	8875.1
1131.63641	8918.5
1135.2724	8581.6
1138.90589	8173.2
1142.5369	7924.9
1146.16542	7762.4
1149.79145	7641.5
1153.415	7603.4
1157.03607	7631.3
1160.65467	7763.5
1164.27079	8044.4
1167.88443	8598.6
1171.49561	9527.7
1175.10432	10917.9
1178.71056	12812.3
1182.31434	14312.6
1185.91565	14596.3
1189.51451	13825.9
1193.11091	12692.1
1196.70485	11570.1
1200.29634	10702.5
1203.88538	9910.6
1207.47197	9198.6
1211.05612	8620.5
1214.63782	8363.5
1218.21708	8438.4
1221.79391	8660.1
1225.36829	8833.8
1228.94024	8804.7
1232.50976	8545.2
1236.07685	8254.7
1239.6415	8078
1243.20374	7999.1
1246.76355	7960.3
1250.32093	7980.7
1253.8759	8126.6
1257.42845	8377
1260.97859	8654
1264.52631	8980.3
1268.07163	9302.7
1271.61453	9595.1
1275.15503	9852.6
1278.69312	10040.3
1282.22882	10204.4
1285.76211	10538.7
1289.29301	11070.2
1292.82151	11637.2
1296.34761	12271.2
1299.87133	13028.9
1303.39266	14129.3
1306.9116	15728.2
1310.42815	17738.1
1313.94233	19208.4
1317.45412	19122.5
1320.96354	17631.8
1324.47058	15666.6
1327.97525	13928.5
1331.47754	12738.3
1334.97747	12201.3
1338.47502	12100.5
1341.97022	12158.7
1345.46305	12437.5
1348.95352	13280.8
1352.44163	14771.4
1355.92738	16916.7
1359.41078	19789.9
1362.89183	22585.9
1366.37053	22937.7
1369.84688	19773.4
1373.32088	15690.4
1376.79254	12964.9
1380.26186	11717.6
1383.72883	11188.3
1387.19347	10777.2
1390.65578	10353.6
1394.11575	10029
1397.57339	9967.6
1401.0287	10064
1404.48168	10152.6
1407.93234	10144.5
1411.38068	10045.8
1414.82669	9905.4
1418.27039	9687.5
1421.71177	9445.2
1425.15083	9201.7
1428.58758	9067.4
1432.02203	9175
1435.45416	9376.5
1438.88399	9598.1
1442.31151	9680.2
1445.73673	9719.3
1449.15965	9748.2
1452.58027	9625.2
1455.9986	9366.7
1459.41463	9151.1
1462.82837	9182.9
1466.23982	9461.3
1469.64898	9758.7
1473.05586	9990.4
1476.46045	10138
1479.86276	10258.5
1483.26279	10375.1
1486.66054	10484.4
1490.05602	10684.2
1493.44922	10961.4
1496.84016	11355.4
1500.22882	12201.4
1503.61521	13507.7
1506.99934	15247.5
1510.38121	17018.9
1513.76081	18001.5
1517.13816	17264.1
1520.51324	15161.4
1523.88607	12962.7
1527.25665	11525.1
1530.62498	10837.4
1533.99105	10453.9
1537.35488	10161.4
1540.71647	9874.8
1544.07581	9638.2
1547.4329	9461
1550.78776	9258.6
1554.14038	9142.9
1557.49077	9126.3
1560.83892	9246.3
1564.18484	9507.6
1567.52853	9878.3
1570.86999	10376.8
1574.20922	10832.7
1577.54624	11149.3
1580.88103	10904.5
1584.2136	10174
1587.54395	9601.5
1590.87208	9489.4
1594.19801	10005.7
1597.52172	11037
1600.84321	11781.5
1604.16251	11540.5
1607.47959	10563.3
1610.79447	9301.7
1614.10715	8239.1
1617.41763	7466.5
1620.7259	7046.6
1624.03199	6838.5
1627.33587	6822.3
1630.63757	7032.1
1633.93707	7463.6
1637.23439	8238.9
1640.52951	9555.5
1643.82246	11437.8
1647.11321	13437.9
1650.40179	14524.2
1653.68819	13774.9
1656.97241	11545.2
1660.25446	9199.5
1663.53433	7561.1
1666.81203	6616.6
1670.08756	6093.8
1673.36092	5782
1676.63211	5584.4
1679.90115	5431.7
1683.16801	5340.6
1686.43272	5268.1
1689.69527	5213.2
1692.95567	5172.7
1696.2139	5136.5
1699.46999	5114.2
1702.72392	5086
1705.97571	5072.9
1709.22535	5053.6
1712.47284	5081.3
1715.71819	5065.9
1718.96139	5047.5
1722.20246	5009.4
1725.44139	4985.1
1728.67818	4934.4
1731.91284	4894.4
1735.14537	4853.4
1738.37576	4812.9
1741.60403	4793.1
1744.83017	4761.8
1748.05418	4734.4
1751.27607	4708.5
1754.49584	4689.2
1757.71349	4683.1
1760.92903	4676.5
1764.14244	4639.8
1767.35375	4642.3
1770.56294	4613.2
1773.77002	4590.3
1776.97499	4595.1
1780.17785	4558.9
1783.37861	4561.7
1786.57727	4547.2
1789.77382	4530
1792.96828	4528
1796.16064	4515.2
1799.3509	4506.4
1802.53907	4495.4
1805.72514	4455
1808.90913	4441.5
1812.09102	4423.3
1815.27083	4420.6
1818.44856	4404.6
1821.6242	4397
1824.79776	4391.7
1827.96924	4390.2
1831.13864	4361.3
1834.30597	4339.3
1837.47122	4344
1840.6344	4330.7
1843.7955	4335.8
1846.95454	4325.3
1850.11151	4324.7
1853.26642	4306.1
1856.41926	4295.9
1859.57004	4295
1862.71876	4284.2
1865.86542	4281.9
1869.01003	4282.3
1872.15258	4287.3
1875.29308	4263.4
1878.43152	4261.6
1881.56792	4262.5
1884.70227	4256.8
1887.83457	4261.3
1890.96482	4256.1
1894.09304	4259.9
1897.21921	4257.8
1900.34335	4251.5
1903.46544	4251.7
1906.58551	4257.6
1909.70353	4246.8
1912.81953	4225.5
1915.93349	4239.8
1919.04543	4218.5
1922.15534	4196.3
1925.26322	4189.5
1928.36908	4171.7
1931.47292	4151.6
1934.57473	4120.6
1937.67453	4093.5
1940.77232	4086.1
1943.86808	4067.5
1946.96184	4045.3
1950.05358	4030.8
1953.14331	4002
1956.23103	3999.2
1959.31675	3989.9
1962.40046	3974.5
1965.48217	3959
1968.56188	3955.3
1971.63959	3935
1974.7153	3917.7
1977.78901	3919.4
1980.86073	3900.6
1983.93046	3878.8
1986.99819	3841.4
1990.06394	3827.8
1993.1277	3815.7
1996.18947	3814.5
1999.24925	3806.9
2002.30706	3778.1
2005.36288	3759.7
2008.41672	3755.6
2011.46859	3726.3
2014.51848	3724.1
2017.56639	3704.2
2020.61233	3692.8
2023.6563	3679.5
2026.6983	3668.6
2029.73833	3658.7
2032.7764	3638.4
2035.8125	3650
2038.84664	3631.9
2041.87881	3623.1
2044.90903	3621.7
2047.93729	3614.2
2050.96359	3595.7
2053.98794	3602.9
2057.01034	3600.1
2060.03078	3576.2
2063.04927	3565.1
2066.06582	3564.8
2069.08042	3566.4
2072.09307	3570.8
2075.10378	3544.1
2078.11255	3562
2081.11938	3549.1
2084.12426	3543.1
2087.12722	3533.6
2090.12824	3540.7
2093.12732	3530.2
2096.12447	3528.5
2099.11969	3522.9
2102.11299	3529.7
2105.10435	3532.1
2108.09379	3528.5
2111.08131	3527.3
2114.0669	3516.8
2117.05057	3531.5
2120.03233	3507.6
2123.01216	3529.8
2125.99008	3518.8
2128.96609	3521.6
2131.94018	3517.1
2134.91236	3506.6
2137.88263	3523.9
2140.851	3513.2
2143.81746	3514.4
2146.78201	3500
2149.74466	3507.8
2152.7054	3499.8
2155.66425	3494.9
2158.6212	3497.2
2161.57625	3490.8
2164.52941	3489.6
2167.48067	3482.1
2170.43004	3486.4
2173.37752	3466.4
2176.32311	3477.6
2179.26681	3469.3
2182.20863	3457.2
2185.14856	3463.5
2188.08661	3470.6
2191.02278	3473.4
2193.95707	3462.8
2196.88948	3458.8
2199.82001	3463
2202.74867	3457.4
2205.67545	3448.7
2208.60037	3443.5
2211.52341	3414
2214.44458	3413.4
2217.36388	3396.1
2220.28132	3402.2
2223.1969	3378.1
2226.11061	3383.5
2229.02246	3379.3
2231.93245	3347.1
2234.84058	3347.6
2237.74686	3341.1
2240.65128	3339.4
2243.55385	3337
2246.45456	3322.6
2249.35343	3314.8
2252.25044	3309.6
2255.14561	3312.5
2258.03893	3296.6
2260.93041	3307.8
2263.82004	3295.2
2266.70783	3282.9
2269.59378	3276.5
2272.4779	3266.4
2275.36017	3252.4
2278.24061	3254.8
2281.11922	3236.2
2283.996	3222.2
2286.87094	3216.7
2289.74405	3204.2
2292.61534	3199.7
2295.4848	3178.8
2298.35243	3172.7
2301.21824	3180.6
2304.08223	3173
2306.94439	3169.8
2309.80474	3176.2
2312.66327	3167.2
2315.51999	3152.5
2318.37489	3161.3
2321.22797	3149.2
2324.07925	3157.3
2326.92871	3145.3
2329.77637	3140.3
2332.62222	3126.7
2335.46626	3119.6
2338.3085	3126.1
2341.14893	3141.1
2343.98756	3122.3
2346.8244	3115.9
2349.65943	3121.1
2352.49267	3112.9
2355.32411	3118.5
2358.15376	3124.1
2360.98161	3117
2363.80768	3127.6
2366.63195	3145.4
2369.45444	3131.9
2372.27514	3135.2
2375.09405	3136.8
2377.91118	3126.8
2380.72652	3095.4
2383.54009	3091.4
2386.35187	3065
2389.16188	3053.3
2391.97011	3032.2
2394.77657	3041.1
2397.58125	3029.5
2400.38416	3017.3
2403.18529	3000.3
2405.98466	2984.1
2408.78226	2997.7
2411.57809	2980.1
2414.37216	2980
2417.16446	2962.5
2419.955	2970.8
2422.74378	2959.2
2425.5308	2959
2428.31606	2955.6
2431.09956	2945.2
2433.88131	2946.8
2436.6613	2940.6
2439.43954	2947.5
2442.21603	2942.3
2444.99077	2929.6
2447.76377	2940.7
2450.53501	2940.7
2453.30451	2939.9
2456.07226	2926
2458.83827	2932.6
2461.60254	2928.8
2464.36507	2940.3
2467.12586	2935.6
2469.88492	2916.2
2472.64224	2937
2475.39782	2925.4
2478.15167	2929.6
2480.90379	2923.4
2483.65417	2935.6
2486.40283	2946
2489.14976	2943.9
2491.89497	2944
2494.63845	2942.6
2497.3802	2939.5
2500.12024	2941.8
2502.85855	2927.5
2505.59514	2920.9
2508.33002	2915.1
2511.06318	2882.7
2513.79462	2872.4
2516.52435	2854.3
2519.25237	2851
2521.97867	2841.8
2524.70327	2826.3
2527.42616	2830.2
2530.14734	2817.9
2532.86681	2816.5
2535.58458	2807.9
2538.30065	2813
2541.01501	2813.8
2543.72768	2823.6
2546.43864	2802.6
2549.14791	2820.1
2551.85548	2802.3
2554.56136	2799.7
2557.26554	2787.6
2559.96803	2796.6
2562.66883	2785.4
2565.36794	2796.7
2568.06536	2782.3
2570.7611	2779.4
2573.45514	2770.5
2576.14751	2765.6
2578.83819	2771.9
2581.52719	2764.4
2584.21451	2750.4
2586.90015	2753.9
2589.58411	2737.3
2592.2664	2736.8
2594.94701	2740.9
2597.62594	2729
2600.30321	2723.8
2602.9788	2720.1
2605.65273	2716
2608.32498	2718.3
2610.99557	2706.5
2613.66449	2708.7
2616.33175	2709.2
2618.99734	2720.6
2621.66128	2713.6
2624.32355	2704.4
2626.98416	2692.6
2629.64311	2696.9
2632.30041	2694
2634.95605	2690.5
2637.61004	2688
2640.26238	2683.6
2642.91306	2688.4
2645.56209	2683.9
2648.20948	2677
2650.85521	2669.8
2653.4993	2684
2656.14175	2688.8
2658.78255	2685.5
2661.42171	2686.1
2664.05923	2692.6
2666.6951	2685
2669.32934	2692.1
2671.96194	2694
2674.59291	2697.8
2677.22224	2698
2679.84993	2689.1
2682.476	2696.3
2685.10043	2696.4
2687.72324	2674.5
2690.34441	2682.6
2692.96396	2684.2
2695.58188	2681.2
2698.19818	2684.6
2700.81285	2684.6
2703.4259	2681.6
2706.03733	2672.5
2708.64714	2679.4
2711.25533	2701.5
2713.86191	2700.7
2716.46687	2699.9
2719.07021	2719.8
2721.67194	2729.6
2724.27206	2731.9
2726.87057	2734.1
2729.46747	2743.9
2732.06276	2741.4
2734.65644	2738.4
2737.24852	2749.9
2739.83899	2761.3
2742.42786	2756.5
2745.01513	2780.9
2747.60079	2760.2
2750.18486	2786.9
2752.76733	2801.5
2755.3482	2793.4
2757.92747	2803.9
2760.50515	2795.7
2763.08123	2789.8
2765.65573	2800.2
2768.22863	2808.2
2770.79994	2799.3
2773.36967	2811.4
2775.9378	2801.7
2778.50435	2809.7
2781.06932	2807.7
2783.6327	2827.4
2786.1945	2816.4
2788.75471	2830.1
2791.31335	2823.7
2793.87041	2839.1
2796.42589	2830
2798.97979	2846.5
2801.53212	2845.1
2804.08288	2855.9
2806.63206	2850.1
2809.17967	2853
2811.72571	2854.5
2814.27018	2861.8
2816.81308	2867.5
2819.35442	2864.3
2821.89419	2859.4
2824.43239	2870.8
2826.96904	2872
2829.50412	2878.4
2832.03763	2870.7
2834.56959	2890.4
2837.1	2897.6
2839.62884	2908
2842.15613	2925.8
2844.68186	2950.6
2847.20604	2987.6
2849.72867	3025.4
2852.24974	3052.1
2854.76927	3076
2857.28724	3082.2
2859.80367	3111
2862.31855	3127.1
2864.83189	3149.2
2867.34368	3163.1
2869.85393	3179
2872.36264	3175.6
2874.8698	3179.5
2877.37543	3208.8
2879.87952	3218.3
2882.38207	3224.9
2884.88308	3227.4
2887.38256	3251.3
2889.88051	3246.5
2892.37692	3241.9
2894.8718	3241.9
2897.36515	3258.8
2899.85698	3255.8
2902.34727	3263.3
2904.83604	3245.8
2907.32328	3246.5
2909.809	3238.5
2912.29319	3243.4
2914.77587	3235.2
2917.25702	3236.6
2919.73665	3236.7
2922.21476	3220.7
2924.69136	3219.9
2927.16644	3206.3
2929.64	3189.8
2932.11205	3164.7
2934.58258	3138.7
2937.05161	3135.1
2939.51912	3092.9
2941.98513	3060.4
2944.44962	3007.5
2946.91261	2958.9
2949.37409	2931
2951.83407	2906.1
2954.29254	2872.1
2956.74951	2829.5
2959.20498	2813.8
2961.65895	2776.8
2964.11142	2755.2
2966.56239	2716.9
2969.01186	2690.8
2971.45984	2665.7
2973.90632	2643.2
2976.35131	2615.4
2978.7948	2596.3
2981.23681	2584.3
2983.67732	2550
2986.11635	2536.2
2988.55388	2501.2
2990.98993	2510.5
2993.4245	2480.5
2995.85758	2482.7
2998.28917	2463.7
3000.71928	2452.2
3003.14791	2449.6
3005.57506	2437.3
3008.00073	2436.1
3010.42493	2432.9
3012.84764	2430.8
3015.26888	2420.9
3017.68865	2411.2
3020.10694	2405.5
3022.52376	2407.2
3024.9391	2396.8
3027.35298	2384.8
3029.76539	2373.5
3032.17632	2374.3
3034.5858	2373.7
3036.9938	2371.9
3039.40034	2357.1
3041.80542	2361.5
3044.20903	2357.4
3046.61118	2365
3049.01187	2353.3
3051.4111	2352.5
3053.80888	2343.3
3056.20519	2349.1
3058.60005	2346.9
3060.99345	2347.3
3063.3854	2345.8
3065.7759	2337
3068.16494	2339.4
3070.55254	2344.1
3072.93868	2336.8
3075.32338	2313.6
3077.70662	2323.4
3080.08842	2315.6
3082.46878	2314
3084.84769	2313.8
3087.22515	2311.7
3089.60118	2326.3
3091.97576	2318.5
3094.3489	2324.5
3096.72061	2322.2
3099.09087	2327
3101.4597	2323.6
3103.82709	2323.5
3106.19305	2328.9
3108.55757	2323.4
3110.92066	2334.8
3113.28232	2332
3115.64255	2323.6
3118.00134	2316.2
3120.35871	2321.6
3122.71466	2327.5
3125.06917	2329.4
3127.42226	2334
3129.77393	2344.3
3132.12417	2337.6
3134.47299	2348.3
3136.82039	2354
3139.16636	2366.7
3141.51092	2362.6
3143.85406	2372.8
3146.19579	2377
3148.53609	2379.8
3150.87499	2390.3
3153.21246	2393.5
3155.54853	2409.2
3157.88318	2412.3
3160.21642	2407.3
3162.54826	2414.2
3164.87868	2414
3167.2077	2421.3
3169.5353	2422.2
3171.86151	2432.6
3174.18631	2436.9
3176.5097	2444.6
3178.83169	2436.7
3181.15228	2453.3
3183.47147	2441.5
3185.78926	2459
3188.10565	2451
3190.42065	2460.2
3192.73424	2462.4
3195.04645	2477.2
3197.35725	2471.4
3199.66667	2468.1
3201.97469	2474.1
3204.28132	2485.2
3206.58656	2484.9
3208.8904	2491.9
3211.19287	2499.5
3213.49394	2502.3
3215.79363	2507.3
3218.09193	2524.9
3220.38884	2502.6
3222.68438	2507.4
3224.97853	2515.8
3227.2713	2522.3
3229.56269	2513.2
3231.8527	2521.4
3234.14133	2522.5
3236.42858	2510.9
3238.71446	2512.5
3240.99896	2515.7
3243.28209	2520.6
3245.56384	2520
3247.84423	2536.5
3250.12324	2531.7
3252.40088	2537.1
3254.67715	2533.9
3256.95205	2540.6
3259.22558	2531.2
3261.49775	2534.7
3263.76855	2524
3266.03799	2533.8
3268.30606	2529.9
3270.57277	2544.8
3272.83812	2517.4
3275.10211	2532.5
3277.36474	2523.8
3279.62601	2535.3
3281.88593	2528
3284.14448	2528.5
3286.40168	2528.4
3288.65753	2531.6
3290.91202	2515.6
3293.16516	2505
3295.41695	2505.1
3297.66738	2490.1
3299.91647	2479.8
3302.16421	2447
3304.4106	2458.2
3306.65564	2439.1
3308.89933	2416.7
3311.14169	2394.1
3313.38269	2380.3
3315.62236	2361.4
3317.86068	2348.4
3320.09766	2327.6
3322.3333	2307.9
3324.5676	2306.8
3326.80056	2260.1
3329.03219	2258.3
3331.26248	-0.3
3333.49143	-0.3
3335.71905	0.2
