Data from AgNP_FTO_APTES_CRN_10uM_R6G_10uM_NaF_0.1M_Addition_RamanShift__0__16-14-57-951.txt Node

Date: Wed Dec 15 16:14:57 GMT 2021
User: TCL
Spectrometer: QEP01345
Trigger mode: 4
Integration Time (sec): 7.000000E0
Scans to average: 10
Electric dark correction enabled: true
Nonlinearity correction enabled: false
Boxcar width: 0
XAxis mode: Raman Shifts
Number of Pixels in Spectrum: 1044
>>>>>Begin Spectral Data<<<<<
46.04893	0.7625
50.45542	-2.0375
54.85868	-2.5375
59.25871	-0.7375
63.6555	77.0625
68.04907	84.6625
72.43941	87.3625
76.82654	92.6625
81.21044	96.4625
85.59113	96.7625
89.96862	102.0625
94.34289	99.0625
98.71396	111.0625
103.08183	115.7625
107.4465	114.5625
111.80798	115.5625
116.16626	120.8625
120.52136	127.5625
124.87327	127.9625
129.222	136.7625
133.56755	143.2625
137.90993	157.7625
142.24913	169.0625
146.58517	182.9625
150.91804	219.0625
155.24774	258.7625
159.57429	318.6625
163.89768	406.8625
168.21792	536.2625
172.53501	727.6625
176.84895	1015.9625
181.15975	1425.2625
185.46741	1992.0625
189.77193	2752.3625
194.07331	3694.2625
198.37157	4774.6625
202.6667	5941.7625
206.9587	7084.0625
211.24758	8259.2625
215.53334	9396.2625
219.81599	10623.1625
224.09553	12006.0625
228.37195	13459.8625
232.64527	15100.6625
236.91549	16809.0625
241.18261	18457.6625
245.44663	19930.4625
249.70755	21219.6625
253.96539	22247.9625
258.22014	23119.5625
262.4718	23825.3625
266.72039	24276.9625
270.96589	24484.2625
275.20832	24397.1625
279.44768	24074.7625
283.68397	23656.4625
287.91719	23391.3625
292.14735	23205.3625
296.37445	23247.3625
300.59849	23537.3625
304.81948	23884.1625
309.03742	24186.8625
313.25231	24177.1625
317.46415	23616.6625
321.67296	22811.5625
325.87872	22047.8625
330.08145	21665.8625
334.28114	21693.8625
338.47781	21925.4625
342.67145	22352.7625
346.86207	22877.7625
351.04966	23608.1625
355.23424	24316.3625
359.4158	24822.9625
363.59435	25070.6625
367.76989	25168.6625
371.94243	25046.1625
376.11196	24902.6625
380.27849	24770.8625
384.44203	24719.6625
388.60257	24785.1625
392.76012	24942.2625
396.91468	25278.0625
401.06626	25770.4625
405.21485	26174.3625
409.36047	26007.4625
413.50311	25345.1625
417.64277	24709.5625
421.77947	24352.7625
425.9132	24193.5625
430.04396	24158.3625
434.17176	24180.1625
438.2966	24279.8625
442.41849	24552.3625
446.53742	25012.3625
450.6534	25463.7625
454.76644	25704.9625
458.87653	25807.5625
462.98368	25680.1625
467.08789	25514.8625
471.18916	25302.0625
475.2875	25001.5625
479.38291	24709.7625
483.4754	24512.0625
487.56496	24343.9625
491.6516	24192.7625
495.73531	24060.5625
499.81612	24089.4625
503.89401	24201.5625
507.96899	24348.3625
512.04106	24491.0625
516.11023	24704.5625
520.1765	24842.7625
524.23987	24867.7625
528.30034	24763.0625
532.35792	24514.1625
536.41261	24088.9625
540.46441	23644.0625
544.51333	23477.2625
548.55936	23617.5625
552.60252	23995.1625
556.64279	24446.6625
560.6802	24687.5625
564.71473	24857.7625
568.7464	25251.9625
572.7752	25724.4625
576.80114	25895.4625
580.82422	26223.6625
584.84444	27013.2625
588.86181	27838.2625
592.87633	28185.7625
596.888	28038.5625
600.89682	27578.3625
604.9028	28323.8625
608.90594	31877.6625
612.90624	36332.1625
616.90371	34649.1625
620.89834	27876.7625
624.89015	24675.5625
628.87913	24141.8625
632.86528	24377.7625
636.84862	24599.6625
640.82913	24336.4625
644.80683	23632.4625
648.78172	23200.3625
652.75379	23216.0625
656.72306	23595.6625
660.68952	24160.7625
664.65319	24053.6625
668.61405	23504.6625
672.57211	23293.9625
676.52738	23331.2625
680.47986	23251.3625
684.42955	23064.3625
688.37646	22949.6625
692.32058	23075.5625
696.26192	23312.0625
700.20048	23651.4625
704.13626	23896.1625
708.06928	24002.8625
711.99952	23959.1625
715.927	23962.5625
719.85171	23964.5625
723.77365	23771.0625
727.69284	23515.3625
731.60928	23217.3625
735.52295	23142.1625
739.43388	23100.1625
743.34206	23174.5625
747.24749	23269.0625
751.15017	23430.8625
755.05012	23736.9625
758.94733	24409.1625
762.8418	25918.2625
766.73354	28380.9625
770.62254	30797.6625
774.50882	31571.7625
778.39237	30402.5625
782.27321	28118.6625
786.15132	25856.0625
790.02671	24398.2625
793.89938	23662.1625
797.76935	23398.0625
801.6366	23214.4625
805.50115	23140.2625
809.36299	23064.0625
813.22213	22916.7625
817.07857	22858.0625
820.93231	22804.2625
824.78336	22840.0625
828.63172	22953.6625
832.47738	23003.1625
836.32036	23090.3625
840.16066	23117.4625
843.99827	23068.8625
847.8332	22966.0625
851.66546	22880.0625
855.49504	22843.2625
859.32195	22838.8625
863.1462	22804.2625
866.96777	22722.1625
870.78668	22711.4625
874.60293	22744.7625
878.41652	22815.3625
882.22745	22879.6625
886.03573	22998.5625
889.84136	23065.7625
893.64433	22991.4625
897.44466	22915.4625
901.24235	22888.5625
905.0374	22879.5625
908.8298	22794.3625
912.61957	22847.0625
916.40671	22941.6625
920.19121	23095.1625
923.97308	23305.9625
927.75233	23552.7625
931.52895	23659.8625
935.30295	23458.9625
939.07433	23007.1625
942.84309	22583.0625
946.60924	22355.7625
950.37278	22233.4625
954.13371	22153.2625
957.89203	22075.9625
961.64774	22070.2625
965.40086	22043.0625
969.15137	22062.5625
972.89929	22047.8625
976.64461	22038.0625
980.38733	22027.2625
984.12747	22162.1625
987.86502	22287.4625
991.59999	22380.2625
995.33237	22545.6625
999.06217	22815.2625
1002.78939	23209.1625
1006.51404	23572.4625
1010.23611	24026.8625
1013.95561	24200.2625
1017.67255	24087.5625
1021.38692	23884.7625
1025.09872	23602.7625
1028.80796	23486.5625
1032.51465	23608.7625
1036.21877	23876.6625
1039.92035	24031.6625
1043.61937	24186.9625
1047.31584	24206.2625
1051.00976	24213.3625
1054.70114	24330.0625
1058.38998	24622.7625
1062.07627	25047.2625
1065.76003	25733.8625
1069.44126	26657.3625
1073.11995	27650.9625
1076.79611	28222.7625
1080.46974	28013.6625
1084.14085	27446.6625
1087.80943	27041.7625
1091.47549	26752.1625
1095.13903	26397.3625
1098.80005	25899.6625
1102.45857	25228.7625
1106.11456	24699.8625
1109.76805	24452.3625
1113.41903	24392.6625
1117.06751	24655.2625
1120.71348	24997.4625
1124.35696	25540.3625
1127.99793	26085.1625
1131.63641	26246.6625
1135.2724	25832.3625
1138.90589	25417.6625
1142.5369	25142.1625
1146.16542	24938.4625
1149.79145	24817.1625
1153.415	24818.5625
1157.03607	24836.7625
1160.65467	25210.3625
1164.27079	25904.7625
1167.88443	26995.3625
1171.49561	28482.9625
1175.10432	30732.5625
1178.71056	33494.0625
1182.31434	35810.7625
1185.91565	36634.2625
1189.51451	36050.0625
1193.11091	34820.5625
1196.70485	33195.9625
1200.29634	31729.5625
1203.88538	30522.1625
1207.47197	29483.3625
1211.05612	28671.4625
1214.63782	28077.1625
1218.21708	27538.8625
1221.79391	27128.8625
1225.36829	26903.8625
1228.94024	26753.8625
1232.50976	26701.5625
1236.07685	26623.9625
1239.6415	26487.4625
1243.20374	26487.8625
1246.76355	26642.1625
1250.32093	26906.4625
1253.8759	27331.9625
1257.42845	27960.1625
1260.97859	28679.2625
1264.52631	29433.2625
1268.07163	30226.0625
1271.61453	31002.8625
1275.15503	31608.5625
1278.69312	32139.2625
1282.22882	32686.2625
1285.76211	33455.3625
1289.29301	34521.5625
1292.82151	35479.8625
1296.34761	36574.2625
1299.87133	37995.3625
1303.39266	39969.2625
1306.9116	42421.4625
1310.42815	45041.6625
1313.94233	46426.1625
1317.45412	45897.7625
1320.96354	44090.7625
1324.47058	42326.6625
1327.97525	40840.7625
1331.47754	39620.7625
1334.97747	38933.2625
1338.47502	38468.9625
1341.97022	38454.2625
1345.46305	38950.2625
1348.95352	39990.3625
1352.44163	41743.8625
1355.92738	44119.0625
1359.41078	47390.0625
1362.89183	50601.5625
1366.37053	49952.6625
1369.84688	45171.7625
1373.32088	39632.6625
1376.79254	35907.7625
1380.26186	34019.9625
1383.72883	32963.1625
1387.19347	32028.3625
1390.65578	31100.0625
1394.11575	30372.3625
1397.57339	29995.3625
1401.0287	29793.0625
1404.48168	29680.6625
1407.93234	29533.4625
1411.38068	29353.3625
1414.82669	29119.5625
1418.27039	28701.5625
1421.71177	28352.9625
1425.15083	27963.7625
1428.58758	27731.5625
1432.02203	27873.1625
1435.45416	28184.2625
1438.88399	28448.8625
1442.31151	28528.1625
1445.73673	28615.2625
1449.15965	28831.6625
1452.58027	28813.8625
1455.9986	28775.5625
1459.41463	28940.1625
1462.82837	29309.0625
1466.23982	29898.4625
1469.64898	30480.4625
1473.05586	30977.2625
1476.46045	31316.4625
1479.86276	31661.0625
1483.26279	32015.8625
1486.66054	32479.5625
1490.05602	33290.0625
1493.44922	34550.0625
1496.84016	36192.8625
1500.22882	38692.5625
1503.61521	41914.2625
1506.99934	45229.2625
1510.38121	47690.4625
1513.76081	47941.6625
1517.13816	45458.1625
1520.51324	41561.2625
1523.88607	38007.6625
1527.25665	35565.3625
1530.62498	34153.7625
1533.99105	33247.0625
1537.35488	32424.5625
1540.71647	31720.3625
1544.07581	31156.1625
1547.4329	30647.5625
1550.78776	30301.2625
1554.14038	30180.8625
1557.49077	30215.4625
1560.83892	30514.8625
1564.18484	31112.0625
1567.52853	32144.3625
1570.86999	33103.3625
1574.20922	34366.9625
1577.54624	35394.9625
1580.88103	35518.5625
1584.2136	34818.5625
1587.54395	33750.5625
1590.87208	32978.5625
1594.19801	33210.0625
1597.52172	34090.9625
1600.84321	34439.2625
1604.16251	33453.7625
1607.47959	31801.5625
1610.79447	29912.5625
1614.10715	28134.8625
1617.41763	26645.1625
1620.7259	25662.4625
1624.03199	25187.0625
1627.33587	25150.3625
1630.63757	25616.2625
1633.93707	26580.7625
1637.23439	28221.3625
1640.52951	30917.7625
1643.82246	34560.2625
1647.11321	38363.8625
1650.40179	40649.6625
1653.68819	39469.9625
1656.97241	35372.5625
1660.25446	30758.5625
1663.53433	27257.8625
1666.81203	25010.6625
1670.08756	23666.8625
1673.36092	22855.8625
1676.63211	22290.3625
1679.90115	21929.1625
1683.16801	21686.4625
1686.43272	21515.1625
1689.69527	21363.8625
1692.95567	21270.2625
1696.2139	21218.5625
1699.46999	21193.6625
1702.72392	21119.0625
1705.97571	21121.2625
1709.22535	21084.6625
1712.47284	21071.0625
1715.71819	21031.0625
1718.96139	20979.1625
1722.20246	20931.9625
1725.44139	20896.3625
1728.67818	20808.1625
1731.91284	20698.8625
1735.14537	20610.1625
1738.37576	20527.9625
1741.60403	20483.4625
1744.83017	20425.9625
1748.05418	20410.2625
1751.27607	20356.4625
1754.49584	20350.0625
1757.71349	20364.4625
1760.92903	20350.8625
1764.14244	20348.2625
1767.35375	20308.3625
1770.56294	20282.1625
1773.77002	20295.8625
1776.97499	20241.1625
1780.17785	20170.0625
1783.37861	20163.3625
1786.57727	20072.2625
1789.77382	20054.3625
1792.96828	20026.7625
1796.16064	20007.4625
1799.3509	19964.1625
1802.53907	19938.9625
1805.72514	19886.5625
1808.90913	19827.0625
1812.09102	19782.0625
1815.27083	19738.6625
1818.44856	19734.4625
1821.6242	19704.1625
1824.79776	19689.7625
1827.96924	19677.9625
1831.13864	19696.9625
1834.30597	19723.0625
1837.47122	19707.9625
1840.6344	19692.5625
1843.7955	19703.0625
1846.95454	19702.1625
1850.11151	19656.0625
1853.26642	19653.1625
1856.41926	19639.3625
1859.57004	19626.4625
1862.71876	19636.4625
1865.86542	19642.3625
1869.01003	19607.1625
1872.15258	19582.5625
1875.29308	19548.4625
1878.43152	19495.7625
1881.56792	19447.5625
1884.70227	19457.3625
1887.83457	19411.9625
1890.96482	19400.3625
1894.09304	19373.5625
1897.21921	19377.5625
1900.34335	19345.1625
1903.46544	19339.2625
1906.58551	19336.0625
1909.70353	19308.4625
1912.81953	19277.1625
1915.93349	19251.5625
1919.04543	19213.2625
1922.15534	19195.0625
1925.26322	19160.3625
1928.36908	19113.3625
1931.47292	19076.3625
1934.57473	19024.8625
1937.67453	18998.4625
1940.77232	18984.4625
1943.86808	18953.9625
1946.96184	18845.6625
1950.05358	18844.5625
1953.14331	18814.7625
1956.23103	18782.2625
1959.31675	18770.5625
1962.40046	18703.5625
1965.48217	18637.6625
1968.56188	18566.6625
1971.63959	18566.6625
1974.7153	18486.0625
1977.78901	18454.0625
1980.86073	18368.6625
1983.93046	18342.3625
1986.99819	18334.7625
1990.06394	18243.8625
1993.1277	18205.0625
1996.18947	18110.1625
1999.24925	18095.2625
2002.30706	18034.0625
2005.36288	18008.3625
2008.41672	17923.7625
2011.46859	17873.3625
2014.51848	17892.0625
2017.56639	17800.5625
2020.61233	17785.3625
2023.6563	17734.6625
2026.6983	17714.8625
2029.73833	17694.0625
2032.7764	17647.2625
2035.8125	17611.6625
2038.84664	17546.6625
2041.87881	17547.6625
2044.90903	17526.3625
2047.93729	17525.5625
2050.96359	17482.0625
2053.98794	17484.3625
2057.01034	17476.6625
2060.03078	17454.7625
2063.04927	17438.3625
2066.06582	17441.3625
2069.08042	17419.3625
2072.09307	17389.6625
2075.10378	17345.6625
2078.11255	17349.4625
2081.11938	17383.2625
2084.12426	17414.6625
2087.12722	17399.6625
2090.12824	17362.5625
2093.12732	17418.5625
2096.12447	17394.7625
2099.11969	17438.1625
2102.11299	17428.0625
2105.10435	17445.0625
2108.09379	17463.7625
2111.08131	17481.0625
2114.0669	17513.0625
2117.05057	17535.9625
2120.03233	17530.1625
2123.01216	17559.3625
2125.99008	17571.7625
2128.96609	17620.0625
2131.94018	17629.7625
2134.91236	17626.1625
2137.88263	17626.2625
2140.851	17609.4625
2143.81746	17649.3625
2146.78201	17674.3625
2149.74466	17674.8625
2152.7054	17669.2625
2155.66425	17701.1625
2158.6212	17669.4625
2161.57625	17661.5625
2164.52941	17688.8625
2167.48067	17716.7625
2170.43004	17683.2625
2173.37752	17698.6625
2176.32311	17691.9625
2179.26681	17696.6625
2182.20863	17696.3625
2185.14856	17693.8625
2188.08661	17688.0625
2191.02278	17652.7625
2193.95707	17672.4625
2196.88948	17654.9625
2199.82001	17631.2625
2202.74867	17633.3625
2205.67545	17652.8625
2208.60037	17640.4625
2211.52341	17618.4625
2214.44458	17595.9625
2217.36388	17552.2625
2220.28132	17565.2625
2223.1969	17475.9625
2226.11061	17499.5625
2229.02246	17482.3625
2231.93245	17439.1625
2234.84058	17436.4625
2237.74686	17411.8625
2240.65128	17408.0625
2243.55385	17328.1625
2246.45456	17329.3625
2249.35343	17304.0625
2252.25044	17298.0625
2255.14561	17276.2625
2258.03893	17278.1625
2260.93041	17300.0625
2263.82004	17260.9625
2266.70783	17255.7625
2269.59378	17167.9625
2272.4779	17153.6625
2275.36017	17116.0625
2278.24061	17096.5625
2281.11922	17044.4625
2283.996	17043.5625
2286.87094	17010.3625
2289.74405	16977.2625
2292.61534	16932.4625
2295.4848	16931.3625
2298.35243	16962.5625
2301.21824	16962.1625
2304.08223	16888.2625
2306.94439	16914.6625
2309.80474	16921.2625
2312.66327	16934.7625
2315.51999	16893.2625
2318.37489	16900.5625
2321.22797	16878.3625
2324.07925	16869.2625
2326.92871	16849.2625
2329.77637	16823.2625
2332.62222	16822.5625
2335.46626	16779.5625
2338.3085	16806.5625
2341.14893	16780.2625
2343.98756	16762.4625
2346.8244	16730.8625
2349.65943	16742.7625
2352.49267	16772.8625
2355.32411	16773.7625
2358.15376	16761.3625
2360.98161	16698.7625
2363.80768	16760.0625
2366.63195	16758.0625
2369.45444	16722.6625
2372.27514	16735.2625
2375.09405	16723.0625
2377.91118	16685.9625
2380.72652	16651.1625
2383.54009	16624.7625
2386.35187	16575.4625
2389.16188	16543.4625
2391.97011	16537.1625
2394.77657	16511.6625
2397.58125	16460.8625
2400.38416	16461.6625
2403.18529	16412.2625
2405.98466	16402.6625
2408.78226	16367.8625
2411.57809	16340.2625
2414.37216	16311.1625
2417.16446	16344.4625
2419.955	16298.6625
2422.74378	16336.4625
2425.5308	16293.0625
2428.31606	16282.8625
2431.09956	16264.1625
2433.88131	16246.0625
2436.6613	16269.2625
2439.43954	16267.7625
2442.21603	16238.6625
2444.99077	16221.1625
2447.76377	16260.8625
2450.53501	16207.7625
2453.30451	16239.1625
2456.07226	16209.1625
2458.83827	16207.8625
2461.60254	16221.0625
2464.36507	16203.8625
2467.12586	16189.0625
2469.88492	16194.4625
2472.64224	16189.1625
2475.39782	16176.9625
2478.15167	16182.2625
2480.90379	16165.1625
2483.65417	16191.0625
2486.40283	16183.7625
2489.14976	16209.5625
2491.89497	16159.0625
2494.63845	16199.6625
2497.3802	16206.2625
2500.12024	16182.6625
2502.85855	16166.1625
2505.59514	16140.0625
2508.33002	16117.2625
2511.06318	16075.2625
2513.79462	16024.9625
2516.52435	16032.1625
2519.25237	15997.8625
2521.97867	15997.5625
2524.70327	15984.5625
2527.42616	15935.0625
2530.14734	15944.9625
2532.86681	15889.0625
2535.58458	15907.4625
2538.30065	15888.6625
2541.01501	15871.0625
2543.72768	15880.8625
2546.43864	15863.2625
2549.14791	15871.3625
2551.85548	15832.7625
2554.56136	15819.1625
2557.26554	15785.0625
2559.96803	15801.8625
2562.66883	15786.1625
2565.36794	15793.8625
2568.06536	15774.7625
2570.7611	15753.2625
2573.45514	15760.5625
2576.14751	15702.9625
2578.83819	15669.7625
2581.52719	15657.7625
2584.21451	15646.9625
2586.90015	15619.4625
2589.58411	15612.1625
2592.2664	15554.1625
2594.94701	15533.1625
2597.62594	15548.7625
2600.30321	15501.8625
2602.9788	15478.2625
2605.65273	15497.8625
2608.32498	15433.3625
2610.99557	15445.6625
2613.66449	15438.9625
2616.33175	15412.9625
2618.99734	15400.5625
2621.66128	15400.0625
2624.32355	15356.9625
2626.98416	15324.1625
2629.64311	15334.5625
2632.30041	15358.4625
2634.95605	15288.0625
2637.61004	15269.6625
2640.26238	15226.1625
2642.91306	15222.0625
2645.56209	15238.8625
2648.20948	15241.5625
2650.85521	15228.6625
2653.4993	15218.6625
2656.14175	15227.7625
2658.78255	15237.4625
2661.42171	15197.4625
2664.05923	15251.4625
2666.6951	15221.4625
2669.32934	15270.2625
2671.96194	15236.9625
2674.59291	15252.8625
2677.22224	15218.7625
2679.84993	15236.8625
2682.476	15221.2625
2685.10043	15216.3625
2687.72324	15224.1625
2690.34441	15246.1625
2692.96396	15235.6625
2695.58188	15256.5625
2698.19818	15238.7625
2700.81285	15274.1625
2703.4259	15290.6625
2706.03733	15367.0625
2708.64714	15309.5625
2711.25533	15288.1625
2713.86191	15299.7625
2716.46687	15317.5625
2719.07021	15300.8625
2721.67194	15299.6625
2724.27206	15271.7625
2726.87057	15272.8625
2729.46747	15304.5625
2732.06276	15288.4625
2734.65644	15262.8625
2737.24852	15298.4625
2739.83899	15263.8625
2742.42786	15286.8625
2745.01513	15203.4625
2747.60079	15210.9625
2750.18486	15198.0625
2752.76733	15210.1625
2755.3482	15222.6625
2757.92747	15190.0625
2760.50515	15167.9625
2763.08123	15177.2625
2765.65573	15133.1625
2768.22863	15124.5625
2770.79994	15071.3625
2773.36967	15086.3625
2775.9378	15057.0625
2778.50435	15078.0625
2781.06932	15057.6625
2783.6327	15037.4625
2786.1945	15029.8625
2788.75471	15000.3625
2791.31335	14980.1625
2793.87041	14915.9625
2796.42589	14904.7625
2798.97979	14919.3625
2801.53212	14852.7625
2804.08288	14876.5625
2806.63206	14859.3625
2809.17967	14861.9625
2811.72571	14769.2625
2814.27018	14794.3625
2816.81308	14741.3625
2819.35442	14743.8625
2821.89419	14739.9625
2824.43239	14742.1625
2826.96904	14717.8625
2829.50412	14740.7625
2832.03763	14706.3625
2834.56959	14722.0625
2837.1	14685.9625
2839.62884	14692.7625
2842.15613	14687.6625
2844.68186	14732.6625
2847.20604	14754.5625
2849.72867	14741.4625
2852.24974	14711.6625
2854.76927	14741.8625
2857.28724	14744.4625
2859.80367	14715.6625
2862.31855	14709.7625
2864.83189	14691.7625
2867.34368	14672.1625
2869.85393	14701.0625
2872.36264	14702.4625
2874.8698	14704.9625
2877.37543	14701.5625
2879.87952	14727.5625
2882.38207	14678.7625
2884.88308	14702.2625
2887.38256	14719.1625
2889.88051	14718.9625
2892.37692	14692.3625
2894.8718	14657.4625
2897.36515	14700.0625
2899.85698	14691.4625
2902.34727	14705.0625
2904.83604	14731.7625
2907.32328	14736.2625
2909.809	14699.9625
2912.29319	14748.2625
2914.77587	14732.0625
2917.25702	14722.0625
2919.73665	14706.8625
2922.21476	14720.6625
2924.69136	14703.4625
2927.16644	14712.4625
2929.64	14680.4625
2932.11205	14679.3625
2934.58258	14651.6625
2937.05161	14705.3625
2939.51912	14651.1625
2941.98513	14610.8625
2944.44962	14586.0625
2946.91261	14516.8625
2949.37409	14572.6625
2951.83407	14564.5625
2954.29254	14566.5625
2956.74951	14515.9625
2959.20498	14522.8625
2961.65895	14504.4625
2964.11142	14528.0625
2966.56239	14488.3625
2969.01186	14463.7625
2971.45984	14398.2625
2973.90632	14369.7625
2976.35131	14359.8625
2978.7948	14316.3625
2981.23681	14287.9625
2983.67732	14276.8625
2986.11635	14270.9625
2988.55388	14254.7625
2990.98993	14214.1625
2993.4245	14203.1625
2995.85758	14167.4625
2998.28917	14115.1625
3000.71928	14149.6625
3003.14791	14111.7625
3005.57506	14106.0625
3008.00073	14090.7625
3010.42493	14069.2625
3012.84764	14028.1625
3015.26888	14025.4625
3017.68865	14007.0625
3020.10694	13996.8625
3022.52376	13953.1625
3024.9391	13980.6625
3027.35298	13959.5625
3029.76539	13975.8625
3032.17632	13927.1625
3034.5858	13883.6625
3036.9938	13856.0625
3039.40034	13846.2625
3041.80542	13802.6625
3044.20903	13800.8625
3046.61118	13828.9625
3049.01187	13759.0625
3051.4111	13790.6625
3053.80888	13776.8625
3056.20519	13748.3625
3058.60005	13712.7625
3060.99345	13678.9625
3063.3854	13705.3625
3065.7759	13651.4625
3068.16494	13633.4625
3070.55254	13581.8625
3072.93868	13584.9625
3075.32338	13531.2625
3077.70662	13518.7625
3080.08842	13472.8625
3082.46878	13494.6625
3084.84769	13499.0625
3087.22515	13478.5625
3089.60118	13477.5625
3091.97576	13472.9625
3094.3489	13517.2625
3096.72061	13449.5625
3099.09087	13458.0625
3101.4597	13448.5625
3103.82709	13452.8625
3106.19305	13411.7625
3108.55757	13430.8625
3110.92066	13414.3625
3113.28232	13358.4625
3115.64255	13334.4625
3118.00134	13321.7625
3120.35871	13330.0625
3122.71466	13325.4625
3125.06917	13287.8625
3127.42226	13277.0625
3129.77393	13289.9625
3132.12417	13294.0625
3134.47299	13296.5625
3136.82039	13291.9625
3139.16636	13303.6625
3141.51092	13319.5625
3143.85406	13296.4625
3146.19579	13328.3625
3148.53609	13317.2625
3150.87499	13318.8625
3153.21246	13346.5625
3155.54853	13365.2625
3157.88318	13347.7625
3160.21642	13346.6625
3162.54826	13358.4625
3164.87868	13319.8625
3167.2077	13344.9625
3169.5353	13317.0625
3171.86151	13312.5625
3174.18631	13303.5625
3176.5097	13304.7625
3178.83169	13307.4625
3181.15228	13264.2625
3183.47147	13251.7625
3185.78926	13276.1625
3188.10565	13237.5625
3190.42065	13239.0625
3192.73424	13197.4625
3195.04645	13221.6625
3197.35725	13242.7625
3199.66667	13229.3625
3201.97469	13249.0625
3204.28132	13251.3625
3206.58656	13246.7625
3208.8904	13262.9625
3211.19287	13279.3625
3213.49394	13262.7625
3215.79363	13273.3625
3218.09193	13312.7625
3220.38884	13266.2625
3222.68438	13281.4625
3224.97853	13280.2625
3227.2713	13262.4625
3229.56269	13208.8625
3231.8527	13206.6625
3234.14133	13173.5625
3236.42858	13171.8625
3238.71446	13177.5625
3240.99896	13163.0625
3243.28209	13136.1625
3245.56384	13143.1625
3247.84423	13130.3625
3250.12324	13123.9625
3252.40088	13140.0625
3254.67715	13153.4625
3256.95205	13124.3625
3259.22558	13133.4625
3261.49775	13128.3625
3263.76855	13109.4625
3266.03799	13057.8625
3268.30606	13066.5625
3270.57277	13019.1625
3272.83812	13019.2625
3275.10211	12975.2625
3277.36474	12975.5625
3279.62601	12991.4625
3281.88593	12962.2625
3284.14448	12976.6625
3286.40168	12946.9625
3288.65753	12949.8625
3290.91202	12892.5625
3293.16516	12899.4625
3295.41695	12850.3625
3297.66738	12768.6625
3299.91647	12730.7625
3302.16421	12651.4625
3304.4106	12601.3625
3306.65564	12550.1625
3308.89933	12478.7625
3311.14169	12412.9625
3313.38269	12299.0625
3315.62236	12256.4625
3317.86068	12125.7625
3320.09766	12025.1625
3322.3333	11930.8625
3324.5676	11931.4625
3326.80056	11768.4625
3329.03219	11691.8625
3331.26248	4.3625
3333.49143	-0.4375
3335.71905	0.1625
