Data from AgNP_FTO_APTES_CRN_10uM_R6G_10uM_NaF_0.1M_Addition_RamanShift__6__16-21-57-959.txt Node

Date: Wed Dec 15 16:21:57 GMT 2021
User: TCL
Spectrometer: QEP01345
Trigger mode: 4
Integration Time (sec): 7.000000E0
Scans to average: 10
Electric dark correction enabled: true
Nonlinearity correction enabled: false
Boxcar width: 0
XAxis mode: Raman Shifts
Number of Pixels in Spectrum: 1044
>>>>>Begin Spectral Data<<<<<
46.04893	1.5625
50.45542	-1.0375
54.85868	-1.8375
59.25871	-1.0375
63.6555	81.5625
68.04907	85.2625
72.43941	89.3625
76.82654	92.8625
81.21044	97.4625
85.59113	100.8625
89.96862	110.1625
94.34289	106.3625
98.71396	109.8625
103.08183	114.1625
107.4465	118.3625
111.80798	121.3625
116.16626	123.8625
120.52136	130.1625
124.87327	133.3625
129.222	137.7625
133.56755	146.6625
137.90993	159.2625
142.24913	177.1625
146.58517	193.1625
150.91804	221.1625
155.24774	260.2625
159.57429	321.9625
163.89768	416.1625
168.21792	550.7625
172.53501	749.1625
176.84895	1037.6625
181.15975	1454.4625
185.46741	2027.3625
189.77193	2805.1625
194.07331	3739.4625
198.37157	4805.7625
202.6667	5939.3625
206.9587	7062.1625
211.24758	8175.6625
215.53334	9296.5625
219.81599	10451.1625
224.09553	11779.7625
228.37195	13180.9625
232.64527	14713.0625
236.91549	16373.3625
241.18261	18048.6625
245.44663	19593.4625
249.70755	21007.0625
253.96539	22254.7625
258.22014	23265.6625
262.4718	24069.8625
266.72039	24642.7625
270.96589	24911.5625
275.20832	24934.3625
279.44768	24750.4625
283.68397	24482.3625
287.91719	24349.3625
292.14735	24310.7625
296.37445	24282.7625
300.59849	24400.3625
304.81948	24450.8625
309.03742	24456.5625
313.25231	24245.2625
317.46415	23801.9625
321.67296	23240.2625
325.87872	22703.3625
330.08145	22434.5625
334.28114	22401.0625
338.47781	22539.1625
342.67145	22810.5625
346.86207	23168.0625
351.04966	23628.1625
355.23424	24062.5625
359.4158	24379.8625
363.59435	24602.6625
367.76989	24688.0625
371.94243	24710.5625
376.11196	24679.5625
380.27849	24677.3625
384.44203	24787.6625
388.60257	24921.2625
392.76012	25190.9625
396.91468	25514.1625
401.06626	25880.0625
405.21485	26140.7625
409.36047	26078.5625
413.50311	25864.5625
417.64277	25743.5625
421.77947	25812.2625
425.9132	25978.6625
430.04396	26161.5625
434.17176	26215.1625
438.2966	26272.7625
442.41849	26566.1625
446.53742	27176.0625
450.6534	27846.0625
454.76644	28327.4625
458.87653	28484.7625
462.98368	28381.6625
467.08789	28035.8625
471.18916	27735.1625
475.2875	27351.8625
479.38291	27160.9625
483.4754	26991.1625
487.56496	26625.7625
491.6516	26224.0625
495.73531	25921.5625
499.81612	25852.5625
503.89401	26015.6625
507.96899	26207.8625
512.04106	26275.0625
516.11023	26214.7625
520.1765	26025.8625
524.23987	25879.1625
528.30034	25665.3625
532.35792	25342.7625
536.41261	24983.6625
540.46441	24593.4625
544.51333	24543.7625
548.55936	24797.5625
552.60252	25375.5625
556.64279	25968.4625
560.6802	26421.7625
564.71473	26643.6625
568.7464	26994.8625
572.7752	27675.4625
576.80114	28556.9625
580.82422	29522.6625
584.84444	30656.8625
588.86181	31882.4625
592.87633	32636.7625
596.888	32281.2625
600.89682	30979.7625
604.9028	30673.9625
608.90594	32146.2625
612.90624	33820.0625
616.90371	31768.7625
620.89834	27142.8625
624.89015	25119.5625
628.87913	24857.2625
632.86528	24973.7625
636.84862	24888.9625
640.82913	24544.1625
644.80683	23985.2625
648.78172	23632.7625
652.75379	23596.7625
656.72306	23828.0625
660.68952	24081.3625
664.65319	23890.7625
668.61405	23532.5625
672.57211	23461.1625
676.52738	23534.9625
680.47986	23502.0625
684.42955	23398.3625
688.37646	23243.2625
692.32058	23350.5625
696.26192	23712.2625
700.20048	24131.0625
704.13626	24383.4625
708.06928	24472.5625
711.99952	24444.1625
715.927	24438.5625
719.85171	24475.2625
723.77365	24283.8625
727.69284	23958.0625
731.60928	23593.6625
735.52295	23454.6625
739.43388	23443.9625
743.34206	23523.0625
747.24749	23685.2625
751.15017	23924.7625
755.05012	24370.2625
758.94733	25124.3625
762.8418	26390.1625
766.73354	28246.1625
770.62254	29859.4625
774.50882	29915.5625
778.39237	28524.0625
782.27321	26617.9625
786.15132	25106.6625
790.02671	24223.9625
793.89938	23743.7625
797.76935	23538.2625
801.6366	23519.8625
805.50115	23462.8625
809.36299	23349.3625
813.22213	23129.9625
817.07857	23006.7625
820.93231	22885.1625
824.78336	22780.7625
828.63172	22751.8625
832.47738	22755.8625
836.32036	22845.4625
840.16066	22968.1625
843.99827	22976.0625
847.8332	22892.7625
851.66546	22724.8625
855.49504	22682.7625
859.32195	22673.7625
863.1462	22626.7625
866.96777	22555.1625
870.78668	22449.2625
874.60293	22507.3625
878.41652	22540.3625
882.22745	22556.9625
886.03573	22649.3625
889.84136	22724.5625
893.64433	22623.4625
897.44466	22559.2625
901.24235	22510.3625
905.0374	22453.5625
908.8298	22431.5625
912.61957	22479.0625
916.40671	22737.2625
920.19121	23072.4625
923.97308	23318.8625
927.75233	23374.1625
931.52895	23205.7625
935.30295	22812.5625
939.07433	22380.7625
942.84309	22047.4625
946.60924	21892.6625
950.37278	21805.3625
954.13371	21759.6625
957.89203	21697.4625
961.64774	21699.7625
965.40086	21666.6625
969.15137	21631.4625
972.89929	21553.5625
976.64461	21457.9625
980.38733	21469.6625
984.12747	21536.5625
987.86502	21649.9625
991.59999	21864.9625
995.33237	22153.6625
999.06217	22705.5625
1002.78939	23382.3625
1006.51404	23887.9625
1010.23611	24323.3625
1013.95561	24679.9625
1017.67255	24631.1625
1021.38692	24270.6625
1025.09872	23815.1625
1028.80796	23755.2625
1032.51465	24137.5625
1036.21877	24649.4625
1039.92035	24844.7625
1043.61937	24807.7625
1047.31584	24549.1625
1051.00976	24263.8625
1054.70114	24264.6625
1058.38998	24522.2625
1062.07627	25025.3625
1065.76003	25803.2625
1069.44126	26802.8625
1073.11995	27830.1625
1076.79611	28487.4625
1080.46974	28374.9625
1084.14085	27784.6625
1087.80943	27165.6625
1091.47549	26722.1625
1095.13903	26387.5625
1098.80005	25774.8625
1102.45857	25032.2625
1106.11456	24435.3625
1109.76805	24160.7625
1113.41903	24136.3625
1117.06751	24145.3625
1120.71348	24378.5625
1124.35696	24661.4625
1127.99793	25033.2625
1131.63641	25301.0625
1135.2724	25317.4625
1138.90589	25247.9625
1142.5369	25248.5625
1146.16542	25367.4625
1149.79145	25492.4625
1153.415	25702.9625
1157.03607	26093.5625
1160.65467	26949.8625
1164.27079	28345.5625
1167.88443	30121.2625
1171.49561	32043.0625
1175.10432	34433.4625
1178.71056	37400.4625
1182.31434	40158.6625
1185.91565	41434.2625
1189.51451	40897.7625
1193.11091	39571.6625
1196.70485	37893.6625
1200.29634	36179.9625
1203.88538	35029.7625
1207.47197	34482.2625
1211.05612	34019.8625
1214.63782	33404.6625
1218.21708	32541.3625
1221.79391	31624.3625
1225.36829	30922.1625
1228.94024	30476.5625
1232.50976	29964.0625
1236.07685	29508.1625
1239.6415	29252.0625
1243.20374	29162.3625
1246.76355	29414.1625
1250.32093	29908.8625
1253.8759	30604.6625
1257.42845	31576.3625
1260.97859	32568.3625
1264.52631	33615.0625
1268.07163	34644.8625
1271.61453	35733.3625
1275.15503	36837.4625
1278.69312	37955.8625
1282.22882	39084.4625
1285.76211	40263.2625
1289.29301	41817.2625
1292.82151	43676.8625
1296.34761	46053.4625
1299.87133	48957.0625
1303.39266	52099.4625
1306.9116	54956.3625
1310.42815	57188.3625
1313.94233	58230.2625
1317.45412	57808.5625
1320.96354	56746.7625
1324.47058	55897.9625
1327.97525	55459.4625
1331.47754	55090.3625
1334.97747	54673.8625
1338.47502	54177.6625
1341.97022	53452.8625
1345.46305	52668.2625
1348.95352	51946.5625
1352.44163	51771.9625
1355.92738	52610.2625
1359.41078	54594.6625
1362.89183	56161.1625
1366.37053	55286.9625
1369.84688	51423.9625
1373.32088	46150.5625
1376.79254	42399.5625
1380.26186	40823.5625
1383.72883	40565.3625
1387.19347	40437.1625
1390.65578	39976.1625
1394.11575	39835.8625
1397.57339	40250.9625
1401.0287	40995.9625
1404.48168	41473.0625
1407.93234	41422.1625
1411.38068	40602.7625
1414.82669	39189.5625
1418.27039	37371.1625
1421.71177	35661.7625
1425.15083	34268.3625
1428.58758	33640.5625
1432.02203	33939.3625
1435.45416	34963.4625
1438.88399	36086.3625
1442.31151	36973.7625
1445.73673	37430.8625
1449.15965	37822.3625
1452.58027	38030.6625
1455.9986	38023.6625
1459.41463	38266.8625
1462.82837	38851.8625
1466.23982	39679.5625
1469.64898	40413.5625
1473.05586	40827.0625
1476.46045	40907.9625
1479.86276	40634.4625
1483.26279	40207.3625
1486.66054	39957.0625
1490.05602	40036.2625
1493.44922	40548.3625
1496.84016	40992.8625
1500.22882	41709.4625
1503.61521	42839.7625
1506.99934	44160.7625
1510.38121	45081.9625
1513.76081	45169.0625
1517.13816	44135.7625
1520.51324	42711.9625
1523.88607	41730.2625
1527.25665	41307.6625
1530.62498	41293.6625
1533.99105	41208.3625
1537.35488	40686.5625
1540.71647	39881.3625
1544.07581	38830.0625
1547.4329	37747.6625
1550.78776	36769.6625
1554.14038	36143.8625
1557.49077	35787.1625
1560.83892	35519.8625
1564.18484	35609.3625
1567.52853	35974.1625
1570.86999	36824.5625
1574.20922	38297.5625
1577.54624	40066.3625
1580.88103	41443.6625
1584.2136	42303.8625
1587.54395	42773.3625
1590.87208	43507.8625
1594.19801	44919.9625
1597.52172	46730.1625
1600.84321	46977.3625
1604.16251	44766.8625
1607.47959	40994.8625
1610.79447	37047.2625
1614.10715	33595.3625
1617.41763	30809.1625
1620.7259	28929.8625
1624.03199	28032.0625
1627.33587	28060.0625
1630.63757	28992.6625
1633.93707	31013.3625
1637.23439	34385.3625
1640.52951	39264.8625
1643.82246	44834.4625
1647.11321	49115.5625
1650.40179	49603.8625
1653.68819	45756.4625
1656.97241	39442.8625
1660.25446	33374.5625
1663.53433	28862.1625
1666.81203	25955.4625
1670.08756	24162.2625
1673.36092	22960.2625
1676.63211	22212.8625
1679.90115	21718.1625
1683.16801	21314.9625
1686.43272	21051.3625
1689.69527	20872.3625
1692.95567	20683.9625
1696.2139	20611.0625
1699.46999	20536.4625
1702.72392	20451.4625
1705.97571	20372.9625
1709.22535	20289.9625
1712.47284	20209.4625
1715.71819	20178.5625
1718.96139	20125.8625
1722.20246	20048.7625
1725.44139	19947.6625
1728.67818	19855.6625
1731.91284	19700.1625
1735.14537	19612.2625
1738.37576	19526.7625
1741.60403	19424.8625
1744.83017	19417.9625
1748.05418	19365.6625
1751.27607	19291.4625
1754.49584	19285.5625
1757.71349	19290.7625
1760.92903	19294.4625
1764.14244	19304.6625
1767.35375	19240.6625
1770.56294	19198.0625
1773.77002	19202.4625
1776.97499	19146.8625
1780.17785	19102.1625
1783.37861	19022.1625
1786.57727	18992.4625
1789.77382	18953.8625
1792.96828	18921.3625
1796.16064	18867.0625
1799.3509	18840.0625
1802.53907	18792.6625
1805.72514	18754.8625
1808.90913	18708.2625
1812.09102	18636.2625
1815.27083	18589.6625
1818.44856	18615.5625
1821.6242	18579.4625
1824.79776	18594.1625
1827.96924	18625.0625
1831.13864	18645.4625
1834.30597	18660.8625
1837.47122	18654.5625
1840.6344	18673.0625
1843.7955	18665.3625
1846.95454	18645.3625
1850.11151	18660.0625
1853.26642	18633.9625
1856.41926	18633.8625
1859.57004	18602.0625
1862.71876	18572.5625
1865.86542	18550.9625
1869.01003	18559.9625
1872.15258	18532.6625
1875.29308	18423.7625
1878.43152	18462.8625
1881.56792	18402.1625
1884.70227	18394.2625
1887.83457	18342.7625
1890.96482	18327.0625
1894.09304	18318.2625
1897.21921	18261.2625
1900.34335	18252.5625
1903.46544	18229.6625
1906.58551	18207.9625
1909.70353	18181.2625
1912.81953	18141.0625
1915.93349	18089.8625
1919.04543	18022.3625
1922.15534	17980.0625
1925.26322	17958.2625
1928.36908	17951.8625
1931.47292	17885.7625
1934.57473	17842.7625
1937.67453	17809.4625
1940.77232	17767.4625
1943.86808	17716.7625
1946.96184	17667.3625
1950.05358	17599.6625
1953.14331	17576.4625
1956.23103	17542.3625
1959.31675	17485.7625
1962.40046	17433.5625
1965.48217	17364.0625
1968.56188	17290.9625
1971.63959	17285.4625
1974.7153	17230.6625
1977.78901	17152.7625
1980.86073	17100.1625
1983.93046	17101.8625
1986.99819	17040.3625
1990.06394	16980.4625
1993.1277	16955.5625
1996.18947	16877.9625
1999.24925	16827.8625
2002.30706	16799.4625
2005.36288	16728.3625
2008.41672	16682.6625
2011.46859	16661.4625
2014.51848	16585.3625
2017.56639	16556.9625
2020.61233	16498.8625
2023.6563	16509.0625
2026.6983	16480.1625
2029.73833	16458.0625
2032.7764	16444.4625
2035.8125	16397.5625
2038.84664	16322.9625
2041.87881	16335.7625
2044.90903	16290.8625
2047.93729	16247.7625
2050.96359	16268.1625
2053.98794	16256.1625
2057.01034	16253.1625
2060.03078	16221.5625
2063.04927	16180.0625
2066.06582	16212.8625
2069.08042	16185.1625
2072.09307	16155.0625
2075.10378	16121.1625
2078.11255	16161.1625
2081.11938	16155.8625
2084.12426	16141.3625
2087.12722	16129.3625
2090.12824	16138.2625
2093.12732	16150.4625
2096.12447	16139.2625
2099.11969	16156.9625
2102.11299	16107.3625
2105.10435	16154.5625
2108.09379	16151.7625
2111.08131	16200.7625
2114.0669	16200.2625
2117.05057	16196.4625
2120.03233	16240.2625
2123.01216	16224.3625
2125.99008	16241.3625
2128.96609	16236.4625
2131.94018	16247.7625
2134.91236	16234.8625
2137.88263	16255.2625
2140.851	16245.0625
2143.81746	16288.8625
2146.78201	16260.9625
2149.74466	16283.1625
2152.7054	16299.6625
2155.66425	16276.1625
2158.6212	16298.7625
2161.57625	16274.2625
2164.52941	16271.5625
2167.48067	16259.3625
2170.43004	16258.5625
2173.37752	16236.2625
2176.32311	16285.7625
2179.26681	16268.1625
2182.20863	16260.2625
2185.14856	16263.3625
2188.08661	16241.7625
2191.02278	16276.9625
2193.95707	16260.7625
2196.88948	16232.4625
2199.82001	16214.7625
2202.74867	16192.1625
2205.67545	16248.5625
2208.60037	16209.9625
2211.52341	16172.3625
2214.44458	16163.7625
2217.36388	16139.9625
2220.28132	16112.4625
2223.1969	16106.6625
2226.11061	16083.4625
2229.02246	16046.8625
2231.93245	16048.5625
2234.84058	16019.3625
2237.74686	16010.3625
2240.65128	15980.2625
2243.55385	15936.6625
2246.45456	15880.6625
2249.35343	15862.0625
2252.25044	15840.5625
2255.14561	15808.1625
2258.03893	15780.2625
2260.93041	15772.6625
2263.82004	15750.4625
2266.70783	15714.9625
2269.59378	15661.4625
2272.4779	15624.5625
2275.36017	15588.4625
2278.24061	15578.6625
2281.11922	15546.2625
2283.996	15518.5625
2286.87094	15492.7625
2289.74405	15479.3625
2292.61534	15472.1625
2295.4848	15460.8625
2298.35243	15480.9625
2301.21824	15482.7625
2304.08223	15454.8625
2306.94439	15456.8625
2309.80474	15440.8625
2312.66327	15463.9625
2315.51999	15449.0625
2318.37489	15443.4625
2321.22797	15429.3625
2324.07925	15408.3625
2326.92871	15370.9625
2329.77637	15424.3625
2332.62222	15392.4625
2335.46626	15380.1625
2338.3085	15363.9625
2341.14893	15384.8625
2343.98756	15342.9625
2346.8244	15330.7625
2349.65943	15353.8625
2352.49267	15354.4625
2355.32411	15364.8625
2358.15376	15363.7625
2360.98161	15309.9625
2363.80768	15325.5625
2366.63195	15309.9625
2369.45444	15278.6625
2372.27514	15253.4625
2375.09405	15247.6625
2377.91118	15241.8625
2380.72652	15188.0625
2383.54009	15172.9625
2386.35187	15109.8625
2389.16188	15107.2625
2391.97011	15105.5625
2394.77657	15066.8625
2397.58125	15071.9625
2400.38416	15016.5625
2403.18529	15000.5625
2405.98466	14992.5625
2408.78226	14945.6625
2411.57809	14939.4625
2414.37216	14937.3625
2417.16446	14926.9625
2419.955	14893.1625
2422.74378	14886.1625
2425.5308	14856.1625
2428.31606	14817.3625
2431.09956	14857.7625
2433.88131	14846.5625
2436.6613	14847.1625
2439.43954	14847.5625
2442.21603	14808.5625
2444.99077	14814.0625
2447.76377	14832.6625
2450.53501	14823.1625
2453.30451	14823.4625
2456.07226	14794.6625
2458.83827	14778.3625
2461.60254	14783.8625
2464.36507	14773.1625
2467.12586	14800.7625
2469.88492	14785.0625
2472.64224	14789.8625
2475.39782	14827.8625
2478.15167	14802.2625
2480.90379	14791.4625
2483.65417	14817.2625
2486.40283	14819.1625
2489.14976	14838.8625
2491.89497	14808.8625
2494.63845	14839.8625
2497.3802	14836.3625
2500.12024	14818.6625
2502.85855	14828.3625
2505.59514	14820.7625
2508.33002	14803.5625
2511.06318	14753.5625
2513.79462	14740.9625
2516.52435	14751.5625
2519.25237	14739.2625
2521.97867	14721.9625
2524.70327	14738.5625
2527.42616	14711.2625
2530.14734	14729.1625
2532.86681	14690.8625
2535.58458	14696.0625
2538.30065	14666.1625
2541.01501	14671.6625
2543.72768	14642.3625
2546.43864	14695.0625
2549.14791	14662.9625
2551.85548	14647.8625
2554.56136	14626.4625
2557.26554	14611.0625
2559.96803	14619.9625
2562.66883	14589.1625
2565.36794	14592.0625
2568.06536	14611.2625
2570.7611	14581.7625
2573.45514	14570.8625
2576.14751	14564.6625
2578.83819	14553.2625
2581.52719	14550.7625
2584.21451	14563.6625
2586.90015	14535.8625
2589.58411	14504.0625
2592.2664	14481.0625
2594.94701	14475.7625
2597.62594	14479.1625
2600.30321	14469.7625
2602.9788	14485.7625
2605.65273	14439.5625
2608.32498	14445.8625
2610.99557	14439.8625
2613.66449	14472.5625
2616.33175	14399.9625
2618.99734	14418.5625
2621.66128	14413.0625
2624.32355	14392.1625
2626.98416	14373.1625
2629.64311	14385.3625
2632.30041	14384.9625
2634.95605	14395.8625
2637.61004	14357.9625
2640.26238	14328.9625
2642.91306	14337.9625
2645.56209	14336.8625
2648.20948	14351.2625
2650.85521	14328.7625
2653.4993	14347.0625
2656.14175	14342.3625
2658.78255	14333.4625
2661.42171	14350.1625
2664.05923	14352.0625
2666.6951	14339.6625
2669.32934	14372.2625
2671.96194	14367.2625
2674.59291	14360.6625
2677.22224	14347.5625
2679.84993	14382.6625
2682.476	14328.0625
2685.10043	14336.2625
2687.72324	14332.4625
2690.34441	14345.8625
2692.96396	14343.7625
2695.58188	14337.7625
2698.19818	14327.1625
2700.81285	14365.3625
2703.4259	14360.3625
2706.03733	14458.8625
2708.64714	14405.3625
2711.25533	14436.8625
2713.86191	14405.5625
2716.46687	14418.7625
2719.07021	14435.0625
2721.67194	14445.6625
2724.27206	14420.4625
2726.87057	14465.0625
2729.46747	14434.2625
2732.06276	14418.7625
2734.65644	14413.5625
2737.24852	14459.9625
2739.83899	14430.5625
2742.42786	14446.3625
2745.01513	14433.1625
2747.60079	14400.7625
2750.18486	14418.0625
2752.76733	14434.0625
2755.3482	14443.5625
2757.92747	14436.4625
2760.50515	14412.1625
2763.08123	14414.5625
2765.65573	14382.4625
2768.22863	14415.5625
2770.79994	14366.6625
2773.36967	14364.8625
2775.9378	14355.3625
2778.50435	14376.5625
2781.06932	14343.8625
2783.6327	14363.5625
2786.1945	14342.0625
2788.75471	14329.9625
2791.31335	14297.6625
2793.87041	14282.7625
2796.42589	14250.1625
2798.97979	14265.7625
2801.53212	14234.6625
2804.08288	14224.9625
2806.63206	14206.5625
2809.17967	14167.9625
2811.72571	14117.8625
2814.27018	14114.6625
2816.81308	14121.7625
2819.35442	14088.9625
2821.89419	14089.4625
2824.43239	14075.1625
2826.96904	14068.4625
2829.50412	14059.1625
2832.03763	14025.1625
2834.56959	14021.4625
2837.1	14023.3625
2839.62884	14024.7625
2842.15613	14020.3625
2844.68186	14080.9625
2847.20604	14051.8625
2849.72867	14079.7625
2852.24974	14049.5625
2854.76927	14055.2625
2857.28724	14080.2625
2859.80367	14056.3625
2862.31855	14027.2625
2864.83189	14029.0625
2867.34368	13992.6625
2869.85393	13992.9625
2872.36264	14008.5625
2874.8698	14012.6625
2877.37543	14023.6625
2879.87952	14018.6625
2882.38207	14039.8625
2884.88308	14015.9625
2887.38256	14045.9625
2889.88051	14025.9625
2892.37692	14046.5625
2894.8718	14030.9625
2897.36515	14084.0625
2899.85698	14068.3625
2902.34727	14096.5625
2904.83604	14108.4625
2907.32328	14084.3625
2909.809	14112.5625
2912.29319	14118.3625
2914.77587	14116.7625
2917.25702	14117.8625
2919.73665	14072.5625
2922.21476	14089.5625
2924.69136	14107.6625
2927.16644	14119.1625
2929.64	14101.3625
2932.11205	14107.2625
2934.58258	14036.7625
2937.05161	14069.1625
2939.51912	14061.4625
2941.98513	14025.0625
2944.44962	13996.3625
2946.91261	13938.2625
2949.37409	13987.9625
2951.83407	13979.3625
2954.29254	13946.4625
2956.74951	13927.3625
2959.20498	13928.5625
2961.65895	13913.7625
2964.11142	13926.7625
2966.56239	13885.4625
2969.01186	13862.5625
2971.45984	13803.7625
2973.90632	13774.3625
2976.35131	13749.1625
2978.7948	13695.4625
2981.23681	13678.5625
2983.67732	13696.7625
2986.11635	13648.6625
2988.55388	13602.4625
2990.98993	13577.5625
2993.4245	13533.5625
2995.85758	13531.5625
2998.28917	13525.1625
3000.71928	13492.0625
3003.14791	13445.7625
3005.57506	13470.1625
3008.00073	13418.4625
3010.42493	13425.6625
3012.84764	13415.4625
3015.26888	13348.7625
3017.68865	13327.6625
3020.10694	13312.7625
3022.52376	13285.3625
3024.9391	13306.0625
3027.35298	13314.9625
3029.76539	13308.1625
3032.17632	13302.8625
3034.5858	13258.3625
3036.9938	13237.5625
3039.40034	13242.3625
3041.80542	13216.8625
3044.20903	13146.1625
3046.61118	13205.4625
3049.01187	13172.1625
3051.4111	13208.8625
3053.80888	13165.8625
3056.20519	13155.5625
3058.60005	13093.8625
3060.99345	13058.5625
3063.3854	13064.2625
3065.7759	13033.2625
3068.16494	12988.6625
3070.55254	12941.3625
3072.93868	12932.5625
3075.32338	12906.3625
3077.70662	12880.1625
3080.08842	12851.4625
3082.46878	12858.6625
3084.84769	12820.5625
3087.22515	12808.6625
3089.60118	12839.6625
3091.97576	12828.6625
3094.3489	12791.1625
3096.72061	12806.3625
3099.09087	12792.0625
3101.4597	12779.9625
3103.82709	12760.8625
3106.19305	12743.0625
3108.55757	12732.8625
3110.92066	12714.0625
3113.28232	12710.4625
3115.64255	12656.1625
3118.00134	12657.6625
3120.35871	12621.3625
3122.71466	12630.9625
3125.06917	12590.7625
3127.42226	12591.7625
3129.77393	12609.7625
3132.12417	12584.4625
3134.47299	12582.8625
3136.82039	12592.7625
3139.16636	12609.4625
3141.51092	12609.3625
3143.85406	12592.0625
3146.19579	12622.3625
3148.53609	12595.1625
3150.87499	12649.8625
3153.21246	12609.6625
3155.54853	12657.0625
3157.88318	12621.2625
3160.21642	12626.0625
3162.54826	12634.7625
3164.87868	12595.9625
3167.2077	12628.7625
3169.5353	12610.9625
3171.86151	12610.3625
3174.18631	12572.4625
3176.5097	12591.6625
3178.83169	12582.7625
3181.15228	12568.7625
3183.47147	12580.6625
3185.78926	12568.9625
3188.10565	12548.6625
3190.42065	12559.6625
3192.73424	12547.2625
3195.04645	12518.0625
3197.35725	12538.7625
3199.66667	12536.2625
3201.97469	12587.4625
3204.28132	12546.7625
3206.58656	12570.0625
3208.8904	12535.5625
3211.19287	12563.7625
3213.49394	12540.3625
3215.79363	12537.4625
3218.09193	12548.5625
3220.38884	12571.0625
3222.68438	12590.5625
3224.97853	12532.4625
3227.2713	12579.8625
3229.56269	12526.9625
3231.8527	12504.4625
3234.14133	12460.8625
3236.42858	12468.7625
3238.71446	12474.4625
3240.99896	12450.2625
3243.28209	12453.0625
3245.56384	12448.6625
3247.84423	12448.7625
3250.12324	12402.5625
3252.40088	12410.4625
3254.67715	12424.9625
3256.95205	12418.4625
3259.22558	12384.4625
3261.49775	12375.9625
3263.76855	12367.9625
3266.03799	12302.1625
3268.30606	12293.3625
3270.57277	12295.1625
3272.83812	12245.0625
3275.10211	12229.2625
3277.36474	12224.5625
3279.62601	12254.2625
3281.88593	12238.5625
3284.14448	12265.0625
3286.40168	12265.7625
3288.65753	12227.1625
3290.91202	12208.3625
3293.16516	12137.1625
3295.41695	12149.1625
3297.66738	12078.9625
3299.91647	12030.4625
3302.16421	11948.1625
3304.4106	11874.6625
3306.65564	11807.1625
3308.89933	11768.6625
3311.14169	11680.2625
3313.38269	11615.5625
3315.62236	11515.1625
3317.86068	11434.8625
3320.09766	11309.3625
3322.3333	11227.7625
3324.5676	11229.0625
3326.80056	11066.6625
3329.03219	11008.4625
3331.26248	4.5625
3333.49143	-0.8375
3335.71905	-0.5375
