Data from AgNP_FTO_APTES_CRN_5uM_R6G_10uM_NaF_0.1M_Addition_RamanShift__7__15-34-07-904.txt Node

Date: Wed Dec 15 15:34:07 GMT 2021
User: TCL
Spectrometer: QEP01345
Trigger mode: 4
Integration Time (sec): 7.000000E0
Scans to average: 10
Electric dark correction enabled: true
Nonlinearity correction enabled: false
Boxcar width: 0
XAxis mode: Raman Shifts
Number of Pixels in Spectrum: 1044
>>>>>Begin Spectral Data<<<<<
46.04893	0.2625
50.45542	-2.3375
54.85868	-1.0375
59.25871	-0.6375
63.6555	131.0625
68.04907	135.8625
72.43941	145.6625
76.82654	150.6625
81.21044	152.6625
85.59113	159.9625
89.96862	166.4625
94.34289	168.2625
98.71396	179.9625
103.08183	186.6625
107.4465	190.6625
111.80798	192.4625
116.16626	199.4625
120.52136	208.1625
124.87327	214.7625
129.222	228.9625
133.56755	238.5625
137.90993	256.2625
142.24913	286.7625
146.58517	318.3625
150.91804	372.6625
155.24774	448.6625
159.57429	549.4625
163.89768	702.5625
168.21792	931.9625
172.53501	1267.4625
176.84895	1763.8625
181.15975	2475.7625
185.46741	3444.2625
189.77193	4767.9625
194.07331	6355.1625
198.37157	8192.1625
202.6667	10092.3625
206.9587	11990.0625
211.24758	13847.2625
215.53334	15662.8625
219.81599	17610.6625
224.09553	19773.9625
228.37195	22112.7625
232.64527	24744.9625
236.91549	27514.2625
241.18261	30304.1625
245.44663	32952.6625
249.70755	35388.5625
253.96539	37569.6625
258.22014	39382.4625
262.4718	40742.0625
266.72039	41752.2625
270.96589	42225.9625
275.20832	42236.8625
279.44768	42043.2625
283.68397	41716.9625
287.91719	41362.8625
292.14735	41079.8625
296.37445	40883.5625
300.59849	40910.8625
304.81948	40995.1625
309.03742	40953.4625
313.25231	40857.8625
317.46415	40347.0625
321.67296	39757.6625
325.87872	39316.2625
330.08145	39078.8625
334.28114	39160.6625
338.47781	39397.8625
342.67145	39897.5625
346.86207	40462.3625
351.04966	41042.4625
355.23424	41725.9625
359.4158	42302.5625
363.59435	42870.4625
367.76989	43306.4625
371.94243	43551.8625
376.11196	43739.0625
380.27849	43810.9625
384.44203	43994.7625
388.60257	44357.0625
392.76012	44776.0625
396.91468	45418.0625
401.06626	46145.1625
405.21485	46631.5625
409.36047	46682.4625
413.50311	46558.4625
417.64277	46732.1625
421.77947	47133.5625
425.9132	47585.8625
430.04396	47810.0625
434.17176	47882.7625
438.2966	47912.6625
442.41849	48231.0625
446.53742	49161.7625
450.6534	50298.2625
454.76644	51241.3625
458.87653	51523.1625
462.98368	51372.3625
467.08789	50740.6625
471.18916	49933.3625
475.2875	49063.0625
479.38291	48436.2625
483.4754	47943.4625
487.56496	47588.5625
491.6516	47121.3625
495.73531	46875.8625
499.81612	46959.3625
503.89401	47452.2625
507.96899	47932.9625
512.04106	48183.4625
516.11023	47933.0625
520.1765	47412.4625
524.23987	46816.4625
528.30034	46357.6625
532.35792	45900.9625
536.41261	45437.0625
540.46441	45010.6625
544.51333	45050.0625
548.55936	45490.8625
552.60252	46228.6625
556.64279	47061.5625
560.6802	47722.8625
564.71473	48148.0625
568.7464	48781.0625
572.7752	50077.3625
576.80114	51894.2625
580.82422	54192.8625
584.84444	56862.1625
588.86181	59660.7625
592.87633	61281.3625
596.888	60009.1625
600.89682	57032.8625
604.9028	56102.4625
608.90594	57815.7625
612.90624	59223.0625
616.90371	55693.2625
620.89834	49779.1625
624.89015	47316.7625
628.87913	47196.5625
632.86528	47421.2625
636.84862	47259.3625
640.82913	46458.4625
644.80683	45555.7625
648.78172	45161.9625
652.75379	45312.4625
656.72306	45770.0625
660.68952	46196.6625
664.65319	45827.9625
668.61405	45279.1625
672.57211	45355.7625
676.52738	45576.2625
680.47986	45467.9625
684.42955	45182.5625
688.37646	45111.1625
692.32058	45377.3625
696.26192	46061.4625
700.20048	46702.4625
704.13626	47135.1625
708.06928	47182.9625
711.99952	47060.8625
715.927	47116.0625
719.85171	47254.6625
723.77365	46997.4625
727.69284	46335.4625
731.60928	45724.3625
735.52295	45343.0625
739.43388	45191.0625
743.34206	45333.8625
747.24749	45635.4625
751.15017	46138.7625
755.05012	46893.2625
758.94733	47972.1625
762.8418	49708.0625
766.73354	52078.3625
770.62254	53934.7625
774.50882	53707.4625
778.39237	51621.7625
782.27321	49291.0625
786.15132	47379.1625
790.02671	46202.8625
793.89938	45620.6625
797.76935	45425.1625
801.6366	45394.6625
805.50115	45374.8625
809.36299	45183.3625
813.22213	44814.3625
817.07857	44498.4625
820.93231	44214.1625
824.78336	43992.1625
828.63172	43894.3625
832.47738	43849.4625
836.32036	43925.3625
840.16066	44017.8625
843.99827	44022.6625
847.8332	44008.5625
851.66546	44051.4625
855.49504	44149.6625
859.32195	44124.3625
863.1462	44066.5625
866.96777	43985.1625
870.78668	43919.6625
874.60293	44017.2625
878.41652	44052.5625
882.22745	44191.2625
886.03573	44352.4625
889.84136	44324.8625
893.64433	44207.3625
897.44466	44067.7625
901.24235	44016.1625
905.0374	43913.1625
908.8298	43849.0625
912.61957	43958.2625
916.40671	44381.6625
920.19121	44999.4625
923.97308	45425.5625
927.75233	45324.1625
931.52895	44854.8625
935.30295	44169.7625
939.07433	43609.0625
942.84309	43173.2625
946.60924	43082.3625
950.37278	43030.9625
954.13371	43058.7625
957.89203	43087.0625
961.64774	43019.3625
965.40086	42961.0625
969.15137	42939.7625
972.89929	42785.3625
976.64461	42737.6625
980.38733	42770.5625
984.12747	42870.8625
987.86502	43039.4625
991.59999	43253.6625
995.33237	43610.6625
999.06217	44324.0625
1002.78939	45247.6625
1006.51404	46204.9625
1010.23611	47201.9625
1013.95561	47734.0625
1017.67255	47677.4625
1021.38692	47053.0625
1025.09872	46316.6625
1028.80796	45810.1625
1032.51465	45843.9625
1036.21877	46194.5625
1039.92035	46385.8625
1043.61937	46420.1625
1047.31584	46324.7625
1051.00976	46184.1625
1054.70114	46257.1625
1058.38998	46548.8625
1062.07627	47223.0625
1065.76003	48165.3625
1069.44126	49245.1625
1073.11995	50470.7625
1076.79611	51356.5625
1080.46974	51506.4625
1084.14085	51353.1625
1087.80943	51237.9625
1091.47549	51244.3625
1095.13903	51044.1625
1098.80005	50373.9625
1102.45857	49302.0625
1106.11456	48375.9625
1109.76805	47892.8625
1113.41903	47708.0625
1117.06751	47816.5625
1120.71348	47991.6625
1124.35696	48343.5625
1127.99793	48677.7625
1131.63641	49046.2625
1135.2724	49159.6625
1138.90589	49349.9625
1142.5369	49654.1625
1146.16542	49956.6625
1149.79145	50260.1625
1153.415	50653.4625
1157.03607	51508.4625
1160.65467	53084.5625
1164.27079	55568.6625
1167.88443	58246.1625
1171.49561	60625.0625
1175.10432	63179.1625
1178.71056	66482.9625
1182.31434	69862.4625
1185.91565	71967.3625
1189.51451	72128.4625
1193.11091	71083.6625
1196.70485	69379.0625
1200.29634	67279.6625
1203.88538	65992.5625
1207.47197	65679.1625
1211.05612	65680.0625
1214.63782	64848.3625
1218.21708	63199.0625
1221.79391	61178.8625
1225.36829	59597.0625
1228.94024	58643.6625
1232.50976	57959.9625
1236.07685	57401.0625
1239.6415	57125.9625
1243.20374	57183.8625
1246.76355	57444.0625
1250.32093	58291.9625
1253.8759	59487.9625
1257.42845	61081.3625
1260.97859	62702.4625
1264.52631	64485.9625
1268.07163	66254.8625
1271.61453	68054.2625
1275.15503	69976.6625
1278.69312	71746.9625
1282.22882	73431.9625
1285.76211	75485.3625
1289.29301	77885.9625
1292.82151	80713.3625
1296.34761	84269.2625
1299.87133	88579.5625
1303.39266	93165.2625
1306.9116	96943.4625
1310.42815	99335.8625
1313.94233	100098.1625
1317.45412	99609.1625
1320.96354	98733.7625
1324.47058	98542.2625
1327.97525	98965.7625
1331.47754	99650.6625
1334.97747	100004.7625
1338.47502	99962.3625
1341.97022	99236.9625
1345.46305	97822.7625
1348.95352	96058.4625
1352.44163	94674.6625
1355.92738	94577.9625
1359.41078	95892.2625
1362.89183	97051.8625
1366.37053	95361.5625
1369.84688	89954.5625
1373.32088	82460.6625
1376.79254	76860.9625
1380.26186	74707.3625
1383.72883	74924.5625
1387.19347	75402.6625
1390.65578	74853.0625
1394.11575	74544.9625
1397.57339	75246.0625
1401.0287	76891.6625
1404.48168	78508.5625
1407.93234	78959.5625
1411.38068	78005.1625
1414.82669	75696.0625
1418.27039	72639.3625
1421.71177	69710.2625
1425.15083	67526.5625
1428.58758	66685.8625
1432.02203	67536.4625
1435.45416	69547.2625
1438.88399	71892.0625
1442.31151	73589.4625
1445.73673	74215.6625
1449.15965	74259.8625
1452.58027	73888.2625
1455.9986	73393.9625
1459.41463	73787.2625
1462.82837	74829.2625
1466.23982	76119.0625
1469.64898	77367.7625
1473.05586	77994.5625
1476.46045	78008.1625
1479.86276	77336.2625
1483.26279	76511.4625
1486.66054	75848.2625
1490.05602	75909.1625
1493.44922	76108.6625
1496.84016	76336.2625
1500.22882	76586.9625
1503.61521	77353.5625
1506.99934	78204.3625
1510.38121	78706.4625
1513.76081	78611.2625
1517.13816	77941.3625
1520.51324	77366.1625
1523.88607	77283.0625
1527.25665	77958.9625
1530.62498	78600.3625
1533.99105	78707.7625
1537.35488	77889.4625
1540.71647	76389.5625
1544.07581	74546.8625
1547.4329	72587.3625
1550.78776	70934.5625
1554.14038	69618.0625
1557.49077	68751.0625
1560.83892	68100.4625
1564.18484	67596.9625
1567.52853	67460.8625
1570.86999	68032.0625
1574.20922	69622.7625
1577.54624	71495.0625
1580.88103	73232.0625
1584.2136	75111.7625
1587.54395	77861.2625
1590.87208	81446.9625
1594.19801	85610.4625
1597.52172	89071.0625
1600.84321	89420.7625
1604.16251	85121.2625
1607.47959	78722.7625
1610.79447	72307.5625
1614.10715	66518.3625
1617.41763	61648.9625
1620.7259	58262.6625
1624.03199	56624.3625
1627.33587	56665.1625
1630.63757	58255.4625
1633.93707	61974.5625
1637.23439	68288.0625
1640.52951	77082.1625
1643.82246	86644.5625
1647.11321	93117.4625
1650.40179	92393.8625
1653.68819	84443.6625
1656.97241	73263.7625
1660.25446	63235.8625
1663.53433	56114.2625
1666.81203	51524.4625
1670.08756	48708.1625
1673.36092	46925.3625
1676.63211	45706.4625
1679.90115	44847.2625
1683.16801	44128.9625
1686.43272	43678.0625
1689.69527	43301.8625
1692.95567	42976.8625
1696.2139	42860.3625
1699.46999	42790.3625
1702.72392	42593.8625
1705.97571	42460.3625
1709.22535	42348.3625
1712.47284	42236.1625
1715.71819	42260.8625
1718.96139	42041.5625
1722.20246	41915.2625
1725.44139	41804.2625
1728.67818	41580.5625
1731.91284	41361.0625
1735.14537	41146.3625
1738.37576	40929.0625
1741.60403	40799.0625
1744.83017	40725.0625
1748.05418	40625.0625
1751.27607	40518.3625
1754.49584	40427.4625
1757.71349	40426.8625
1760.92903	40395.3625
1764.14244	40384.8625
1767.35375	40365.1625
1770.56294	40339.3625
1773.77002	40302.5625
1776.97499	40252.3625
1780.17785	40180.6625
1783.37861	40116.9625
1786.57727	39990.1625
1789.77382	39898.2625
1792.96828	39868.8625
1796.16064	39765.4625
1799.3509	39762.0625
1802.53907	39650.1625
1805.72514	39567.3625
1808.90913	39474.4625
1812.09102	39402.2625
1815.27083	39360.5625
1818.44856	39265.0625
1821.6242	39299.5625
1824.79776	39260.8625
1827.96924	39303.7625
1831.13864	39251.7625
1834.30597	39308.4625
1837.47122	39348.5625
1840.6344	39360.5625
1843.7955	39337.2625
1846.95454	39322.1625
1850.11151	39319.1625
1853.26642	39331.9625
1856.41926	39341.1625
1859.57004	39304.0625
1862.71876	39153.0625
1865.86542	39168.6625
1869.01003	39132.3625
1872.15258	39111.8625
1875.29308	39081.8625
1878.43152	38980.5625
1881.56792	38925.3625
1884.70227	38864.7625
1887.83457	38877.6625
1890.96482	38849.7625
1894.09304	38765.1625
1897.21921	38770.2625
1900.34335	38641.6625
1903.46544	38595.3625
1906.58551	38526.0625
1909.70353	38526.8625
1912.81953	38407.9625
1915.93349	38310.9625
1919.04543	38214.8625
1922.15534	38185.1625
1925.26322	38074.1625
1928.36908	38044.7625
1931.47292	37961.1625
1934.57473	37853.8625
1937.67453	37789.7625
1940.77232	37718.6625
1943.86808	37632.3625
1946.96184	37496.8625
1950.05358	37441.2625
1953.14331	37298.4625
1956.23103	37259.9625
1959.31675	37162.0625
1962.40046	37075.6625
1965.48217	36941.7625
1968.56188	36835.1625
1971.63959	36716.6625
1974.7153	36570.9625
1977.78901	36489.9625
1980.86073	36417.1625
1983.93046	36344.7625
1986.99819	36219.9625
1990.06394	36192.1625
1993.1277	36081.1625
1996.18947	35953.8625
1999.24925	35874.3625
2002.30706	35740.9625
2005.36288	35631.3625
2008.41672	35541.6625
2011.46859	35453.8625
2014.51848	35412.2625
2017.56639	35347.4625
2020.61233	35262.4625
2023.6563	35202.9625
2026.6983	35166.3625
2029.73833	35073.5625
2032.7764	35004.8625
2035.8125	34882.3625
2038.84664	34823.2625
2041.87881	34795.6625
2044.90903	34694.1625
2047.93729	34676.8625
2050.96359	34600.8625
2053.98794	34606.8625
2057.01034	34622.7625
2060.03078	34546.5625
2063.04927	34540.5625
2066.06582	34524.9625
2069.08042	34491.5625
2072.09307	34524.7625
2075.10378	34479.5625
2078.11255	34419.6625
2081.11938	34450.4625
2084.12426	34411.0625
2087.12722	34383.0625
2090.12824	34393.1625
2093.12732	34419.9625
2096.12447	34434.0625
2099.11969	34360.0625
2102.11299	34368.3625
2105.10435	34398.9625
2108.09379	34466.1625
2111.08131	34567.5625
2114.0669	34487.4625
2117.05057	34517.2625
2120.03233	34523.3625
2123.01216	34574.5625
2125.99008	34517.1625
2128.96609	34529.9625
2131.94018	34562.9625
2134.91236	34607.2625
2137.88263	34620.0625
2140.851	34662.3625
2143.81746	34654.8625
2146.78201	34650.8625
2149.74466	34647.7625
2152.7054	34668.8625
2155.66425	34664.0625
2158.6212	34676.8625
2161.57625	34725.4625
2164.52941	34665.0625
2167.48067	34731.6625
2170.43004	34685.9625
2173.37752	34697.1625
2176.32311	34661.5625
2179.26681	34655.2625
2182.20863	34680.4625
2185.14856	34671.1625
2188.08661	34675.2625
2191.02278	34700.7625
2193.95707	34637.4625
2196.88948	34635.1625
2199.82001	34609.7625
2202.74867	34538.9625
2205.67545	34471.0625
2208.60037	34488.9625
2211.52341	34468.8625
2214.44458	34413.4625
2217.36388	34363.4625
2220.28132	34301.5625
2223.1969	34243.4625
2226.11061	34279.2625
2229.02246	34167.5625
2231.93245	34116.4625
2234.84058	34057.8625
2237.74686	34002.4625
2240.65128	33976.2625
2243.55385	33906.4625
2246.45456	33842.6625
2249.35343	33831.0625
2252.25044	33731.7625
2255.14561	33691.3625
2258.03893	33642.5625
2260.93041	33596.5625
2263.82004	33514.8625
2266.70783	33451.7625
2269.59378	33375.3625
2272.4779	33266.2625
2275.36017	33212.2625
2278.24061	33133.5625
2281.11922	33094.2625
2283.996	33046.0625
2286.87094	33033.3625
2289.74405	32966.3625
2292.61534	32935.9625
2295.4848	32882.5625
2298.35243	32922.5625
2301.21824	32853.1625
2304.08223	32828.2625
2306.94439	32834.6625
2309.80474	32834.1625
2312.66327	32823.9625
2315.51999	32816.7625
2318.37489	32797.8625
2321.22797	32748.4625
2324.07925	32709.8625
2326.92871	32649.5625
2329.77637	32604.7625
2332.62222	32619.2625
2335.46626	32599.8625
2338.3085	32570.4625
2341.14893	32566.5625
2343.98756	32547.2625
2346.8244	32547.9625
2349.65943	32506.9625
2352.49267	32491.2625
2355.32411	32483.1625
2358.15376	32455.9625
2360.98161	32424.1625
2363.80768	32393.0625
2366.63195	32442.4625
2369.45444	32387.0625
2372.27514	32313.9625
2375.09405	32288.8625
2377.91118	32255.9625
2380.72652	32216.0625
2383.54009	32136.3625
2386.35187	32108.0625
2389.16188	32058.1625
2391.97011	31997.4625
2394.77657	31986.6625
2397.58125	31891.9625
2400.38416	31886.6625
2403.18529	31855.1625
2405.98466	31815.7625
2408.78226	31735.8625
2411.57809	31713.5625
2414.37216	31714.2625
2417.16446	31661.4625
2419.955	31671.3625
2422.74378	31643.7625
2425.5308	31587.4625
2428.31606	31550.7625
2431.09956	31541.8625
2433.88131	31522.1625
2436.6613	31502.8625
2439.43954	31475.4625
2442.21603	31436.9625
2444.99077	31408.7625
2447.76377	31446.2625
2450.53501	31406.8625
2453.30451	31431.2625
2456.07226	31398.6625
2458.83827	31362.4625
2461.60254	31403.3625
2464.36507	31372.3625
2467.12586	31358.5625
2469.88492	31331.7625
2472.64224	31323.8625
2475.39782	31294.1625
2478.15167	31312.0625
2480.90379	31300.8625
2483.65417	31333.7625
2486.40283	31285.1625
2489.14976	31323.5625
2491.89497	31263.8625
2494.63845	31328.2625
2497.3802	31285.1625
2500.12024	31297.1625
2502.85855	31354.8625
2505.59514	31316.2625
2508.33002	31311.4625
2511.06318	31278.4625
2513.79462	31272.3625
2516.52435	31192.4625
2519.25237	31214.8625
2521.97867	31218.3625
2524.70327	31163.1625
2527.42616	31148.1625
2530.14734	31145.5625
2532.86681	31105.4625
2535.58458	31074.6625
2538.30065	31060.5625
2541.01501	31046.5625
2543.72768	31043.1625
2546.43864	30968.2625
2549.14791	30955.1625
2551.85548	30963.8625
2554.56136	30891.7625
2557.26554	30912.9625
2559.96803	30862.3625
2562.66883	30812.0625
2565.36794	30831.7625
2568.06536	30830.6625
2570.7611	30775.7625
2573.45514	30736.6625
2576.14751	30728.1625
2578.83819	30662.8625
2581.52719	30700.6625
2584.21451	30653.8625
2586.90015	30599.6625
2589.58411	30557.9625
2592.2664	30524.0625
2594.94701	30518.4625
2597.62594	30535.4625
2600.30321	30457.1625
2602.9788	30446.3625
2605.65273	30432.9625
2608.32498	30410.0625
2610.99557	30410.4625
2613.66449	30401.6625
2616.33175	30374.2625
2618.99734	30349.5625
2621.66128	30319.2625
2624.32355	30348.0625
2626.98416	30287.0625
2629.64311	30200.3625
2632.30041	30211.3625
2634.95605	30203.4625
2637.61004	30174.8625
2640.26238	30137.7625
2642.91306	30169.9625
2645.56209	30184.7625
2648.20948	30201.1625
2650.85521	30155.3625
2653.4993	30179.4625
2656.14175	30183.1625
2658.78255	30216.4625
2661.42171	30219.2625
2664.05923	30243.5625
2666.6951	30226.9625
2669.32934	30245.5625
2671.96194	30224.3625
2674.59291	30231.2625
2677.22224	30270.8625
2679.84993	30259.5625
2682.476	30189.7625
2685.10043	30202.8625
2687.72324	30176.9625
2690.34441	30274.1625
2692.96396	30244.3625
2695.58188	30277.1625
2698.19818	30238.8625
2700.81285	30245.1625
2703.4259	30232.0625
2706.03733	30353.5625
2708.64714	30309.8625
2711.25533	30368.6625
2713.86191	30370.1625
2716.46687	30413.8625
2719.07021	30382.9625
2721.67194	30389.8625
2724.27206	30323.4625
2726.87057	30387.6625
2729.46747	30409.5625
2732.06276	30485.6625
2734.65644	30461.9625
2737.24852	30482.2625
2739.83899	30438.5625
2742.42786	30435.1625
2745.01513	30389.8625
2747.60079	30400.6625
2750.18486	30384.7625
2752.76733	30380.6625
2755.3482	30386.7625
2757.92747	30389.9625
2760.50515	30376.1625
2763.08123	30337.3625
2765.65573	30270.9625
2768.22863	30257.9625
2770.79994	30188.5625
2773.36967	30217.6625
2775.9378	30141.7625
2778.50435	30155.2625
2781.06932	30106.3625
2783.6327	30133.4625
2786.1945	30120.8625
2788.75471	30063.8625
2791.31335	29998.7625
2793.87041	29956.2625
2796.42589	29901.1625
2798.97979	29874.2625
2801.53212	29804.7625
2804.08288	29846.7625
2806.63206	29753.6625
2809.17967	29661.0625
2811.72571	29590.0625
2814.27018	29577.0625
2816.81308	29531.0625
2819.35442	29504.5625
2821.89419	29428.8625
2824.43239	29399.7625
2826.96904	29337.4625
2829.50412	29362.6625
2832.03763	29265.8625
2834.56959	29276.0625
2837.1	29242.3625
2839.62884	29198.0625
2842.15613	29162.1625
2844.68186	29169.5625
2847.20604	29094.1625
2849.72867	29051.7625
2852.24974	29070.4625
2854.76927	29035.5625
2857.28724	29004.9625
2859.80367	28943.6625
2862.31855	28869.7625
2864.83189	28911.1625
2867.34368	28840.7625
2869.85393	28826.1625
2872.36264	28808.9625
2874.8698	28853.0625
2877.37543	28832.4625
2879.87952	28857.3625
2882.38207	28814.6625
2884.88308	28807.6625
2887.38256	28818.1625
2889.88051	28804.5625
2892.37692	28810.6625
2894.8718	28815.5625
2897.36515	28857.5625
2899.85698	28863.8625
2902.34727	28898.6625
2904.83604	28898.9625
2907.32328	28936.5625
2909.809	28932.8625
2912.29319	28958.7625
2914.77587	28930.3625
2917.25702	28914.7625
2919.73665	28904.7625
2922.21476	28970.6625
2924.69136	28943.3625
2927.16644	28880.9625
2929.64	28833.5625
2932.11205	28852.7625
2934.58258	28707.8625
2937.05161	28852.4625
2939.51912	28826.1625
2941.98513	28847.1625
2944.44962	28713.6625
2946.91261	28609.4625
2949.37409	28696.7625
2951.83407	28706.9625
2954.29254	28637.6625
2956.74951	28601.8625
2959.20498	28597.6625
2961.65895	28537.2625
2964.11142	28557.8625
2966.56239	28515.2625
2969.01186	28457.4625
2971.45984	28385.3625
2973.90632	28369.1625
2976.35131	28374.2625
2978.7948	28298.4625
2981.23681	28253.2625
2983.67732	28229.2625
2986.11635	28155.2625
2988.55388	28089.4625
2990.98993	28019.3625
2993.4245	27972.3625
2995.85758	27840.0625
2998.28917	27788.4625
3000.71928	27776.4625
3003.14791	27669.1625
3005.57506	27708.2625
3008.00073	27595.1625
3010.42493	27598.3625
3012.84764	27583.9625
3015.26888	27543.8625
3017.68865	27464.8625
3020.10694	27443.5625
3022.52376	27345.2625
3024.9391	27336.3625
3027.35298	27300.4625
3029.76539	27290.0625
3032.17632	27300.3625
3034.5858	27226.2625
3036.9938	27235.3625
3039.40034	27154.0625
3041.80542	27128.1625
3044.20903	27036.8625
3046.61118	27046.1625
3049.01187	26993.2625
3051.4111	26939.4625
3053.80888	26850.4625
3056.20519	26805.4625
3058.60005	26711.9625
3060.99345	26690.0625
3063.3854	26666.7625
3065.7759	26537.0625
3068.16494	26501.4625
3070.55254	26400.6625
3072.93868	26365.3625
3075.32338	26293.2625
3077.70662	26244.0625
3080.08842	26169.5625
3082.46878	26179.1625
3084.84769	26115.0625
3087.22515	26085.9625
3089.60118	26055.8625
3091.97576	26060.3625
3094.3489	26012.3625
3096.72061	25983.9625
3099.09087	25995.3625
3101.4597	25925.6625
3103.82709	25916.4625
3106.19305	25811.6625
3108.55757	25803.9625
3110.92066	25695.2625
3113.28232	25691.2625
3115.64255	25603.3625
3118.00134	25553.6625
3120.35871	25518.0625
3122.71466	25521.2625
3125.06917	25448.6625
3127.42226	25421.3625
3129.77393	25427.0625
3132.12417	25334.5625
3134.47299	25345.9625
3136.82039	25367.5625
3139.16636	25310.6625
3141.51092	25302.8625
3143.85406	25267.1625
3146.19579	25253.0625
3148.53609	25286.0625
3150.87499	25287.3625
3153.21246	25298.3625
3155.54853	25274.6625
3157.88318	25193.0625
3160.21642	25239.2625
3162.54826	25173.6625
3164.87868	25182.7625
3167.2077	25125.9625
3169.5353	25119.4625
3171.86151	25107.8625
3174.18631	25041.4625
3176.5097	25032.3625
3178.83169	24985.3625
3181.15228	24983.6625
3183.47147	24895.5625
3185.78926	24936.5625
3188.10565	24908.6625
3190.42065	24840.9625
3192.73424	24822.9625
3195.04645	24787.6625
3197.35725	24821.3625
3199.66667	24786.5625
3201.97469	24779.1625
3204.28132	24720.4625
3206.58656	24707.5625
3208.8904	24728.2625
3211.19287	24688.6625
3213.49394	24705.5625
3215.79363	24682.0625
3218.09193	24719.1625
3220.38884	24716.6625
3222.68438	24710.9625
3224.97853	24676.0625
3227.2713	24629.1625
3229.56269	24599.9625
3231.8527	24587.0625
3234.14133	24523.1625
3236.42858	24496.8625
3238.71446	24448.7625
3240.99896	24400.0625
3243.28209	24351.6625
3245.56384	24334.6625
3247.84423	24325.2625
3250.12324	24283.2625
3252.40088	24252.6625
3254.67715	24216.7625
3256.95205	24195.3625
3259.22558	24164.8625
3261.49775	24024.8625
3263.76855	24053.6625
3266.03799	23975.6625
3268.30606	23980.1625
3270.57277	23930.1625
3272.83812	23888.2625
3275.10211	23858.3625
3277.36474	23829.4625
3279.62601	23882.0625
3281.88593	23842.3625
3284.14448	23840.9625
3286.40168	23782.6625
3288.65753	23753.4625
3290.91202	23753.8625
3293.16516	23655.6625
3295.41695	23596.0625
3297.66738	23454.3625
3299.91647	23326.2625
3302.16421	23179.8625
3304.4106	23061.7625
3306.65564	22987.3625
3308.89933	22820.2625
3311.14169	22660.3625
3313.38269	22460.2625
3315.62236	22339.7625
3317.86068	22105.1625
3320.09766	21918.6625
3322.3333	21721.8625
3324.5676	21703.1625
3326.80056	21369.3625
3329.03219	21270.9625
3331.26248	5.3625
3333.49143	-0.3375
3335.71905	-1.0375
