Data from AgNP_FTO_APTES_CRN_2uM_R6G_10uM_NaF_0.1M_Addition_RamanShift__15__14-52-29-338.txt Node

Date: Wed Dec 15 14:52:29 GMT 2021
User: TCL
Spectrometer: QEP01345
Trigger mode: 4
Integration Time (sec): 7.000000E0
Scans to average: 10
Electric dark correction enabled: true
Nonlinearity correction enabled: false
Boxcar width: 0
XAxis mode: Raman Shifts
Number of Pixels in Spectrum: 1044
>>>>>Begin Spectral Data<<<<<
46.04893	0.5625
50.45542	-2.7375
54.85868	-2.0375
59.25871	-1.6375
63.6555	139.9625
68.04907	145.9625
72.43941	155.3625
76.82654	161.2625
81.21044	164.4625
85.59113	171.9625
89.96862	176.6625
94.34289	182.1625
98.71396	191.9625
103.08183	199.7625
107.4465	199.9625
111.80798	205.4625
116.16626	214.0625
120.52136	221.7625
124.87327	227.3625
129.222	241.5625
133.56755	250.1625
137.90993	275.8625
142.24913	302.2625
146.58517	335.2625
150.91804	384.8625
155.24774	462.8625
159.57429	577.5625
163.89768	732.5625
168.21792	963.1625
172.53501	1316.6625
176.84895	1817.4625
181.15975	2556.6625
185.46741	3579.2625
189.77193	4936.0625
194.07331	6608.1625
198.37157	8508.1625
202.6667	10515.4625
206.9587	12469.0625
211.24758	14456.4625
215.53334	16342.4625
219.81599	18356.7625
224.09553	20554.7625
228.37195	22965.8625
232.64527	25696.0625
236.91549	28575.9625
241.18261	31551.0625
245.44663	34420.1625
249.70755	36998.5625
253.96539	39288.7625
258.22014	41206.8625
262.4718	42699.8625
266.72039	43716.5625
270.96589	44237.6625
275.20832	44318.8625
279.44768	44180.1625
283.68397	43818.9625
287.91719	43482.8625
292.14735	43161.1625
296.37445	42983.0625
300.59849	42927.4625
304.81948	42897.8625
309.03742	42779.4625
313.25231	42583.7625
317.46415	42122.8625
321.67296	41477.4625
325.87872	40876.6625
330.08145	40728.0625
334.28114	40812.9625
338.47781	41108.1625
342.67145	41543.0625
346.86207	42028.6625
351.04966	42606.1625
355.23424	43194.4625
359.4158	43733.2625
363.59435	44245.6625
367.76989	44615.1625
371.94243	44853.6625
376.11196	44971.6625
380.27849	45058.3625
384.44203	45150.5625
388.60257	45459.7625
392.76012	45992.9625
396.91468	46603.5625
401.06626	47296.9625
405.21485	47750.1625
409.36047	47817.4625
413.50311	47640.5625
417.64277	47501.7625
421.77947	47827.8625
425.9132	48184.4625
430.04396	48518.8625
434.17176	48707.6625
438.2966	48838.5625
442.41849	49043.6625
446.53742	49772.5625
450.6534	50586.6625
454.76644	51244.2625
458.87653	51554.6625
462.98368	51601.8625
467.08789	51395.0625
471.18916	50951.9625
475.2875	50459.7625
479.38291	50152.5625
483.4754	49905.5625
487.56496	49603.1625
491.6516	49230.7625
495.73531	48895.7625
499.81612	48811.2625
503.89401	49116.2625
507.96899	49457.6625
512.04106	49670.1625
516.11023	49618.3625
520.1765	49221.7625
524.23987	48646.6625
528.30034	48313.7625
532.35792	47845.3625
536.41261	47489.7625
540.46441	47210.1625
544.51333	47309.9625
548.55936	47724.1625
552.60252	48509.6625
556.64279	49219.8625
560.6802	49697.2625
564.71473	50167.4625
568.7464	50856.7625
572.7752	52097.6625
576.80114	53783.1625
580.82422	55593.6625
584.84444	57293.3625
588.86181	58950.4625
592.87633	59907.6625
596.888	59294.5625
600.89682	57510.4625
604.9028	57117.8625
608.90594	58852.9625
612.90624	60355.3625
616.90371	57213.3625
620.89834	51782.2625
624.89015	49545.8625
628.87913	49592.6625
632.86528	49884.9625
636.84862	49890.5625
640.82913	49243.5625
644.80683	48237.5625
648.78172	47649.2625
652.75379	47612.0625
656.72306	47928.6625
660.68952	48456.6625
664.65319	48303.8625
668.61405	47946.9625
672.57211	47899.3625
676.52738	48004.0625
680.47986	47894.9625
684.42955	47697.8625
688.37646	47603.8625
692.32058	47804.6625
696.26192	48237.4625
700.20048	48747.6625
704.13626	49212.7625
708.06928	49413.6625
711.99952	49434.5625
715.927	49259.1625
719.85171	49191.9625
723.77365	48897.3625
727.69284	48370.5625
731.60928	47815.3625
735.52295	47481.3625
739.43388	47368.2625
743.34206	47419.0625
747.24749	47716.1625
751.15017	48194.4625
755.05012	48833.8625
758.94733	49950.4625
762.8418	51577.1625
766.73354	53974.1625
770.62254	56008.0625
774.50882	55992.5625
778.39237	54138.4625
782.27321	51794.0625
786.15132	49952.0625
790.02671	48768.2625
793.89938	48051.7625
797.76935	47694.0625
801.6366	47538.1625
805.50115	47425.1625
809.36299	47273.9625
813.22213	46998.7625
817.07857	46829.0625
820.93231	46703.2625
824.78336	46634.7625
828.63172	46528.1625
832.47738	46444.4625
836.32036	46447.9625
840.16066	46420.2625
843.99827	46434.3625
847.8332	46399.4625
851.66546	46505.3625
855.49504	46636.0625
859.32195	46700.6625
863.1462	46622.4625
866.96777	46549.9625
870.78668	46561.4625
874.60293	46620.2625
878.41652	46625.3625
882.22745	46697.0625
886.03573	46894.5625
889.84136	46899.3625
893.64433	46836.8625
897.44466	46783.1625
901.24235	46761.5625
905.0374	46813.8625
908.8298	46830.9625
912.61957	46924.3625
916.40671	47322.4625
920.19121	47829.0625
923.97308	48161.8625
927.75233	48048.5625
931.52895	47477.6625
935.30295	46894.7625
939.07433	46300.6625
942.84309	45832.1625
946.60924	45635.6625
950.37278	45552.8625
954.13371	45490.0625
957.89203	45468.4625
961.64774	45463.5625
965.40086	45495.3625
969.15137	45352.4625
972.89929	45233.2625
976.64461	45092.7625
980.38733	45074.0625
984.12747	45084.8625
987.86502	45193.6625
991.59999	45293.0625
995.33237	45553.6625
999.06217	45984.5625
1002.78939	46664.4625
1006.51404	47432.6625
1010.23611	48251.8625
1013.95561	48811.9625
1017.67255	48746.0625
1021.38692	48277.7625
1025.09872	47702.3625
1028.80796	47157.7625
1032.51465	46901.6625
1036.21877	46905.3625
1039.92035	47165.8625
1043.61937	47355.5625
1047.31584	47605.3625
1051.00976	47841.9625
1054.70114	48157.7625
1058.38998	48598.7625
1062.07627	49365.2625
1065.76003	50329.3625
1069.44126	51361.3625
1073.11995	52434.4625
1076.79611	53206.0625
1080.46974	53284.4625
1084.14085	53112.5625
1087.80943	53006.4625
1091.47549	53021.0625
1095.13903	53087.8625
1098.80005	52508.8625
1102.45857	51492.3625
1106.11456	50625.7625
1109.76805	49923.6625
1113.41903	49667.0625
1117.06751	49607.7625
1120.71348	49777.0625
1124.35696	50086.0625
1127.99793	50439.7625
1131.63641	50783.4625
1135.2724	50978.5625
1138.90589	51080.3625
1142.5369	51250.5625
1146.16542	51463.6625
1149.79145	51683.9625
1153.415	52096.5625
1157.03607	52748.9625
1160.65467	53816.5625
1164.27079	55539.6625
1167.88443	57701.3625
1171.49561	59802.8625
1175.10432	62303.0625
1178.71056	65245.8625
1182.31434	68241.3625
1185.91565	70376.4625
1189.51451	71382.6625
1193.11091	71183.4625
1196.70485	69874.5625
1200.29634	67773.5625
1203.88538	66066.0625
1207.47197	65160.6625
1211.05612	64832.2625
1214.63782	64069.9625
1218.21708	62668.3625
1221.79391	60923.5625
1225.36829	59422.7625
1228.94024	58611.5625
1232.50976	58164.3625
1236.07685	57996.6625
1239.6415	57950.0625
1243.20374	58017.5625
1246.76355	58270.5625
1250.32093	58830.7625
1253.8759	59848.2625
1257.42845	61143.6625
1260.97859	62711.5625
1264.52631	64270.3625
1268.07163	65731.4625
1271.61453	67078.3625
1275.15503	68459.1625
1278.69312	70002.8625
1282.22882	71505.2625
1285.76211	73089.6625
1289.29301	74926.8625
1292.82151	77052.7625
1296.34761	79480.5625
1299.87133	82534.9625
1303.39266	85566.8625
1306.9116	88085.1625
1310.42815	89820.8625
1313.94233	90478.3625
1317.45412	90382.7625
1320.96354	90363.3625
1324.47058	90728.7625
1327.97525	91479.2625
1331.47754	92477.3625
1334.97747	93338.1625
1338.47502	94018.9625
1341.97022	94762.8625
1345.46305	95251.8625
1348.95352	94761.8625
1352.44163	93536.3625
1355.92738	92190.9625
1359.41078	91484.5625
1362.89183	90907.2625
1366.37053	88860.5625
1369.84688	84597.6625
1373.32088	79164.0625
1376.79254	74970.2625
1380.26186	72969.4625
1383.72883	72650.2625
1387.19347	72652.5625
1390.65578	72123.9625
1394.11575	71739.2625
1397.57339	71810.3625
1401.0287	72544.9625
1404.48168	73173.6625
1407.93234	73012.1625
1411.38068	71920.1625
1414.82669	70042.5625
1418.27039	67733.5625
1421.71177	65592.1625
1425.15083	63969.1625
1428.58758	63360.8625
1432.02203	63902.7625
1435.45416	65144.7625
1438.88399	66702.1625
1442.31151	67911.3625
1445.73673	68587.7625
1449.15965	69003.7625
1452.58027	69160.2625
1455.9986	69380.8625
1459.41463	69964.9625
1462.82837	70913.0625
1466.23982	71998.1625
1469.64898	72704.5625
1473.05586	73041.3625
1476.46045	72972.1625
1479.86276	72553.0625
1483.26279	72110.4625
1486.66054	71722.9625
1490.05602	71837.1625
1493.44922	72387.1625
1496.84016	73203.8625
1500.22882	74379.3625
1503.61521	75911.6625
1506.99934	77357.2625
1510.38121	78398.9625
1513.76081	78544.2625
1517.13816	78114.2625
1520.51324	77476.7625
1523.88607	77198.9625
1527.25665	77317.5625
1530.62498	77410.7625
1533.99105	76976.7625
1537.35488	75883.4625
1540.71647	74423.4625
1544.07581	72755.8625
1547.4329	71101.6625
1550.78776	69656.7625
1554.14038	68718.1625
1557.49077	68105.9625
1560.83892	67782.3625
1564.18484	67580.7625
1567.52853	67599.8625
1570.86999	68109.1625
1574.20922	69464.4625
1577.54624	71019.3625
1580.88103	72124.9625
1584.2136	73245.6625
1587.54395	74597.7625
1590.87208	76320.4625
1594.19801	78556.5625
1597.52172	80422.5625
1600.84321	80390.1625
1604.16251	77514.7625
1607.47959	73380.9625
1610.79447	69035.1625
1614.10715	64712.1625
1617.41763	60850.7625
1620.7259	57896.1625
1624.03199	56239.8625
1627.33587	56011.8625
1630.63757	57128.1625
1633.93707	59915.6625
1637.23439	64695.5625
1640.52951	71438.3625
1643.82246	78797.8625
1647.11321	83899.9625
1650.40179	84201.0625
1653.68819	78981.3625
1656.97241	70648.3625
1660.25446	62616.1625
1663.53433	56393.3625
1666.81203	52071.3625
1670.08756	49371.7625
1673.36092	47651.8625
1676.63211	46503.7625
1679.90115	45566.2625
1683.16801	44955.2625
1686.43272	44475.4625
1689.69527	44127.9625
1692.95567	43833.1625
1696.2139	43657.0625
1699.46999	43547.3625
1702.72392	43411.0625
1705.97571	43293.9625
1709.22535	43209.9625
1712.47284	43128.0625
1715.71819	43078.4625
1718.96139	42864.7625
1722.20246	42753.0625
1725.44139	42574.7625
1728.67818	42357.5625
1731.91284	42165.7625
1735.14537	41953.0625
1738.37576	41731.1625
1741.60403	41658.6625
1744.83017	41544.7625
1748.05418	41400.4625
1751.27607	41342.1625
1754.49584	41228.7625
1757.71349	41174.4625
1760.92903	41111.0625
1764.14244	41087.3625
1767.35375	41076.4625
1770.56294	41056.4625
1773.77002	40970.2625
1776.97499	40977.3625
1780.17785	40925.9625
1783.37861	40809.2625
1786.57727	40693.1625
1789.77382	40618.7625
1792.96828	40588.6625
1796.16064	40501.0625
1799.3509	40376.2625
1802.53907	40371.4625
1805.72514	40266.6625
1808.90913	40170.3625
1812.09102	40076.8625
1815.27083	40041.7625
1818.44856	39960.7625
1821.6242	39984.3625
1824.79776	39962.8625
1827.96924	39934.0625
1831.13864	39946.7625
1834.30597	39976.3625
1837.47122	39997.4625
1840.6344	39986.8625
1843.7955	39994.2625
1846.95454	39992.3625
1850.11151	39976.3625
1853.26642	39946.7625
1856.41926	39980.6625
1859.57004	39868.4625
1862.71876	39793.1625
1865.86542	39741.8625
1869.01003	39729.1625
1872.15258	39648.9625
1875.29308	39592.4625
1878.43152	39490.9625
1881.56792	39381.8625
1884.70227	39291.9625
1887.83457	39290.6625
1890.96482	39201.8625
1894.09304	39145.5625
1897.21921	39159.9625
1900.34335	39052.8625
1903.46544	38936.3625
1906.58551	38968.8625
1909.70353	38846.8625
1912.81953	38757.3625
1915.93349	38683.9625
1919.04543	38577.1625
1922.15534	38551.0625
1925.26322	38456.9625
1928.36908	38317.5625
1931.47292	38283.0625
1934.57473	38153.9625
1937.67453	38068.0625
1940.77232	38028.5625
1943.86808	37866.3625
1946.96184	37751.2625
1950.05358	37666.3625
1953.14331	37567.0625
1956.23103	37466.9625
1959.31675	37370.3625
1962.40046	37293.7625
1965.48217	37089.3625
1968.56188	37000.4625
1971.63959	36907.6625
1974.7153	36795.5625
1977.78901	36647.2625
1980.86073	36561.4625
1983.93046	36458.3625
1986.99819	36344.6625
1990.06394	36300.2625
1993.1277	36211.1625
1996.18947	36069.4625
1999.24925	35952.2625
2002.30706	35774.9625
2005.36288	35709.2625
2008.41672	35683.4625
2011.46859	35526.0625
2014.51848	35455.0625
2017.56639	35402.6625
2020.61233	35287.0625
2023.6563	35188.5625
2026.6983	35113.8625
2029.73833	35091.5625
2032.7764	34942.0625
2035.8125	34824.9625
2038.84664	34739.6625
2041.87881	34654.9625
2044.90903	34594.5625
2047.93729	34556.1625
2050.96359	34503.3625
2053.98794	34439.7625
2057.01034	34436.0625
2060.03078	34390.0625
2063.04927	34338.0625
2066.06582	34351.1625
2069.08042	34318.5625
2072.09307	34287.6625
2075.10378	34253.6625
2078.11255	34263.4625
2081.11938	34248.1625
2084.12426	34192.6625
2087.12722	34199.8625
2090.12824	34161.0625
2093.12732	34184.7625
2096.12447	34162.1625
2099.11969	34112.8625
2102.11299	34098.1625
2105.10435	34184.0625
2108.09379	34207.1625
2111.08131	34231.1625
2114.0669	34209.4625
2117.05057	34192.1625
2120.03233	34260.1625
2123.01216	34248.4625
2125.99008	34267.3625
2128.96609	34247.7625
2131.94018	34253.3625
2134.91236	34312.2625
2137.88263	34343.6625
2140.851	34301.6625
2143.81746	34303.0625
2146.78201	34353.2625
2149.74466	34320.1625
2152.7054	34320.2625
2155.66425	34303.1625
2158.6212	34319.2625
2161.57625	34298.1625
2164.52941	34344.7625
2167.48067	34298.1625
2170.43004	34321.7625
2173.37752	34322.0625
2176.32311	34306.3625
2179.26681	34202.4625
2182.20863	34212.7625
2185.14856	34216.3625
2188.08661	34214.4625
2191.02278	34187.7625
2193.95707	34156.3625
2196.88948	34127.2625
2199.82001	34122.0625
2202.74867	34076.9625
2205.67545	34016.4625
2208.60037	33923.6625
2211.52341	33876.1625
2214.44458	33860.0625
2217.36388	33794.8625
2220.28132	33685.3625
2223.1969	33691.6625
2226.11061	33633.6625
2229.02246	33558.5625
2231.93245	33502.7625
2234.84058	33432.1625
2237.74686	33373.7625
2240.65128	33351.6625
2243.55385	33258.1625
2246.45456	33224.5625
2249.35343	33158.0625
2252.25044	33096.7625
2255.14561	32980.7625
2258.03893	32974.1625
2260.93041	32942.8625
2263.82004	32864.5625
2266.70783	32802.5625
2269.59378	32660.1625
2272.4779	32662.0625
2275.36017	32533.2625
2278.24061	32412.2625
2281.11922	32371.0625
2283.996	32335.8625
2286.87094	32277.3625
2289.74405	32174.2625
2292.61534	32188.1625
2295.4848	32092.9625
2298.35243	32087.1625
2301.21824	32050.9625
2304.08223	32024.1625
2306.94439	32041.1625
2309.80474	31979.9625
2312.66327	31962.5625
2315.51999	31941.6625
2318.37489	31882.4625
2321.22797	31800.0625
2324.07925	31770.0625
2326.92871	31753.3625
2329.77637	31680.1625
2332.62222	31652.2625
2335.46626	31599.5625
2338.3085	31535.0625
2341.14893	31521.6625
2343.98756	31527.0625
2346.8244	31473.5625
2349.65943	31465.5625
2352.49267	31408.7625
2355.32411	31412.2625
2358.15376	31391.8625
2360.98161	31396.7625
2363.80768	31380.3625
2366.63195	31344.0625
2369.45444	31313.0625
2372.27514	31236.8625
2375.09405	31221.7625
2377.91118	31202.4625
2380.72652	31171.8625
2383.54009	31105.5625
2386.35187	31038.9625
2389.16188	30937.3625
2391.97011	30923.0625
2394.77657	30879.8625
2397.58125	30812.4625
2400.38416	30763.1625
2403.18529	30709.1625
2405.98466	30658.5625
2408.78226	30612.0625
2411.57809	30574.6625
2414.37216	30524.8625
2417.16446	30540.5625
2419.955	30457.6625
2422.74378	30459.9625
2425.5308	30448.9625
2428.31606	30414.7625
2431.09956	30340.6625
2433.88131	30316.2625
2436.6613	30315.6625
2439.43954	30245.9625
2442.21603	30234.4625
2444.99077	30147.3625
2447.76377	30207.4625
2450.53501	30159.1625
2453.30451	30160.0625
2456.07226	30078.3625
2458.83827	30086.9625
2461.60254	30097.8625
2464.36507	30050.3625
2467.12586	30042.1625
2469.88492	29979.6625
2472.64224	29964.5625
2475.39782	29942.1625
2478.15167	29980.2625
2480.90379	29910.6625
2483.65417	29919.2625
2486.40283	29886.6625
2489.14976	29892.0625
2491.89497	29847.4625
2494.63845	29862.5625
2497.3802	29826.2625
2500.12024	29850.0625
2502.85855	29850.6625
2505.59514	29803.2625
2508.33002	29818.3625
2511.06318	29787.4625
2513.79462	29744.1625
2516.52435	29724.6625
2519.25237	29718.9625
2521.97867	29677.0625
2524.70327	29617.4625
2527.42616	29579.5625
2530.14734	29578.2625
2532.86681	29568.5625
2535.58458	29500.8625
2538.30065	29444.7625
2541.01501	29424.0625
2543.72768	29404.6625
2546.43864	29391.1625
2549.14791	29308.7625
2551.85548	29315.2625
2554.56136	29211.0625
2557.26554	29189.9625
2559.96803	29183.1625
2562.66883	29142.6625
2565.36794	29086.4625
2568.06536	29105.6625
2570.7611	29024.9625
2573.45514	28944.7625
2576.14751	28924.5625
2578.83819	28878.4625
2581.52719	28836.0625
2584.21451	28805.0625
2586.90015	28746.3625
2589.58411	28718.2625
2592.2664	28657.8625
2594.94701	28674.2625
2597.62594	28660.3625
2600.30321	28575.0625
2602.9788	28585.2625
2605.65273	28518.1625
2608.32498	28481.0625
2610.99557	28461.3625
2613.66449	28394.6625
2616.33175	28372.8625
2618.99734	28342.4625
2621.66128	28344.4625
2624.32355	28331.4625
2626.98416	28264.4625
2629.64311	28256.8625
2632.30041	28180.8625
2634.95605	28193.3625
2637.61004	28161.8625
2640.26238	28155.4625
2642.91306	28148.3625
2645.56209	28132.0625
2648.20948	28139.0625
2650.85521	28117.1625
2653.4993	28138.7625
2656.14175	28080.1625
2658.78255	28119.1625
2661.42171	28105.1625
2664.05923	28156.1625
2666.6951	28118.5625
2669.32934	28121.4625
2671.96194	28119.3625
2674.59291	28109.5625
2677.22224	28091.6625
2679.84993	28089.4625
2682.476	28060.5625
2685.10043	28073.8625
2687.72324	28081.0625
2690.34441	28062.0625
2692.96396	28081.9625
2695.58188	28107.8625
2698.19818	28078.8625
2700.81285	28111.8625
2703.4259	28059.5625
2706.03733	28130.8625
2708.64714	28109.6625
2711.25533	28166.5625
2713.86191	28152.4625
2716.46687	28152.6625
2719.07021	28125.2625
2721.67194	28109.0625
2724.27206	28141.3625
2726.87057	28082.5625
2729.46747	28163.2625
2732.06276	28147.1625
2734.65644	28126.4625
2737.24852	28168.2625
2739.83899	28095.0625
2742.42786	28091.3625
2745.01513	28051.2625
2747.60079	27988.2625
2750.18486	27968.2625
2752.76733	27994.7625
2755.3482	28004.2625
2757.92747	28029.0625
2760.50515	27919.3625
2763.08123	27911.6625
2765.65573	27868.2625
2768.22863	27825.7625
2770.79994	27755.7625
2773.36967	27735.4625
2775.9378	27651.4625
2778.50435	27673.2625
2781.06932	27638.8625
2783.6327	27626.8625
2786.1945	27592.1625
2788.75471	27506.1625
2791.31335	27420.7625
2793.87041	27390.9625
2796.42589	27363.1625
2798.97979	27344.5625
2801.53212	27305.0625
2804.08288	27250.2625
2806.63206	27147.7625
2809.17967	27141.8625
2811.72571	27010.0625
2814.27018	26990.6625
2816.81308	26929.0625
2819.35442	26883.8625
2821.89419	26862.5625
2824.43239	26856.9625
2826.96904	26788.4625
2829.50412	26770.6625
2832.03763	26724.6625
2834.56959	26703.6625
2837.1	26627.0625
2839.62884	26584.5625
2842.15613	26556.5625
2844.68186	26566.1625
2847.20604	26502.6625
2849.72867	26463.9625
2852.24974	26436.8625
2854.76927	26390.0625
2857.28724	26380.4625
2859.80367	26357.2625
2862.31855	26264.6625
2864.83189	26308.4625
2867.34368	26215.9625
2869.85393	26224.0625
2872.36264	26159.3625
2874.8698	26192.8625
2877.37543	26134.1625
2879.87952	26169.3625
2882.38207	26119.8625
2884.88308	26085.5625
2887.38256	26110.0625
2889.88051	26087.4625
2892.37692	26088.5625
2894.8718	26059.0625
2897.36515	26059.6625
2899.85698	26058.1625
2902.34727	26138.7625
2904.83604	26117.0625
2907.32328	26128.7625
2909.809	26108.7625
2912.29319	26107.4625
2914.77587	26149.4625
2917.25702	26069.3625
2919.73665	26079.2625
2922.21476	26097.0625
2924.69136	26026.3625
2927.16644	26064.2625
2929.64	25991.7625
2932.11205	25951.0625
2934.58258	25859.4625
2937.05161	25950.2625
2939.51912	25970.7625
2941.98513	25971.4625
2944.44962	25841.4625
2946.91261	25767.6625
2949.37409	25845.5625
2951.83407	25811.8625
2954.29254	25751.6625
2956.74951	25696.3625
2959.20498	25672.7625
2961.65895	25631.8625
2964.11142	25677.8625
2966.56239	25591.3625
2969.01186	25582.3625
2971.45984	25509.2625
2973.90632	25433.4625
2976.35131	25436.6625
2978.7948	25376.6625
2981.23681	25346.8625
2983.67732	25321.6625
2986.11635	25228.7625
2988.55388	25171.0625
2990.98993	25124.8625
2993.4245	25101.2625
2995.85758	24982.9625
2998.28917	24939.8625
3000.71928	24867.3625
3003.14791	24771.3625
3005.57506	24819.7625
3008.00073	24717.8625
3010.42493	24701.0625
3012.84764	24660.0625
3015.26888	24631.7625
3017.68865	24596.4625
3020.10694	24527.2625
3022.52376	24478.8625
3024.9391	24430.8625
3027.35298	24411.6625
3029.76539	24389.7625
3032.17632	24353.9625
3034.5858	24285.7625
3036.9938	24279.8625
3039.40034	24261.6625
3041.80542	24205.6625
3044.20903	24081.3625
3046.61118	24092.3625
3049.01187	24017.1625
3051.4111	24025.2625
3053.80888	23911.0625
3056.20519	23879.7625
3058.60005	23805.3625
3060.99345	23759.7625
3063.3854	23710.5625
3065.7759	23596.1625
3068.16494	23584.4625
3070.55254	23493.6625
3072.93868	23482.9625
3075.32338	23375.4625
3077.70662	23327.0625
3080.08842	23258.8625
3082.46878	23238.3625
3084.84769	23204.4625
3087.22515	23155.9625
3089.60118	23150.8625
3091.97576	23137.2625
3094.3489	23069.3625
3096.72061	23079.7625
3099.09087	23061.3625
3101.4597	23019.6625
3103.82709	22988.9625
3106.19305	22885.2625
3108.55757	22862.7625
3110.92066	22756.2625
3113.28232	22748.9625
3115.64255	22700.6625
3118.00134	22644.0625
3120.35871	22617.8625
3122.71466	22617.3625
3125.06917	22544.6625
3127.42226	22500.4625
3129.77393	22474.2625
3132.12417	22419.9625
3134.47299	22441.1625
3136.82039	22391.8625
3139.16636	22388.5625
3141.51092	22328.7625
3143.85406	22326.1625
3146.19579	22351.9625
3148.53609	22329.2625
3150.87499	22321.3625
3153.21246	22335.7625
3155.54853	22335.2625
3157.88318	22246.0625
3160.21642	22276.7625
3162.54826	22255.3625
3164.87868	22204.8625
3167.2077	22150.9625
3169.5353	22139.1625
3171.86151	22128.9625
3174.18631	22080.8625
3176.5097	21998.8625
3178.83169	21958.4625
3181.15228	21974.0625
3183.47147	21920.7625
3185.78926	21940.7625
3188.10565	21882.6625
3190.42065	21832.1625
3192.73424	21799.8625
3195.04645	21795.1625
3197.35725	21777.1625
3199.66667	21792.8625
3201.97469	21766.2625
3204.28132	21737.2625
3206.58656	21732.0625
3208.8904	21741.9625
3211.19287	21716.7625
3213.49394	21653.6625
3215.79363	21651.2625
3218.09193	21689.9625
3220.38884	21685.1625
3222.68438	21667.1625
3224.97853	21611.0625
3227.2713	21617.3625
3229.56269	21548.1625
3231.8527	21521.1625
3234.14133	21474.8625
3236.42858	21428.0625
3238.71446	21393.2625
3240.99896	21326.7625
3243.28209	21295.6625
3245.56384	21285.6625
3247.84423	21292.1625
3250.12324	21220.5625
3252.40088	21177.7625
3254.67715	21163.6625
3256.95205	21099.1625
3259.22558	21121.7625
3261.49775	21045.2625
3263.76855	21028.2625
3266.03799	20943.6625
3268.30606	20942.0625
3270.57277	20882.0625
3272.83812	20853.8625
3275.10211	20791.7625
3277.36474	20797.7625
3279.62601	20800.3625
3281.88593	20735.5625
3284.14448	20772.6625
3286.40168	20718.6625
3288.65753	20669.6625
3290.91202	20679.1625
3293.16516	20572.0625
3295.41695	20511.5625
3297.66738	20389.7625
3299.91647	20285.2625
3302.16421	20172.2625
3304.4106	20083.7625
3306.65564	19974.2625
3308.89933	19821.3625
3311.14169	19676.5625
3313.38269	19518.5625
3315.62236	19421.4625
3317.86068	19194.7625
3320.09766	19038.9625
3322.3333	18867.1625
3324.5676	18843.3625
3326.80056	18525.4625
3329.03219	18441.4625
3331.26248	5.7625
3333.49143	-0.0375
3335.71905	-0.7375
