Data from AgNP_FTO_APTES_CRN_2uM_R6G_10uM_NaF_0.1M_Addition_RamanShift__6__14-41-59-331.txt Node

Date: Wed Dec 15 14:41:59 GMT 2021
User: TCL
Spectrometer: QEP01345
Trigger mode: 4
Integration Time (sec): 7.000000E0
Scans to average: 10
Electric dark correction enabled: true
Nonlinearity correction enabled: false
Boxcar width: 0
XAxis mode: Raman Shifts
Number of Pixels in Spectrum: 1044
>>>>>Begin Spectral Data<<<<<
46.04893	-1.1375
50.45542	-3.1375
54.85868	-2.1375
59.25871	-1.4375
63.6555	149.0625
68.04907	155.4625
72.43941	159.1625
76.82654	172.1625
81.21044	174.7625
85.59113	183.2625
89.96862	190.9625
94.34289	193.2625
98.71396	199.5625
103.08183	204.9625
107.4465	214.1625
111.80798	218.6625
116.16626	223.5625
120.52136	236.2625
124.87327	239.9625
129.222	252.0625
133.56755	269.5625
137.90993	292.9625
142.24913	319.7625
146.58517	353.5625
150.91804	415.1625
155.24774	485.6625
159.57429	612.5625
163.89768	772.9625
168.21792	1025.2625
172.53501	1394.7625
176.84895	1946.0625
181.15975	2724.2625
185.46741	3801.4625
189.77193	5226.0625
194.07331	6983.9625
198.37157	8970.4625
202.6667	11080.3625
206.9587	13161.8625
211.24758	15178.8625
215.53334	17216.8625
219.81599	19364.3625
224.09553	21787.8625
228.37195	24385.4625
232.64527	27292.8625
236.91549	30360.6625
241.18261	33445.6625
245.44663	36375.4625
249.70755	38934.7625
253.96539	41208.9625
258.22014	43190.3625
262.4718	44769.7625
266.72039	45854.9625
270.96589	46350.3625
275.20832	46399.7625
279.44768	46194.2625
283.68397	45762.2625
287.91719	45443.2625
292.14735	45149.9625
296.37445	45006.6625
300.59849	45137.6625
304.81948	45125.6625
309.03742	45120.9625
313.25231	44934.8625
317.46415	44352.4625
321.67296	43686.6625
325.87872	43094.5625
330.08145	42813.1625
334.28114	42893.3625
338.47781	43165.6625
342.67145	43651.9625
346.86207	44191.7625
351.04966	44999.9625
355.23424	45779.0625
359.4158	46566.0625
363.59435	47252.1625
367.76989	47749.1625
371.94243	48065.9625
376.11196	48281.5625
380.27849	48331.2625
384.44203	48505.1625
388.60257	48925.7625
392.76012	49488.5625
396.91468	50172.2625
401.06626	50987.8625
405.21485	51573.1625
409.36047	51620.6625
413.50311	51567.3625
417.64277	51646.6625
421.77947	52105.0625
425.9132	52478.6625
430.04396	52724.8625
434.17176	52899.5625
438.2966	52950.9625
442.41849	53367.7625
446.53742	54545.8625
450.6534	55972.4625
454.76644	57043.9625
458.87653	57452.6625
462.98368	57113.0625
467.08789	56235.3625
471.18916	55206.4625
475.2875	54139.9625
479.38291	53403.9625
483.4754	52923.0625
487.56496	52479.2625
491.6516	52070.4625
495.73531	51828.2625
499.81612	51884.3625
503.89401	52484.8625
507.96899	52999.1625
512.04106	53077.9625
516.11023	52797.0625
520.1765	52137.8625
524.23987	51546.5625
528.30034	51021.8625
532.35792	50468.5625
536.41261	49810.3625
540.46441	49370.6625
544.51333	49331.7625
548.55936	49770.0625
552.60252	50683.8625
556.64279	51686.2625
560.6802	52404.4625
564.71473	53009.2625
568.7464	53810.0625
572.7752	55340.5625
576.80114	57281.2625
580.82422	59751.6625
584.84444	62549.9625
588.86181	65448.0625
592.87633	66809.6625
596.888	65311.3625
600.89682	62450.9625
604.9028	62017.4625
608.90594	64598.2625
612.90624	66775.2625
616.90371	62580.7625
620.89834	55174.6625
624.89015	52082.8625
628.87913	51781.1625
632.86528	51847.9625
636.84862	51477.8625
640.82913	50603.5625
644.80683	49631.2625
648.78172	49137.1625
652.75379	49309.1625
656.72306	49830.3625
660.68952	50332.4625
664.65319	49840.1625
668.61405	49285.4625
672.57211	49220.6625
676.52738	49513.0625
680.47986	49468.0625
684.42955	49090.1625
688.37646	49006.9625
692.32058	49378.4625
696.26192	50138.4625
700.20048	50951.6625
704.13626	51380.1625
708.06928	51308.7625
711.99952	51169.5625
715.927	51230.5625
719.85171	51516.5625
723.77365	51399.2625
727.69284	50629.5625
731.60928	49779.5625
735.52295	49419.1625
739.43388	49207.1625
743.34206	49388.7625
747.24749	49753.4625
751.15017	50325.5625
755.05012	51160.3625
758.94733	52524.6625
762.8418	54504.2625
766.73354	57268.7625
770.62254	59374.4625
774.50882	59145.6625
778.39237	56706.9625
782.27321	53775.9625
786.15132	51626.2625
790.02671	50343.5625
793.89938	49672.2625
797.76935	49466.1625
801.6366	49521.5625
805.50115	49569.2625
809.36299	49332.2625
813.22213	48855.4625
817.07857	48436.5625
820.93231	48049.5625
824.78336	47829.4625
828.63172	47698.7625
832.47738	47632.8625
836.32036	47731.1625
840.16066	47910.2625
843.99827	48073.1625
847.8332	47942.8625
851.66546	47898.2625
855.49504	47955.9625
859.32195	48017.5625
863.1462	47895.2625
866.96777	47792.3625
870.78668	47647.6625
874.60293	47703.9625
878.41652	47794.7625
882.22745	47935.6625
886.03573	48106.5625
889.84136	48021.5625
893.64433	47905.3625
897.44466	47713.6625
901.24235	47619.4625
905.0374	47559.6625
908.8298	47549.9625
912.61957	47636.0625
916.40671	48131.7625
920.19121	48801.8625
923.97308	49398.5625
927.75233	49463.6625
931.52895	48918.2625
935.30295	48118.8625
939.07433	47385.9625
942.84309	46958.3625
946.60924	46883.3625
950.37278	46904.4625
954.13371	46854.8625
957.89203	46814.2625
961.64774	46736.9625
965.40086	46743.3625
969.15137	46661.5625
972.89929	46526.8625
976.64461	46527.6625
980.38733	46561.0625
984.12747	46751.8625
987.86502	47014.0625
991.59999	47396.3625
995.33237	47963.7625
999.06217	49039.6625
1002.78939	50384.7625
1006.51404	51682.7625
1010.23611	52720.1625
1013.95561	53321.9625
1017.67255	53129.4625
1021.38692	52286.5625
1025.09872	51534.8625
1028.80796	51275.8625
1032.51465	51910.6625
1036.21877	52787.2625
1039.92035	53031.7625
1043.61937	52825.6625
1047.31584	52179.2625
1051.00976	51508.3625
1054.70114	51214.0625
1058.38998	51402.7625
1062.07627	52040.9625
1065.76003	52991.0625
1069.44126	54091.1625
1073.11995	55552.6625
1076.79611	56634.2625
1080.46974	56947.8625
1084.14085	56758.3625
1087.80943	56723.0625
1091.47549	56647.6625
1095.13903	56309.8625
1098.80005	55493.6625
1102.45857	54204.9625
1106.11456	53231.2625
1109.76805	52638.4625
1113.41903	52520.6625
1117.06751	52580.1625
1120.71348	52783.5625
1124.35696	53054.7625
1127.99793	53469.6625
1131.63641	53919.8625
1135.2724	54069.0625
1138.90589	54329.5625
1142.5369	54573.8625
1146.16542	54946.5625
1149.79145	55287.9625
1153.415	55843.0625
1157.03607	56892.3625
1160.65467	58870.9625
1164.27079	61980.5625
1167.88443	65366.7625
1171.49561	68353.3625
1175.10432	71644.7625
1178.71056	75851.9625
1182.31434	80241.9625
1185.91565	82675.8625
1189.51451	82471.2625
1193.11091	80746.5625
1196.70485	78277.7625
1200.29634	75738.2625
1203.88538	74269.2625
1207.47197	73931.7625
1211.05612	73828.4625
1214.63782	72919.7625
1218.21708	71040.6625
1221.79391	68879.9625
1225.36829	67155.4625
1228.94024	65884.6625
1232.50976	64828.5625
1236.07685	64135.1625
1239.6415	63728.2625
1243.20374	63896.6625
1246.76355	64371.4625
1250.32093	65433.1625
1253.8759	67013.3625
1257.42845	68887.2625
1260.97859	70975.0625
1264.52631	73139.9625
1268.07163	75409.3625
1271.61453	77796.3625
1275.15503	80189.0625
1278.69312	82546.5625
1282.22882	84679.5625
1285.76211	86995.5625
1289.29301	89706.4625
1292.82151	92999.7625
1296.34761	97313.1625
1299.87133	103001.8625
1303.39266	109042.7625
1306.9116	114400.5625
1310.42815	117715.8625
1313.94233	118763.0625
1317.45412	117735.1625
1320.96354	116293.9625
1324.47058	115742.6625
1327.97525	115939.1625
1331.47754	116468.6625
1334.97747	116621.3625
1338.47502	116130.7625
1341.97022	114496.2625
1345.46305	111816.2625
1348.95352	109106.5625
1352.44163	107523.0625
1355.92738	108408.7625
1359.41078	111255.1625
1362.89183	113419.5625
1366.37053	111581.7625
1369.84688	104804.4625
1373.32088	95301.9625
1376.79254	88273.0625
1380.26186	85591.0625
1383.72883	85863.1625
1387.19347	86178.9625
1390.65578	85436.3625
1394.11575	84925.6625
1397.57339	85783.5625
1401.0287	87930.9625
1404.48168	90059.2625
1407.93234	91009.5625
1411.38068	89980.9625
1414.82669	87424.0625
1418.27039	83830.7625
1421.71177	80187.8625
1425.15083	77268.2625
1428.58758	76226.9625
1432.02203	77173.6625
1435.45416	79595.1625
1438.88399	82505.3625
1442.31151	84688.6625
1445.73673	85611.7625
1449.15965	85702.0625
1452.58027	85220.7625
1455.9986	84390.5625
1459.41463	84506.7625
1462.82837	85649.1625
1466.23982	87430.2625
1469.64898	89155.7625
1473.05586	90227.9625
1476.46045	90432.0625
1479.86276	89720.7625
1483.26279	88701.6625
1486.66054	87919.7625
1490.05602	87871.8625
1493.44922	87962.5625
1496.84016	87891.1625
1500.22882	87974.8625
1503.61521	88433.5625
1506.99934	89254.1625
1510.38121	89723.4625
1513.76081	89535.3625
1517.13816	88504.0625
1520.51324	87424.6625
1523.88607	87203.4625
1527.25665	87796.9625
1530.62498	88738.4625
1533.99105	89012.5625
1537.35488	88351.0625
1540.71647	86745.1625
1544.07581	84681.6625
1547.4329	82452.9625
1550.78776	80460.2625
1554.14038	78886.9625
1557.49077	77796.9625
1560.83892	76867.4625
1564.18484	76406.5625
1567.52853	76147.6625
1570.86999	76737.5625
1574.20922	78596.0625
1577.54624	80846.3625
1580.88103	82943.6625
1584.2136	85346.2625
1587.54395	88980.6625
1590.87208	93863.7625
1594.19801	99554.2625
1597.52172	104384.7625
1600.84321	104875.0625
1604.16251	99340.0625
1607.47959	90774.4625
1610.79447	82300.0625
1614.10715	74796.5625
1617.41763	69012.8625
1620.7259	65106.2625
1624.03199	63283.3625
1627.33587	63514.2625
1630.63757	65642.9625
1633.93707	70100.1625
1637.23439	77716.8625
1640.52951	88271.5625
1643.82246	99724.5625
1647.11321	107218.4625
1650.40179	106001.9625
1653.68819	96226.5625
1656.97241	82675.2625
1660.25446	70749.4625
1663.53433	62355.6625
1666.81203	57017.5625
1670.08756	53700.8625
1673.36092	51592.9625
1676.63211	50152.7625
1679.90115	49161.7625
1683.16801	48365.5625
1686.43272	47833.4625
1689.69527	47423.4625
1692.95567	47134.3625
1696.2139	46959.5625
1699.46999	46774.5625
1702.72392	46613.8625
1705.97571	46556.1625
1709.22535	46413.7625
1712.47284	46301.1625
1715.71819	46286.3625
1718.96139	46105.3625
1722.20246	45948.5625
1725.44139	45773.1625
1728.67818	45559.4625
1731.91284	45267.8625
1735.14537	45017.5625
1738.37576	44771.1625
1741.60403	44651.7625
1744.83017	44532.1625
1748.05418	44428.2625
1751.27607	44292.1625
1754.49584	44208.7625
1757.71349	44169.7625
1760.92903	44154.5625
1764.14244	44143.9625
1767.35375	44116.3625
1770.56294	44084.8625
1773.77002	44025.0625
1776.97499	44024.1625
1780.17785	43952.9625
1783.37861	43858.0625
1786.57727	43793.1625
1789.77382	43694.0625
1792.96828	43628.3625
1796.16064	43563.2625
1799.3509	43509.9625
1802.53907	43403.3625
1805.72514	43277.0625
1808.90913	43222.0625
1812.09102	43136.7625
1815.27083	43052.8625
1818.44856	43048.5625
1821.6242	43006.2625
1824.79776	43049.5625
1827.96924	42975.3625
1831.13864	43032.7625
1834.30597	43087.1625
1837.47122	43173.5625
1840.6344	43123.8625
1843.7955	43143.1625
1846.95454	43120.7625
1850.11151	43137.0625
1853.26642	43133.1625
1856.41926	43161.3625
1859.57004	43075.1625
1862.71876	43054.3625
1865.86542	42906.5625
1869.01003	42966.5625
1872.15258	42975.3625
1875.29308	42919.9625
1878.43152	42831.6625
1881.56792	42846.5625
1884.70227	42743.2625
1887.83457	42743.7625
1890.96482	42701.6625
1894.09304	42649.0625
1897.21921	42653.6625
1900.34335	42555.8625
1903.46544	42477.7625
1906.58551	42445.6625
1909.70353	42331.8625
1912.81953	42253.9625
1915.93349	42223.8625
1919.04543	42079.1625
1922.15534	42042.5625
1925.26322	41934.3625
1928.36908	41831.9625
1931.47292	41727.0625
1934.57473	41649.3625
1937.67453	41582.3625
1940.77232	41454.8625
1943.86808	41332.6625
1946.96184	41203.6625
1950.05358	41094.4625
1953.14331	41031.6625
1956.23103	40964.6625
1959.31675	40794.6625
1962.40046	40721.8625
1965.48217	40669.3625
1968.56188	40462.2625
1971.63959	40373.5625
1974.7153	40298.0625
1977.78901	40155.3625
1980.86073	40082.3625
1983.93046	39929.1625
1986.99819	39838.3625
1990.06394	39828.9625
1993.1277	39755.6625
1996.18947	39587.1625
1999.24925	39447.1625
2002.30706	39314.8625
2005.36288	39221.9625
2008.41672	39143.3625
2011.46859	39027.1625
2014.51848	39008.3625
2017.56639	38924.6625
2020.61233	38826.9625
2023.6563	38774.4625
2026.6983	38693.4625
2029.73833	38644.4625
2032.7764	38553.7625
2035.8125	38512.4625
2038.84664	38424.6625
2041.87881	38402.4625
2044.90903	38375.2625
2047.93729	38257.1625
2050.96359	38215.7625
2053.98794	38157.2625
2057.01034	38202.9625
2060.03078	38128.9625
2063.04927	38131.5625
2066.06582	38083.8625
2069.08042	38048.7625
2072.09307	38075.4625
2075.10378	38040.3625
2078.11255	38012.7625
2081.11938	37986.1625
2084.12426	37959.3625
2087.12722	37907.3625
2090.12824	37974.1625
2093.12732	37989.5625
2096.12447	37937.9625
2099.11969	37948.4625
2102.11299	37924.8625
2105.10435	37953.6625
2108.09379	38039.0625
2111.08131	38089.0625
2114.0669	38100.9625
2117.05057	38089.9625
2120.03233	38135.6625
2123.01216	38155.5625
2125.99008	38141.1625
2128.96609	38150.4625
2131.94018	38160.3625
2134.91236	38212.3625
2137.88263	38262.4625
2140.851	38257.0625
2143.81746	38319.0625
2146.78201	38330.4625
2149.74466	38365.1625
2152.7054	38328.8625
2155.66425	38358.0625
2158.6212	38378.2625
2161.57625	38356.1625
2164.52941	38390.3625
2167.48067	38427.5625
2170.43004	38363.9625
2173.37752	38393.0625
2176.32311	38389.1625
2179.26681	38290.4625
2182.20863	38299.4625
2185.14856	38302.5625
2188.08661	38397.1625
2191.02278	38424.3625
2193.95707	38345.0625
2196.88948	38323.9625
2199.82001	38369.9625
2202.74867	38295.5625
2205.67545	38336.8625
2208.60037	38216.4625
2211.52341	38199.5625
2214.44458	38186.9625
2217.36388	38110.3625
2220.28132	38080.1625
2223.1969	38040.1625
2226.11061	38027.0625
2229.02246	37908.3625
2231.93245	37887.5625
2234.84058	37747.6625
2237.74686	37760.0625
2240.65128	37711.1625
2243.55385	37663.7625
2246.45456	37600.7625
2249.35343	37517.8625
2252.25044	37465.4625
2255.14561	37337.9625
2258.03893	37338.5625
2260.93041	37280.9625
2263.82004	37232.8625
2266.70783	37165.3625
2269.59378	37063.3625
2272.4779	36995.7625
2275.36017	36896.1625
2278.24061	36870.8625
2281.11922	36774.4625
2283.996	36721.7625
2286.87094	36707.7625
2289.74405	36686.9625
2292.61534	36672.4625
2295.4848	36573.7625
2298.35243	36617.3625
2301.21824	36592.6625
2304.08223	36665.9625
2306.94439	36682.2625
2309.80474	36606.1625
2312.66327	36644.8625
2315.51999	36664.7625
2318.37489	36638.8625
2321.22797	36579.3625
2324.07925	36610.6625
2326.92871	36555.5625
2329.77637	36476.3625
2332.62222	36487.4625
2335.46626	36474.8625
2338.3085	36411.1625
2341.14893	36423.9625
2343.98756	36497.8625
2346.8244	36448.6625
2349.65943	36413.8625
2352.49267	36361.9625
2355.32411	36366.5625
2358.15376	36346.7625
2360.98161	36299.9625
2363.80768	36332.4625
2366.63195	36292.1625
2369.45444	36214.8625
2372.27514	36183.6625
2375.09405	36115.3625
2377.91118	36093.8625
2380.72652	36071.2625
2383.54009	35989.7625
2386.35187	35951.4625
2389.16188	35871.1625
2391.97011	35848.1625
2394.77657	35812.3625
2397.58125	35774.6625
2400.38416	35739.8625
2403.18529	35680.6625
2405.98466	35637.4625
2408.78226	35564.1625
2411.57809	35507.4625
2414.37216	35515.1625
2417.16446	35504.4625
2419.955	35461.4625
2422.74378	35466.8625
2425.5308	35422.1625
2428.31606	35338.5625
2431.09956	35326.8625
2433.88131	35290.6625
2436.6613	35328.3625
2439.43954	35293.3625
2442.21603	35269.6625
2444.99077	35239.3625
2447.76377	35271.4625
2450.53501	35261.3625
2453.30451	35281.3625
2456.07226	35232.2625
2458.83827	35248.1625
2461.60254	35235.7625
2464.36507	35225.5625
2467.12586	35232.9625
2469.88492	35228.2625
2472.64224	35189.6625
2475.39782	35271.9625
2478.15167	35273.1625
2480.90379	35270.9625
2483.65417	35215.2625
2486.40283	35235.3625
2489.14976	35233.7625
2491.89497	35211.0625
2494.63845	35303.3625
2497.3802	35221.4625
2500.12024	35287.1625
2502.85855	35298.3625
2505.59514	35320.4625
2508.33002	35322.1625
2511.06318	35289.5625
2513.79462	35287.1625
2516.52435	35288.9625
2519.25237	35279.6625
2521.97867	35198.2625
2524.70327	35221.3625
2527.42616	35154.4625
2530.14734	35189.3625
2532.86681	35137.5625
2535.58458	35130.6625
2538.30065	35082.2625
2541.01501	35117.1625
2543.72768	35067.0625
2546.43864	35048.9625
2549.14791	35006.1625
2551.85548	35053.5625
2554.56136	34946.6625
2557.26554	34935.4625
2559.96803	34890.5625
2562.66883	34868.0625
2565.36794	34910.4625
2568.06536	34956.3625
2570.7611	34879.0625
2573.45514	34805.9625
2576.14751	34814.7625
2578.83819	34787.5625
2581.52719	34809.7625
2584.21451	34727.0625
2586.90015	34736.0625
2589.58411	34704.4625
2592.2664	34694.8625
2594.94701	34660.3625
2597.62594	34721.5625
2600.30321	34623.3625
2602.9788	34629.0625
2605.65273	34633.3625
2608.32498	34628.6625
2610.99557	34571.8625
2613.66449	34608.7625
2616.33175	34548.2625
2618.99734	34572.6625
2621.66128	34538.2625
2624.32355	34567.4625
2626.98416	34505.5625
2629.64311	34445.7625
2632.30041	34463.2625
2634.95605	34442.2625
2637.61004	34423.0625
2640.26238	34424.0625
2642.91306	34425.9625
2645.56209	34437.5625
2648.20948	34430.5625
2650.85521	34400.2625
2653.4993	34382.5625
2656.14175	34405.4625
2658.78255	34475.5625
2661.42171	34426.7625
2664.05923	34501.3625
2666.6951	34541.3625
2669.32934	34561.2625
2671.96194	34544.8625
2674.59291	34554.0625
2677.22224	34508.6625
2679.84993	34563.4625
2682.476	34447.4625
2685.10043	34520.7625
2687.72324	34455.8625
2690.34441	34535.1625
2692.96396	34555.5625
2695.58188	34548.0625
2698.19818	34502.4625
2700.81285	34501.7625
2703.4259	34460.4625
2706.03733	34599.5625
2708.64714	34582.1625
2711.25533	34665.7625
2713.86191	34694.5625
2716.46687	34731.9625
2719.07021	34708.3625
2721.67194	34724.7625
2724.27206	34700.8625
2726.87057	34746.6625
2729.46747	34790.3625
2732.06276	34802.1625
2734.65644	34782.5625
2737.24852	34836.4625
2739.83899	34770.4625
2742.42786	34814.7625
2745.01513	34761.6625
2747.60079	34745.6625
2750.18486	34779.4625
2752.76733	34748.9625
2755.3482	34775.4625
2757.92747	34859.2625
2760.50515	34731.4625
2763.08123	34737.6625
2765.65573	34718.8625
2768.22863	34705.9625
2770.79994	34609.3625
2773.36967	34620.6625
2775.9378	34620.0625
2778.50435	34545.4625
2781.06932	34602.7625
2783.6327	34610.5625
2786.1945	34576.9625
2788.75471	34487.3625
2791.31335	34411.0625
2793.87041	34420.8625
2796.42589	34319.9625
2798.97979	34316.2625
2801.53212	34274.7625
2804.08288	34258.0625
2806.63206	34160.4625
2809.17967	34115.1625
2811.72571	34020.4625
2814.27018	33979.8625
2816.81308	33906.3625
2819.35442	33896.1625
2821.89419	33868.0625
2824.43239	33853.5625
2826.96904	33781.7625
2829.50412	33743.3625
2832.03763	33728.8625
2834.56959	33754.4625
2837.1	33644.6625
2839.62884	33587.0625
2842.15613	33596.7625
2844.68186	33549.5625
2847.20604	33512.7625
2849.72867	33490.2625
2852.24974	33472.7625
2854.76927	33421.5625
2857.28724	33424.0625
2859.80367	33374.3625
2862.31855	33344.9625
2864.83189	33307.1625
2867.34368	33272.8625
2869.85393	33312.3625
2872.36264	33273.6625
2874.8698	33232.4625
2877.37543	33262.5625
2879.87952	33253.7625
2882.38207	33232.7625
2884.88308	33266.3625
2887.38256	33298.7625
2889.88051	33273.2625
2892.37692	33310.9625
2894.8718	33315.3625
2897.36515	33375.1625
2899.85698	33363.3625
2902.34727	33428.1625
2904.83604	33445.0625
2907.32328	33450.3625
2909.809	33470.6625
2912.29319	33506.7625
2914.77587	33508.3625
2917.25702	33517.6625
2919.73665	33470.1625
2922.21476	33527.9625
2924.69136	33489.5625
2927.16644	33474.0625
2929.64	33420.0625
2932.11205	33405.1625
2934.58258	33229.0625
2937.05161	33380.6625
2939.51912	33397.7625
2941.98513	33383.5625
2944.44962	33270.5625
2946.91261	33186.6625
2949.37409	33306.9625
2951.83407	33262.8625
2954.29254	33168.4625
2956.74951	33099.3625
2959.20498	33110.0625
2961.65895	33089.2625
2964.11142	33099.2625
2966.56239	33017.1625
2969.01186	33042.1625
2971.45984	32900.0625
2973.90632	32879.5625
2976.35131	32837.4625
2978.7948	32783.3625
2981.23681	32744.8625
2983.67732	32703.0625
2986.11635	32620.9625
2988.55388	32572.5625
2990.98993	32445.5625
2993.4245	32426.3625
2995.85758	32284.7625
2998.28917	32280.3625
3000.71928	32218.4625
3003.14791	32084.2625
3005.57506	32073.2625
3008.00073	31993.4625
3010.42493	32014.7625
3012.84764	31928.4625
3015.26888	31954.1625
3017.68865	31825.2625
3020.10694	31841.1625
3022.52376	31784.3625
3024.9391	31729.8625
3027.35298	31740.5625
3029.76539	31684.6625
3032.17632	31692.2625
3034.5858	31571.7625
3036.9938	31590.6625
3039.40034	31517.0625
3041.80542	31491.8625
3044.20903	31378.7625
3046.61118	31426.3625
3049.01187	31357.5625
3051.4111	31299.0625
3053.80888	31220.8625
3056.20519	31161.8625
3058.60005	31119.7625
3060.99345	31059.1625
3063.3854	30989.0625
3065.7759	30881.4625
3068.16494	30847.1625
3070.55254	30736.6625
3072.93868	30727.7625
3075.32338	30589.5625
3077.70662	30543.2625
3080.08842	30476.7625
3082.46878	30497.4625
3084.84769	30385.3625
3087.22515	30294.8625
3089.60118	30359.8625
3091.97576	30343.0625
3094.3489	30285.8625
3096.72061	30272.7625
3099.09087	30272.1625
3101.4597	30205.5625
3103.82709	30170.7625
3106.19305	30104.8625
3108.55757	30076.5625
3110.92066	29940.9625
3113.28232	29913.0625
3115.64255	29848.8625
3118.00134	29806.6625
3120.35871	29803.8625
3122.71466	29750.1625
3125.06917	29706.4625
3127.42226	29648.7625
3129.77393	29645.9625
3132.12417	29606.8625
3134.47299	29576.2625
3136.82039	29587.7625
3139.16636	29576.1625
3141.51092	29509.9625
3143.85406	29508.4625
3146.19579	29513.9625
3148.53609	29474.5625
3150.87499	29499.5625
3153.21246	29479.8625
3155.54853	29472.9625
3157.88318	29461.8625
3160.21642	29450.5625
3162.54826	29420.6625
3164.87868	29387.4625
3167.2077	29312.2625
3169.5353	29314.3625
3171.86151	29272.8625
3174.18631	29230.4625
3176.5097	29222.5625
3178.83169	29144.7625
3181.15228	29112.7625
3183.47147	29135.5625
3185.78926	29112.0625
3188.10565	29066.8625
3190.42065	29023.5625
3192.73424	29030.3625
3195.04645	29054.3625
3197.35725	29031.3625
3199.66667	29006.4625
3201.97469	28995.5625
3204.28132	28927.6625
3206.58656	28965.6625
3208.8904	28901.8625
3211.19287	28935.9625
3213.49394	28883.4625
3215.79363	28892.9625
3218.09193	28903.3625
3220.38884	28893.4625
3222.68438	28931.1625
3224.97853	28895.7625
3227.2713	28886.4625
3229.56269	28813.8625
3231.8527	28792.9625
3234.14133	28712.1625
3236.42858	28707.3625
3238.71446	28676.4625
3240.99896	28619.4625
3243.28209	28620.8625
3245.56384	28563.5625
3247.84423	28601.6625
3250.12324	28527.8625
3252.40088	28462.7625
3254.67715	28426.2625
3256.95205	28379.6625
3259.22558	28361.3625
3261.49775	28242.5625
3263.76855	28245.6625
3266.03799	28123.7625
3268.30606	28146.2625
3270.57277	28064.7625
3272.83812	28026.3625
3275.10211	28053.5625
3277.36474	27996.9625
3279.62601	28032.9625
3281.88593	28008.8625
3284.14448	27997.6625
3286.40168	27965.7625
3288.65753	27914.9625
3290.91202	27882.0625
3293.16516	27821.4625
3295.41695	27741.5625
3297.66738	27590.3625
3299.91647	27446.4625
3302.16421	27304.1625
3304.4106	27200.3625
3306.65564	27084.5625
3308.89933	26876.0625
3311.14169	26707.4625
3313.38269	26425.4625
3315.62236	26325.9625
3317.86068	26100.7625
3320.09766	25817.5625
3322.3333	25628.2625
3324.5676	25649.9625
3326.80056	25218.9625
3329.03219	25080.1625
3331.26248	7.9625
3333.49143	0.1625
3335.71905	0.6625
