Data from AgNP_FTO_APTES_CRN_0uM_R6G_10uM_NaF_0.1M_Addition_RamanShift__72__12-53-42-988.txt Node

Date: Wed Dec 15 12:53:42 GMT 2021
User: TCL
Spectrometer: QEP01345
Trigger mode: 4
Integration Time (sec): 7.000000E0
Scans to average: 10
Electric dark correction enabled: true
Nonlinearity correction enabled: false
Boxcar width: 0
XAxis mode: Raman Shifts
Number of Pixels in Spectrum: 1044
>>>>>Begin Spectral Data<<<<<
46.04893	0.8625
50.45542	-3.0375
54.85868	-1.0375
59.25871	-0.1375
63.6555	126.4625
68.04907	135.0625
72.43941	144.0625
76.82654	151.7625
81.21044	151.6625
85.59113	161.6625
89.96862	166.5625
94.34289	169.8625
98.71396	178.7625
103.08183	184.0625
107.4465	190.6625
111.80798	190.6625
116.16626	194.8625
120.52136	195.0625
124.87327	204.2625
129.222	216.1625
133.56755	223.4625
137.90993	238.6625
142.24913	254.0625
146.58517	273.9625
150.91804	314.4625
155.24774	362.7625
159.57429	440.9625
163.89768	553.5625
168.21792	716.1625
172.53501	963.0625
176.84895	1315.2625
181.15975	1836.9625
185.46741	2569.5625
189.77193	3524.0625
194.07331	4706.0625
198.37157	6040.9625
202.6667	7441.6625
206.9587	8858.8625
211.24758	10252.5625
215.53334	11661.7625
219.81599	13175.7625
224.09553	14949.2625
228.37195	16893.8625
232.64527	18988.8625
236.91549	21166.7625
241.18261	23220.1625
245.44663	25000.8625
249.70755	26545.1625
253.96539	27821.7625
258.22014	28963.0625
262.4718	30037.0625
266.72039	30810.6625
270.96589	31266.6625
275.20832	31363.8625
279.44768	31150.9625
283.68397	30845.0625
287.91719	30572.7625
292.14735	30490.2625
296.37445	30687.8625
300.59849	31284.3625
304.81948	32036.9625
309.03742	32685.5625
313.25231	32582.6625
317.46415	31509.6625
321.67296	29865.6625
325.87872	28532.0625
330.08145	27907.4625
334.28114	27890.2625
338.47781	28247.5625
342.67145	28887.3625
346.86207	29796.1625
351.04966	31131.5625
355.23424	32569.9625
359.4158	33764.4625
363.59435	34471.3625
367.76989	34743.5625
371.94243	34725.6625
376.11196	34702.5625
380.27849	34678.7625
384.44203	34548.2625
388.60257	34409.4625
392.76012	34462.3625
396.91468	34920.5625
401.06626	35711.3625
405.21485	36451.1625
409.36047	36251.4625
413.50311	35144.7625
417.64277	34202.9625
421.77947	33729.6625
425.9132	33593.1625
430.04396	33774.3625
434.17176	33970.2625
438.2966	34409.7625
442.41849	35231.8625
446.53742	36315.4625
450.6534	37514.7625
454.76644	38365.3625
458.87653	38782.3625
462.98368	38538.9625
467.08789	37880.3625
471.18916	36876.3625
475.2875	35795.6625
479.38291	35072.4625
483.4754	34495.4625
487.56496	34032.6625
491.6516	33640.3625
495.73531	33379.3625
499.81612	33298.6625
503.89401	33537.0625
507.96899	33779.2625
512.04106	34035.4625
516.11023	34308.3625
520.1765	34529.7625
524.23987	34454.3625
528.30034	34114.8625
532.35792	33595.7625
536.41261	33032.3625
540.46441	32425.2625
544.51333	32143.6625
548.55936	32376.6625
552.60252	32933.4625
556.64279	33562.3625
560.6802	33895.8625
564.71473	34228.9625
568.7464	35243.5625
572.7752	36134.7625
576.80114	35916.9625
580.82422	35641.4625
584.84444	35782.2625
588.86181	36042.8625
592.87633	36537.9625
596.888	37334.2625
600.89682	38461.3625
604.9028	41488.6625
608.90594	48885.4625
612.90624	57200.7625
616.90371	54297.7625
620.89834	41777.2625
624.89015	36027.4625
628.87913	35008.1625
632.86528	34871.4625
636.84862	34702.2625
640.82913	34005.9625
644.80683	32769.9625
648.78172	32023.3625
652.75379	32140.5625
656.72306	33153.5625
660.68952	34342.6625
664.65319	34178.8625
668.61405	33094.3625
672.57211	32565.7625
676.52738	32463.6625
680.47986	32444.3625
684.42955	32317.4625
688.37646	32281.3625
692.32058	32406.7625
696.26192	32647.6625
700.20048	33113.5625
704.13626	33358.2625
708.06928	33205.8625
711.99952	32953.7625
715.927	32869.0625
719.85171	32857.7625
723.77365	32673.0625
727.69284	32336.5625
731.60928	32039.9625
735.52295	32052.9625
739.43388	32172.6625
743.34206	32492.9625
747.24749	32747.7625
751.15017	33138.4625
755.05012	33802.5625
758.94733	35080.4625
762.8418	37662.7625
766.73354	41965.1625
770.62254	46268.1625
774.50882	47944.3625
778.39237	45717.4625
782.27321	41056.9625
786.15132	36845.8625
790.02671	34307.1625
793.89938	33218.8625
797.76935	32803.9625
801.6366	32592.9625
805.50115	32365.6625
809.36299	32214.4625
813.22213	31997.0625
817.07857	32013.3625
820.93231	32053.0625
824.78336	32091.4625
828.63172	32282.3625
832.47738	32418.2625
836.32036	32532.5625
840.16066	32511.7625
843.99827	32578.5625
847.8332	32484.9625
851.66546	32232.1625
855.49504	32189.3625
859.32195	32110.9625
863.1462	31877.5625
866.96777	31696.5625
870.78668	31568.5625
874.60293	31694.4625
878.41652	31721.9625
882.22745	31897.9625
886.03573	32019.6625
889.84136	31950.5625
893.64433	31769.9625
897.44466	31662.5625
901.24235	31666.3625
905.0374	31678.4625
908.8298	31677.5625
912.61957	31685.7625
916.40671	31972.4625
920.19121	32412.6625
923.97308	32871.6625
927.75233	33264.5625
931.52895	33418.5625
935.30295	33003.2625
939.07433	32180.8625
942.84309	31681.5625
946.60924	31429.9625
950.37278	31203.9625
954.13371	30951.2625
957.89203	30704.5625
961.64774	30579.6625
965.40086	30475.9625
969.15137	30360.0625
972.89929	30311.4625
976.64461	30307.8625
980.38733	30380.1625
984.12747	30564.6625
987.86502	30863.0625
991.59999	31206.5625
995.33237	31956.8625
999.06217	33105.8625
1002.78939	34548.0625
1006.51404	35736.8625
1010.23611	36593.8625
1013.95561	37021.9625
1017.67255	36924.0625
1021.38692	36348.7625
1025.09872	36026.3625
1028.80796	36458.2625
1032.51465	37727.1625
1036.21877	38819.2625
1039.92035	38934.6625
1043.61937	38218.0625
1047.31584	36875.8625
1051.00976	35446.8625
1054.70114	34605.3625
1058.38998	34351.9625
1062.07627	34380.3625
1065.76003	34566.5625
1069.44126	34939.4625
1073.11995	35616.9625
1076.79611	36142.6625
1080.46974	36477.1625
1084.14085	36840.7625
1087.80943	37136.5625
1091.47549	37133.6625
1095.13903	36449.7625
1098.80005	35494.5625
1102.45857	34580.4625
1106.11456	34141.6625
1109.76805	34198.2625
1113.41903	34619.9625
1117.06751	35187.4625
1120.71348	35994.0625
1124.35696	36769.1625
1127.99793	37605.3625
1131.63641	37655.6625
1135.2724	36901.2625
1138.90589	35984.6625
1142.5369	35366.1625
1146.16542	34868.5625
1149.79145	34730.8625
1153.415	34864.1625
1157.03607	35272.8625
1160.65467	35860.4625
1164.27079	37057.9625
1167.88443	38799.4625
1171.49561	41443.0625
1175.10432	45596.4625
1178.71056	50972.5625
1182.31434	55489.5625
1185.91565	57654.4625
1189.51451	57257.8625
1193.11091	54566.9625
1196.70485	50956.4625
1200.29634	47848.4625
1203.88538	45566.3625
1207.47197	43481.7625
1211.05612	41906.6625
1214.63782	41166.7625
1218.21708	41126.8625
1221.79391	41419.4625
1225.36829	41727.1625
1228.94024	41740.2625
1232.50976	41543.8625
1236.07685	41361.3625
1239.6415	41216.4625
1243.20374	41239.1625
1246.76355	41394.2625
1250.32093	41916.2625
1253.8759	42998.3625
1257.42845	44402.0625
1260.97859	45670.1625
1264.52631	46735.8625
1268.07163	47774.6625
1271.61453	48925.3625
1275.15503	50216.6625
1278.69312	51507.1625
1282.22882	52607.0625
1285.76211	53820.0625
1289.29301	55262.9625
1292.82151	56612.9625
1296.34761	58160.1625
1299.87133	60510.8625
1303.39266	64127.5625
1306.9116	69343.0625
1310.42815	75435.3625
1313.94233	79628.6625
1317.45412	79684.4625
1320.96354	76687.8625
1324.47058	72840.0625
1327.97525	69554.2625
1331.47754	67493.8625
1334.97747	66977.5625
1338.47502	67363.5625
1341.97022	68069.8625
1345.46305	68409.0625
1348.95352	68973.5625
1352.44163	70185.7625
1355.92738	73422.1625
1359.41078	79705.2625
1362.89183	86296.1625
1366.37053	85525.4625
1369.84688	76184.6625
1373.32088	65870.3625
1376.79254	58877.9625
1380.26186	55359.5625
1383.72883	53731.1625
1387.19347	52579.8625
1390.65578	51352.7625
1394.11575	50587.8625
1397.57339	50625.1625
1401.0287	51475.4625
1404.48168	52671.4625
1407.93234	54091.6625
1411.38068	55265.7625
1414.82669	55217.6625
1418.27039	53924.7625
1421.71177	52007.8625
1425.15083	50286.7625
1428.58758	49401.7625
1432.02203	49391.1625
1435.45416	49672.8625
1438.88399	50174.8625
1442.31151	50401.6625
1445.73673	50752.2625
1449.15965	51080.9625
1452.58027	50996.3625
1455.9986	50568.1625
1459.41463	50361.5625
1462.82837	50642.0625
1466.23982	51539.6625
1469.64898	52554.5625
1473.05586	53202.0625
1476.46045	53739.6625
1479.86276	54475.9625
1483.26279	55299.2625
1486.66054	56342.9625
1490.05602	57565.7625
1493.44922	59019.2625
1496.84016	60513.0625
1500.22882	62504.6625
1503.61521	65388.8625
1506.99934	69118.4625
1510.38121	73318.4625
1513.76081	75800.6625
1517.13816	74428.6625
1520.51324	69418.9625
1523.88607	63632.2625
1527.25665	59424.8625
1530.62498	56843.2625
1533.99105	55288.0625
1537.35488	54270.2625
1540.71647	53613.3625
1544.07581	53155.8625
1547.4329	52654.7625
1550.78776	52005.1625
1554.14038	51540.0625
1557.49077	51378.8625
1560.83892	51621.9625
1564.18484	52026.6625
1567.52853	52360.6625
1570.86999	52685.7625
1574.20922	53263.3625
1577.54624	53636.5625
1580.88103	52977.5625
1584.2136	52075.1625
1587.54395	52256.9625
1590.87208	54236.6625
1594.19801	57911.3625
1597.52172	62269.1625
1600.84321	64241.3625
1604.16251	62182.6625
1607.47959	57474.7625
1610.79447	52076.9625
1614.10715	47304.0625
1617.41763	43748.4625
1620.7259	41622.5625
1624.03199	40682.0625
1627.33587	40867.6625
1630.63757	42164.7625
1633.93707	44416.7625
1637.23439	47690.5625
1640.52951	51769.9625
1643.82246	56124.3625
1647.11321	60033.8625
1650.40179	61706.2625
1653.68819	59212.9625
1656.97241	52584.4625
1660.25446	45275.9625
1663.53433	39923.6625
1666.81203	36603.5625
1670.08756	34537.3625
1673.36092	33339.8625
1676.63211	32529.0625
1679.90115	31982.2625
1683.16801	31538.5625
1686.43272	31273.2625
1689.69527	31042.3625
1692.95567	30924.4625
1696.2139	30784.7625
1699.46999	30715.4625
1702.72392	30655.1625
1705.97571	30659.9625
1709.22535	30682.4625
1712.47284	30659.0625
1715.71819	30618.7625
1718.96139	30596.1625
1722.20246	30520.2625
1725.44139	30434.4625
1728.67818	30279.1625
1731.91284	30098.0625
1735.14537	29949.9625
1738.37576	29862.9625
1741.60403	29717.4625
1744.83017	29648.8625
1748.05418	29592.8625
1751.27607	29515.4625
1754.49584	29465.4625
1757.71349	29454.9625
1760.92903	29431.5625
1764.14244	29392.8625
1767.35375	29407.3625
1770.56294	29306.6625
1773.77002	29357.0625
1776.97499	29301.7625
1780.17785	29249.4625
1783.37861	29238.5625
1786.57727	29216.5625
1789.77382	29179.7625
1792.96828	29168.5625
1796.16064	29146.3625
1799.3509	29120.1625
1802.53907	29113.1625
1805.72514	29004.5625
1808.90913	28954.8625
1812.09102	28927.4625
1815.27083	28843.3625
1818.44856	28825.1625
1821.6242	28813.1625
1824.79776	28731.3625
1827.96924	28714.6625
1831.13864	28719.1625
1834.30597	28763.1625
1837.47122	28744.0625
1840.6344	28679.5625
1843.7955	28716.9625
1846.95454	28741.0625
1850.11151	28742.8625
1853.26642	28764.3625
1856.41926	28724.4625
1859.57004	28770.3625
1862.71876	28747.4625
1865.86542	28759.0625
1869.01003	28742.2625
1872.15258	28818.5625
1875.29308	28842.6625
1878.43152	28840.3625
1881.56792	28873.8625
1884.70227	28937.9625
1887.83457	28887.2625
1890.96482	28889.0625
1894.09304	28884.7625
1897.21921	28908.7625
1900.34335	28864.2625
1903.46544	28878.3625
1906.58551	28914.8625
1909.70353	28921.6625
1912.81953	28887.8625
1915.93349	28856.5625
1919.04543	28777.0625
1922.15534	28769.7625
1925.26322	28722.2625
1928.36908	28659.3625
1931.47292	28535.5625
1934.57473	28409.3625
1937.67453	28364.8625
1940.77232	28267.1625
1943.86808	28149.2625
1946.96184	28057.4625
1950.05358	27961.2625
1953.14331	27855.3625
1956.23103	27728.2625
1959.31675	27686.5625
1962.40046	27605.0625
1965.48217	27521.5625
1968.56188	27455.5625
1971.63959	27361.0625
1974.7153	27310.8625
1977.78901	27209.2625
1980.86073	27129.1625
1983.93046	27023.1625
1986.99819	26925.6625
1990.06394	26836.7625
1993.1277	26754.0625
1996.18947	26670.9625
1999.24925	26611.2625
2002.30706	26550.0625
2005.36288	26490.9625
2008.41672	26463.5625
2011.46859	26303.4625
2014.51848	26242.5625
2017.56639	26233.5625
2020.61233	26138.3625
2023.6563	26078.7625
2026.6983	26002.0625
2029.73833	26015.6625
2032.7764	25922.4625
2035.8125	25888.8625
2038.84664	25847.5625
2041.87881	25852.3625
2044.90903	25807.1625
2047.93729	25702.8625
2050.96359	25704.7625
2053.98794	25640.7625
2057.01034	25644.1625
2060.03078	25599.9625
2063.04927	25574.2625
2066.06582	25590.5625
2069.08042	25551.3625
2072.09307	25523.4625
2075.10378	25472.5625
2078.11255	25452.8625
2081.11938	25477.8625
2084.12426	25434.2625
2087.12722	25390.5625
2090.12824	25368.3625
2093.12732	25372.3625
2096.12447	25370.0625
2099.11969	25335.0625
2102.11299	25364.8625
2105.10435	25328.9625
2108.09379	25383.6625
2111.08131	25372.8625
2114.0669	25397.2625
2117.05057	25341.2625
2120.03233	25385.6625
2123.01216	25386.1625
2125.99008	25408.3625
2128.96609	25431.3625
2131.94018	25395.3625
2134.91236	25448.5625
2137.88263	25481.2625
2140.851	25501.3625
2143.81746	25526.4625
2146.78201	25493.1625
2149.74466	25491.2625
2152.7054	25476.9625
2155.66425	25496.5625
2158.6212	25467.7625
2161.57625	25480.3625
2164.52941	25488.6625
2167.48067	25458.0625
2170.43004	25471.2625
2173.37752	25469.5625
2176.32311	25408.4625
2179.26681	25428.6625
2182.20863	25441.8625
2185.14856	25505.1625
2188.08661	25503.2625
2191.02278	25457.4625
2193.95707	25443.3625
2196.88948	25468.0625
2199.82001	25515.0625
2202.74867	25501.0625
2205.67545	25489.9625
2208.60037	25446.2625
2211.52341	25448.3625
2214.44458	25400.7625
2217.36388	25387.1625
2220.28132	25374.6625
2223.1969	25314.3625
2226.11061	25288.6625
2229.02246	25206.3625
2231.93245	25130.5625
2234.84058	25106.5625
2237.74686	25057.8625
2240.65128	25034.3625
2243.55385	25008.7625
2246.45456	24956.4625
2249.35343	24947.6625
2252.25044	24926.8625
2255.14561	24889.5625
2258.03893	24845.7625
2260.93041	24849.2625
2263.82004	24787.1625
2266.70783	24704.8625
2269.59378	24627.8625
2272.4779	24594.8625
2275.36017	24482.2625
2278.24061	24478.2625
2281.11922	24403.4625
2283.996	24349.7625
2286.87094	24345.8625
2289.74405	24282.3625
2292.61534	24259.0625
2295.4848	24247.7625
2298.35243	24277.8625
2301.21824	24279.5625
2304.08223	24293.0625
2306.94439	24305.7625
2309.80474	24316.1625
2312.66327	24327.8625
2315.51999	24324.4625
2318.37489	24353.5625
2321.22797	24311.7625
2324.07925	24323.9625
2326.92871	24262.7625
2329.77637	24283.2625
2332.62222	24242.8625
2335.46626	24228.7625
2338.3085	24269.2625
2341.14893	24292.2625
2343.98756	24318.0625
2346.8244	24283.4625
2349.65943	24302.5625
2352.49267	24275.0625
2355.32411	24285.1625
2358.15376	24240.6625
2360.98161	24236.3625
2363.80768	24209.9625
2366.63195	24185.3625
2369.45444	24165.0625
2372.27514	24057.1625
2375.09405	23992.6625
2377.91118	23972.1625
2380.72652	23882.3625
2383.54009	23800.7625
2386.35187	23815.6625
2389.16188	23725.4625
2391.97011	23729.2625
2394.77657	23721.0625
2397.58125	23636.9625
2400.38416	23569.0625
2403.18529	23540.2625
2405.98466	23486.6625
2408.78226	23430.2625
2411.57809	23394.3625
2414.37216	23287.2625
2417.16446	23270.7625
2419.955	23225.2625
2422.74378	23234.6625
2425.5308	23165.8625
2428.31606	23184.4625
2431.09956	23111.1625
2433.88131	23107.0625
2436.6613	23095.5625
2439.43954	23079.3625
2442.21603	23090.6625
2444.99077	23040.3625
2447.76377	23043.3625
2450.53501	23007.4625
2453.30451	23008.3625
2456.07226	23006.4625
2458.83827	23006.3625
2461.60254	23009.9625
2464.36507	23030.1625
2467.12586	22967.5625
2469.88492	22969.5625
2472.64224	23028.7625
2475.39782	22997.9625
2478.15167	23048.7625
2480.90379	23033.6625
2483.65417	23049.3625
2486.40283	23083.5625
2489.14976	23095.8625
2491.89497	23058.6625
2494.63845	23119.6625
2497.3802	23104.9625
2500.12024	23149.7625
2502.85855	23110.1625
2505.59514	23109.2625
2508.33002	23054.9625
2511.06318	22988.7625
2513.79462	22978.2625
2516.52435	22929.5625
2519.25237	22864.1625
2521.97867	22838.9625
2524.70327	22836.3625
2527.42616	22841.6625
2530.14734	22823.1625
2532.86681	22811.4625
2535.58458	22809.9625
2538.30065	22732.2625
2541.01501	22763.7625
2543.72768	22745.0625
2546.43864	22754.4625
2549.14791	22668.2625
2551.85548	22714.9625
2554.56136	22684.8625
2557.26554	22636.3625
2559.96803	22647.7625
2562.66883	22599.0625
2565.36794	22580.0625
2568.06536	22550.3625
2570.7611	22547.8625
2573.45514	22518.3625
2576.14751	22545.0625
2578.83819	22511.6625
2581.52719	22540.2625
2584.21451	22479.9625
2586.90015	22469.6625
2589.58411	22464.4625
2592.2664	22409.5625
2594.94701	22402.2625
2597.62594	22428.7625
2600.30321	22366.7625
2602.9788	22361.5625
2605.65273	22372.6625
2608.32498	22375.7625
2610.99557	22362.2625
2613.66449	22415.1625
2616.33175	22375.1625
2618.99734	22387.6625
2621.66128	22391.5625
2624.32355	22415.1625
2626.98416	22430.6625
2629.64311	22428.0625
2632.30041	22372.7625
2634.95605	22378.4625
2637.61004	22352.7625
2640.26238	22338.9625
2642.91306	22285.1625
2645.56209	22243.6625
2648.20948	22195.9625
2650.85521	22177.6625
2653.4993	22186.8625
2656.14175	22178.1625
2658.78255	22197.0625
2661.42171	22200.9625
2664.05923	22239.6625
2666.6951	22226.5625
2669.32934	22282.0625
2671.96194	22289.0625
2674.59291	22272.3625
2677.22224	22293.2625
2679.84993	22291.9625
2682.476	22266.5625
2685.10043	22265.6625
2687.72324	22219.8625
2690.34441	22260.0625
2692.96396	22247.2625
2695.58188	22259.0625
2698.19818	22213.1625
2700.81285	22203.9625
2703.4259	22183.6625
2706.03733	22225.3625
2708.64714	22207.1625
2711.25533	22193.5625
2713.86191	22208.2625
2716.46687	22240.7625
2719.07021	22186.6625
2721.67194	22186.9625
2724.27206	22176.1625
2726.87057	22194.7625
2729.46747	22226.9625
2732.06276	22251.1625
2734.65644	22183.1625
2737.24852	22216.4625
2739.83899	22210.6625
2742.42786	22226.9625
2745.01513	22179.4625
2747.60079	22213.6625
2750.18486	22153.5625
2752.76733	22176.4625
2755.3482	22144.7625
2757.92747	22186.2625
2760.50515	22145.3625
2763.08123	22149.6625
2765.65573	22106.6625
2768.22863	22106.4625
2770.79994	22104.6625
2773.36967	22098.5625
2775.9378	22046.4625
2778.50435	22033.5625
2781.06932	22036.9625
2783.6327	22065.0625
2786.1945	22020.6625
2788.75471	22029.1625
2791.31335	21950.7625
2793.87041	21949.1625
2796.42589	21888.2625
2798.97979	21867.2625
2801.53212	21826.0625
2804.08288	21786.2625
2806.63206	21747.4625
2809.17967	21728.6625
2811.72571	21706.2625
2814.27018	21728.4625
2816.81308	21711.3625
2819.35442	21723.3625
2821.89419	21692.8625
2824.43239	21721.9625
2826.96904	21729.8625
2829.50412	21735.7625
2832.03763	21736.2625
2834.56959	21698.6625
2837.1	21673.5625
2839.62884	21682.7625
2842.15613	21658.6625
2844.68186	21654.3625
2847.20604	21701.2625
2849.72867	21680.3625
2852.24974	21677.2625
2854.76927	21632.7625
2857.28724	21622.6625
2859.80367	21601.7625
2862.31855	21602.1625
2864.83189	21557.9625
2867.34368	21543.6625
2869.85393	21568.7625
2872.36264	21494.6625
2874.8698	21475.1625
2877.37543	21527.6625
2879.87952	21520.5625
2882.38207	21517.9625
2884.88308	21511.6625
2887.38256	21515.1625
2889.88051	21508.9625
2892.37692	21514.1625
2894.8718	21524.1625
2897.36515	21481.4625
2899.85698	21509.4625
2902.34727	21530.6625
2904.83604	21544.4625
2907.32328	21553.1625
2909.809	21539.0625
2912.29319	21542.5625
2914.77587	21499.2625
2917.25702	21514.3625
2919.73665	21488.2625
2922.21476	21463.1625
2924.69136	21445.6625
2927.16644	21432.8625
2929.64	21413.4625
2932.11205	21358.2625
2934.58258	21282.4625
2937.05161	21322.7625
2939.51912	21336.0625
2941.98513	21293.1625
2944.44962	21222.3625
2946.91261	21092.2625
2949.37409	21117.9625
2951.83407	21075.3625
2954.29254	21068.5625
2956.74951	21019.6625
2959.20498	21035.1625
2961.65895	20971.5625
2964.11142	20957.8625
2966.56239	20875.9625
2969.01186	20827.4625
2971.45984	20760.8625
2973.90632	20716.1625
2976.35131	20686.7625
2978.7948	20629.2625
2981.23681	20576.9625
2983.67732	20519.8625
2986.11635	20490.7625
2988.55388	20404.1625
2990.98993	20354.0625
2993.4245	20346.0625
2995.85758	20257.0625
2998.28917	20229.1625
3000.71928	20197.2625
3003.14791	20101.4625
3005.57506	20113.7625
3008.00073	20046.5625
3010.42493	20036.3625
3012.84764	20055.8625
3015.26888	20013.8625
3017.68865	19961.2625
3020.10694	19922.9625
3022.52376	19862.0625
3024.9391	19823.2625
3027.35298	19812.1625
3029.76539	19752.1625
3032.17632	19722.8625
3034.5858	19687.8625
3036.9938	19655.1625
3039.40034	19638.2625
3041.80542	19618.1625
3044.20903	19571.5625
3046.61118	19551.4625
3049.01187	19505.4625
3051.4111	19487.8625
3053.80888	19393.9625
3056.20519	19350.0625
3058.60005	19293.2625
3060.99345	19261.9625
3063.3854	19208.6625
3065.7759	19152.0625
3068.16494	19132.7625
3070.55254	19031.7625
3072.93868	18991.8625
3075.32338	18920.3625
3077.70662	18853.7625
3080.08842	18810.5625
3082.46878	18812.8625
3084.84769	18728.4625
3087.22515	18721.2625
3089.60118	18747.8625
3091.97576	18714.9625
3094.3489	18692.2625
3096.72061	18677.0625
3099.09087	18657.4625
3101.4597	18620.2625
3103.82709	18586.8625
3106.19305	18529.4625
3108.55757	18553.0625
3110.92066	18489.5625
3113.28232	18456.8625
3115.64255	18414.7625
3118.00134	18340.8625
3120.35871	18325.3625
3122.71466	18246.6625
3125.06917	18258.5625
3127.42226	18192.4625
3129.77393	18217.1625
3132.12417	18214.4625
3134.47299	18178.2625
3136.82039	18189.3625
3139.16636	18177.4625
3141.51092	18149.8625
3143.85406	18158.2625
3146.19579	18128.0625
3148.53609	18116.0625
3150.87499	18100.5625
3153.21246	18117.2625
3155.54853	18126.8625
3157.88318	18049.6625
3160.21642	18066.0625
3162.54826	18017.5625
3164.87868	18023.1625
3167.2077	18001.6625
3169.5353	18009.7625
3171.86151	17989.2625
3174.18631	17955.5625
3176.5097	17950.7625
3178.83169	17902.1625
3181.15228	17913.1625
3183.47147	17850.8625
3185.78926	17845.8625
3188.10565	17814.8625
3190.42065	17877.5625
3192.73424	17834.2625
3195.04645	17842.0625
3197.35725	17840.1625
3199.66667	17804.1625
3201.97469	17807.7625
3204.28132	17795.7625
3206.58656	17836.5625
3208.8904	17805.3625
3211.19287	17791.5625
3213.49394	17795.9625
3215.79363	17793.6625
3218.09193	17791.6625
3220.38884	17760.9625
3222.68438	17762.6625
3224.97853	17731.3625
3227.2713	17745.3625
3229.56269	17693.5625
3231.8527	17725.7625
3234.14133	17675.2625
3236.42858	17610.7625
3238.71446	17631.0625
3240.99896	17580.7625
3243.28209	17562.7625
3245.56384	17511.3625
3247.84423	17537.7625
3250.12324	17506.7625
3252.40088	17506.2625
3254.67715	17463.4625
3256.95205	17448.5625
3259.22558	17434.6625
3261.49775	17415.8625
3263.76855	17365.6625
3266.03799	17323.2625
3268.30606	17299.5625
3270.57277	17294.3625
3272.83812	17256.7625
3275.10211	17267.5625
3277.36474	17250.5625
3279.62601	17214.4625
3281.88593	17214.2625
3284.14448	17200.5625
3286.40168	17199.8625
3288.65753	17166.6625
3290.91202	17142.9625
3293.16516	17099.9625
3295.41695	17068.4625
3297.66738	16963.4625
3299.91647	16890.6625
3302.16421	16770.4625
3304.4106	16718.1625
3306.65564	16651.3625
3308.89933	16524.2625
3311.14169	16432.2625
3313.38269	16318.8625
3315.62236	16219.5625
3317.86068	16062.7625
3320.09766	15925.3625
3322.3333	15770.8625
3324.5676	15797.4625
3326.80056	15531.9625
3329.03219	15461.7625
3331.26248	5.4625
3333.49143	-1.4375
3335.71905	-0.6375
