Data from AgNP_FTO_APTES_CRN_0uM_R6G_10uM_NaF_0.1M_Addition_RamanShift__57__12-36-12-968.txt Node

Date: Wed Dec 15 12:36:12 GMT 2021
User: TCL
Spectrometer: QEP01345
Trigger mode: 4
Integration Time (sec): 7.000000E0
Scans to average: 10
Electric dark correction enabled: true
Nonlinearity correction enabled: false
Boxcar width: 0
XAxis mode: Raman Shifts
Number of Pixels in Spectrum: 1044
>>>>>Begin Spectral Data<<<<<
46.04893	-0.4375
50.45542	-2.7375
54.85868	-0.5375
59.25871	-1.7375
63.6555	147.5625
68.04907	153.8625
72.43941	161.4625
76.82654	167.8625
81.21044	173.2625
85.59113	180.5625
89.96862	187.4625
94.34289	189.3625
98.71396	197.4625
103.08183	207.4625
107.4465	210.0625
111.80798	214.6625
116.16626	219.7625
120.52136	226.2625
124.87327	234.7625
129.222	240.8625
133.56755	259.4625
137.90993	272.7625
142.24913	299.0625
146.58517	331.0625
150.91804	378.6625
155.24774	444.2625
159.57429	547.1625
163.89768	689.6625
168.21792	902.3625
172.53501	1228.2625
176.84895	1695.2625
181.15975	2376.8625
185.46741	3305.6625
189.77193	4559.5625
194.07331	6101.0625
198.37157	7852.4625
202.6667	9684.5625
206.9587	11501.8625
211.24758	13326.4625
215.53334	15093.6625
219.81599	16988.8625
224.09553	19115.6625
228.37195	21455.2625
232.64527	24073.5625
236.91549	26749.2625
241.18261	29484.1625
245.44663	31988.3625
249.70755	34284.3625
253.96539	36226.6625
258.22014	37950.6625
262.4718	39258.3625
266.72039	40278.8625
270.96589	40760.6625
275.20832	40816.6625
279.44768	40528.3625
283.68397	40093.3625
287.91719	39650.3625
292.14735	39363.6625
296.37445	39203.8625
300.59849	39286.2625
304.81948	39480.3625
309.03742	39582.1625
313.25231	39412.6625
317.46415	38665.9625
321.67296	37707.2625
325.87872	36917.7625
330.08145	36524.1625
334.28114	36618.0625
338.47781	36999.6625
342.67145	37473.8625
346.86207	38173.0625
351.04966	39031.1625
355.23424	40009.1625
359.4158	40877.5625
363.59435	41488.1625
367.76989	41805.4625
371.94243	42008.5625
376.11196	42087.9625
380.27849	42241.3625
384.44203	42346.6625
388.60257	42566.2625
392.76012	42874.9625
396.91468	43332.0625
401.06626	44203.1625
405.21485	44750.9625
409.36047	44745.0625
413.50311	44144.5625
417.64277	43700.3625
421.77947	43638.2625
425.9132	43730.0625
430.04396	43944.4625
434.17176	44143.1625
438.2966	44485.0625
442.41849	45130.6625
446.53742	46138.9625
450.6534	47273.4625
454.76644	48153.0625
458.87653	48531.8625
462.98368	48401.5625
467.08789	47926.7625
471.18916	47245.7625
475.2875	46498.1625
479.38291	46017.7625
483.4754	45675.5625
487.56496	45388.7625
491.6516	44938.7625
495.73531	44584.2625
499.81612	44498.2625
503.89401	44731.1625
507.96899	44984.2625
512.04106	45036.0625
516.11023	44978.9625
520.1765	44808.3625
524.23987	44624.3625
528.30034	44292.5625
532.35792	43937.8625
536.41261	43397.4625
540.46441	42948.1625
544.51333	42742.0625
548.55936	43182.2625
552.60252	43788.7625
556.64279	44545.4625
560.6802	45021.9625
564.71473	45330.7625
568.7464	46084.8625
572.7752	47031.0625
576.80114	47730.9625
580.82422	48557.1625
584.84444	49520.8625
588.86181	50311.5625
592.87633	51185.0625
596.888	51776.4625
600.89682	52116.1625
604.9028	53803.6625
608.90594	58121.1625
612.90624	62050.3625
616.90371	58517.7625
620.89834	49980.7625
624.89015	46184.9625
628.87913	45702.2625
632.86528	45754.2625
636.84862	45644.5625
640.82913	44909.7625
644.80683	43773.9625
648.78172	42984.6625
652.75379	42922.5625
656.72306	43534.0625
660.68952	44307.4625
664.65319	44110.5625
668.61405	43377.6625
672.57211	43087.2625
676.52738	43093.2625
680.47986	43029.2625
684.42955	42869.4625
688.37646	42739.5625
692.32058	42950.2625
696.26192	43391.3625
700.20048	43922.6625
704.13626	44267.0625
708.06928	44213.1625
711.99952	44029.6625
715.927	43974.4625
719.85171	44091.4625
723.77365	43870.0625
727.69284	43370.2625
731.60928	42921.6625
735.52295	42736.3625
739.43388	42790.7625
743.34206	42915.6625
747.24749	43146.7625
751.15017	43575.2625
755.05012	44213.4625
758.94733	45335.3625
762.8418	47340.1625
766.73354	50525.1625
770.62254	53527.8625
774.50882	54297.3625
778.39237	52221.5625
782.27321	48833.6625
786.15132	46002.3625
790.02671	44244.5625
793.89938	43449.0625
797.76935	43106.1625
801.6366	42999.5625
805.50115	42859.1625
809.36299	42623.9625
813.22213	42419.3625
817.07857	42298.7625
820.93231	42223.3625
824.78336	42141.9625
828.63172	42149.1625
832.47738	42187.8625
836.32036	42333.2625
840.16066	42491.5625
843.99827	42585.4625
847.8332	42591.8625
851.66546	42427.8625
855.49504	42429.5625
859.32195	42482.2625
863.1462	42347.3625
866.96777	42194.4625
870.78668	42159.4625
874.60293	42168.3625
878.41652	42194.2625
882.22745	42304.5625
886.03573	42486.8625
889.84136	42497.2625
893.64433	42328.9625
897.44466	42184.4625
901.24235	42109.9625
905.0374	42100.1625
908.8298	42041.8625
912.61957	42123.8625
916.40671	42487.1625
920.19121	42974.0625
923.97308	43517.3625
927.75233	43775.0625
931.52895	43620.1625
935.30295	43030.3625
939.07433	42370.1625
942.84309	41856.9625
946.60924	41620.9625
950.37278	41497.3625
954.13371	41381.5625
957.89203	41272.4625
961.64774	41122.1625
965.40086	40976.3625
969.15137	40864.6625
972.89929	40852.4625
976.64461	40798.2625
980.38733	40917.5625
984.12747	41129.5625
987.86502	41548.5625
991.59999	42134.2625
995.33237	42799.1625
999.06217	43778.3625
1002.78939	44961.8625
1006.51404	45913.6625
1010.23611	46606.3625
1013.95561	46973.3625
1017.67255	46799.0625
1021.38692	46072.7625
1025.09872	45467.9625
1028.80796	45552.0625
1032.51465	46411.4625
1036.21877	47324.9625
1039.92035	47534.1625
1043.61937	47135.8625
1047.31584	46271.7625
1051.00976	45359.0625
1054.70114	44998.0625
1058.38998	44978.9625
1062.07627	45372.7625
1065.76003	46001.2625
1069.44126	46787.3625
1073.11995	47885.5625
1076.79611	48730.4625
1080.46974	49094.2625
1084.14085	49095.9625
1087.80943	49231.9625
1091.47549	49333.3625
1095.13903	49113.8625
1098.80005	48426.5625
1102.45857	47393.4625
1106.11456	46543.9625
1109.76805	46180.2625
1113.41903	46184.6625
1117.06751	46331.0625
1120.71348	46654.3625
1124.35696	47012.6625
1127.99793	47432.6625
1131.63641	47644.9625
1135.2724	47498.3625
1138.90589	47216.0625
1142.5369	47039.9625
1146.16542	46947.1625
1149.79145	46968.0625
1153.415	47142.8625
1157.03607	47552.2625
1160.65467	48346.7625
1164.27079	49975.1625
1167.88443	52110.0625
1171.49561	54886.0625
1175.10432	58467.4625
1178.71056	63023.0625
1182.31434	67204.9625
1185.91565	69338.9625
1189.51451	69105.7625
1193.11091	67021.5625
1196.70485	64262.7625
1200.29634	61714.7625
1203.88538	59875.6625
1207.47197	58530.0625
1211.05612	57685.7625
1214.63782	56924.2625
1218.21708	56426.2625
1221.79391	55935.0625
1225.36829	55705.7625
1228.94024	55246.2625
1232.50976	54600.0625
1236.07685	54011.3625
1239.6415	53686.5625
1243.20374	53615.5625
1246.76355	53881.3625
1250.32093	54616.1625
1253.8759	55631.3625
1257.42845	57117.3625
1260.97859	58554.1625
1264.52631	59976.5625
1268.07163	61379.7625
1271.61453	62952.4625
1275.15503	64584.5625
1278.69312	66336.0625
1282.22882	67799.4625
1285.76211	69382.3625
1289.29301	71042.7625
1292.82151	72908.2625
1296.34761	75218.1625
1299.87133	78443.1625
1303.39266	82427.5625
1306.9116	87001.9625
1310.42815	91425.4625
1313.94233	94243.4625
1317.45412	94527.5625
1320.96354	93114.2625
1324.47058	91183.8625
1327.97525	89520.2625
1331.47754	88305.4625
1334.97747	87588.8625
1338.47502	87165.7625
1341.97022	86428.3625
1345.46305	85166.3625
1348.95352	83829.7625
1352.44163	83400.0625
1355.92738	84931.2625
1359.41078	88684.7625
1362.89183	92441.5625
1366.37053	91898.0625
1369.84688	85515.7625
1373.32088	77429.4625
1376.79254	71426.6625
1380.26186	68647.5625
1383.72883	67867.2625
1387.19347	67327.0625
1390.65578	66318.5625
1394.11575	65648.7625
1397.57339	65872.6625
1401.0287	66860.2625
1404.48168	68070.8625
1407.93234	68627.4625
1411.38068	68465.1625
1414.82669	67113.8625
1418.27039	64979.9625
1421.71177	62735.8625
1425.15083	60826.1625
1428.58758	59912.8625
1432.02203	60224.4625
1435.45416	61299.4625
1438.88399	62580.4625
1442.31151	63841.5625
1445.73673	64629.2625
1449.15965	65252.9625
1452.58027	65551.1625
1455.9986	65385.6625
1459.41463	65546.8625
1462.82837	66448.9625
1466.23982	67873.4625
1469.64898	69125.8625
1473.05586	69706.4625
1476.46045	69942.3625
1479.86276	69847.6625
1483.26279	69472.1625
1486.66054	69245.0625
1490.05602	69455.7625
1493.44922	70035.1625
1496.84016	70694.1625
1500.22882	71874.2625
1503.61521	73684.1625
1506.99934	75981.0625
1510.38121	78095.1625
1513.76081	78862.0625
1517.13816	77444.3625
1520.51324	74563.8625
1523.88607	71673.4625
1527.25665	69814.3625
1530.62498	68871.0625
1533.99105	68219.1625
1537.35488	67593.5625
1540.71647	66896.4625
1544.07581	65977.3625
1547.4329	65004.0625
1550.78776	64082.3625
1554.14038	63353.6625
1557.49077	63008.3625
1560.83892	62790.3625
1564.18484	62849.5625
1567.52853	63105.4625
1570.86999	63703.8625
1574.20922	64745.4625
1577.54624	65863.8625
1580.88103	66341.5625
1584.2136	66643.5625
1587.54395	67907.5625
1590.87208	70328.3625
1594.19801	73860.7625
1597.52172	77669.1625
1600.84321	78823.4625
1604.16251	75664.2625
1607.47959	69979.9625
1610.79447	64143.9625
1614.10715	59158.0625
1617.41763	55227.3625
1620.7259	52576.3625
1624.03199	51391.8625
1627.33587	51408.5625
1630.63757	52745.9625
1633.93707	55562.2625
1637.23439	60177.5625
1640.52951	66309.5625
1643.82246	73404.5625
1647.11321	78673.9625
1650.40179	79352.7625
1653.68819	74479.7625
1656.97241	66019.9625
1660.25446	57525.9625
1663.53433	51305.8625
1666.81203	47307.5625
1670.08756	44823.3625
1673.36092	43319.0625
1676.63211	42253.9625
1679.90115	41468.9625
1683.16801	40935.8625
1686.43272	40548.1625
1689.69527	40288.5625
1692.95567	40102.0625
1696.2139	39923.0625
1699.46999	39791.5625
1702.72392	39744.7625
1705.97571	39651.0625
1709.22535	39586.7625
1712.47284	39549.0625
1715.71819	39512.2625
1718.96139	39375.9625
1722.20246	39314.9625
1725.44139	39198.2625
1728.67818	39026.2625
1731.91284	38790.6625
1735.14537	38601.8625
1738.37576	38462.9625
1741.60403	38332.1625
1744.83017	38223.7625
1748.05418	38146.5625
1751.27607	38050.0625
1754.49584	37965.2625
1757.71349	37917.3625
1760.92903	37907.8625
1764.14244	37840.8625
1767.35375	37876.0625
1770.56294	37824.9625
1773.77002	37795.3625
1776.97499	37784.0625
1780.17785	37774.2625
1783.37861	37716.8625
1786.57727	37644.8625
1789.77382	37603.6625
1792.96828	37533.4625
1796.16064	37443.1625
1799.3509	37417.5625
1802.53907	37355.6625
1805.72514	37232.3625
1808.90913	37133.9625
1812.09102	37109.9625
1815.27083	37046.7625
1818.44856	36969.2625
1821.6242	36936.3625
1824.79776	36963.0625
1827.96924	36956.9625
1831.13864	36886.8625
1834.30597	36938.2625
1837.47122	36969.8625
1840.6344	36901.5625
1843.7955	36919.6625
1846.95454	36917.0625
1850.11151	36883.4625
1853.26642	36824.0625
1856.41926	36843.4625
1859.57004	36831.6625
1862.71876	36828.2625
1865.86542	36755.1625
1869.01003	36752.7625
1872.15258	36777.6625
1875.29308	36763.2625
1878.43152	36678.6625
1881.56792	36687.3625
1884.70227	36684.4625
1887.83457	36705.7625
1890.96482	36638.9625
1894.09304	36613.3625
1897.21921	36646.0625
1900.34335	36595.6625
1903.46544	36630.5625
1906.58551	36553.2625
1909.70353	36542.7625
1912.81953	36560.7625
1915.93349	36427.4625
1919.04543	36349.8625
1922.15534	36268.4625
1925.26322	36157.6625
1928.36908	36078.5625
1931.47292	36024.5625
1934.57473	35927.2625
1937.67453	35843.6625
1940.77232	35689.3625
1943.86808	35589.4625
1946.96184	35461.2625
1950.05358	35379.1625
1953.14331	35264.3625
1956.23103	35200.3625
1959.31675	35103.2625
1962.40046	35067.5625
1965.48217	34935.4625
1968.56188	34827.1625
1971.63959	34727.3625
1974.7153	34638.9625
1977.78901	34534.1625
1980.86073	34407.7625
1983.93046	34317.7625
1986.99819	34191.4625
1990.06394	34122.6625
1993.1277	34024.3625
1996.18947	33925.8625
1999.24925	33883.0625
2002.30706	33722.3625
2005.36288	33692.0625
2008.41672	33644.9625
2011.46859	33492.3625
2014.51848	33397.4625
2017.56639	33350.9625
2020.61233	33269.0625
2023.6563	33203.7625
2026.6983	33122.4625
2029.73833	33044.0625
2032.7764	32966.6625
2035.8125	32912.9625
2038.84664	32905.3625
2041.87881	32869.7625
2044.90903	32791.7625
2047.93729	32705.1625
2050.96359	32710.4625
2053.98794	32668.8625
2057.01034	32656.4625
2060.03078	32635.5625
2063.04927	32588.4625
2066.06582	32561.3625
2069.08042	32581.3625
2072.09307	32540.1625
2075.10378	32491.0625
2078.11255	32479.2625
2081.11938	32522.7625
2084.12426	32426.1625
2087.12722	32396.6625
2090.12824	32367.0625
2093.12732	32390.5625
2096.12447	32411.4625
2099.11969	32422.8625
2102.11299	32415.9625
2105.10435	32359.1625
2108.09379	32476.5625
2111.08131	32473.6625
2114.0669	32453.8625
2117.05057	32466.9625
2120.03233	32475.5625
2123.01216	32479.9625
2125.99008	32538.3625
2128.96609	32541.9625
2131.94018	32602.1625
2134.91236	32595.6625
2137.88263	32652.1625
2140.851	32627.1625
2143.81746	32671.0625
2146.78201	32657.5625
2149.74466	32654.5625
2152.7054	32721.9625
2155.66425	32704.1625
2158.6212	32687.0625
2161.57625	32686.6625
2164.52941	32670.9625
2167.48067	32694.9625
2170.43004	32671.3625
2173.37752	32613.9625
2176.32311	32615.5625
2179.26681	32609.0625
2182.20863	32632.4625
2185.14856	32663.1625
2188.08661	32668.2625
2191.02278	32716.7625
2193.95707	32655.3625
2196.88948	32651.9625
2199.82001	32663.7625
2202.74867	32644.7625
2205.67545	32630.0625
2208.60037	32582.4625
2211.52341	32545.5625
2214.44458	32502.6625
2217.36388	32451.9625
2220.28132	32422.9625
2223.1969	32375.9625
2226.11061	32391.1625
2229.02246	32222.6625
2231.93245	32162.9625
2234.84058	32132.2625
2237.74686	32082.8625
2240.65128	32088.6625
2243.55385	32005.5625
2246.45456	31974.0625
2249.35343	31881.4625
2252.25044	31910.8625
2255.14561	31809.1625
2258.03893	31808.0625
2260.93041	31755.8625
2263.82004	31696.2625
2266.70783	31619.9625
2269.59378	31547.7625
2272.4779	31483.0625
2275.36017	31419.0625
2278.24061	31318.5625
2281.11922	31290.6625
2283.996	31245.7625
2286.87094	31182.7625
2289.74405	31112.3625
2292.61534	31097.5625
2295.4848	31048.1625
2298.35243	31069.1625
2301.21824	31081.5625
2304.08223	31134.4625
2306.94439	31142.6625
2309.80474	31103.7625
2312.66327	31095.9625
2315.51999	31076.6625
2318.37489	31103.5625
2321.22797	31020.0625
2324.07925	31044.7625
2326.92871	30978.0625
2329.77637	30972.4625
2332.62222	30908.6625
2335.46626	30903.8625
2338.3085	30937.3625
2341.14893	30893.9625
2343.98756	30958.7625
2346.8244	30894.4625
2349.65943	30862.3625
2352.49267	30842.5625
2355.32411	30831.6625
2358.15376	30819.6625
2360.98161	30730.5625
2363.80768	30718.8625
2366.63195	30724.2625
2369.45444	30654.0625
2372.27514	30620.1625
2375.09405	30542.3625
2377.91118	30491.9625
2380.72652	30418.8625
2383.54009	30356.3625
2386.35187	30356.1625
2389.16188	30287.7625
2391.97011	30263.6625
2394.77657	30227.8625
2397.58125	30145.7625
2400.38416	30121.9625
2403.18529	30083.0625
2405.98466	29986.2625
2408.78226	29950.2625
2411.57809	29940.9625
2414.37216	29885.2625
2417.16446	29861.2625
2419.955	29774.6625
2422.74378	29782.7625
2425.5308	29762.9625
2428.31606	29730.8625
2431.09956	29672.6625
2433.88131	29601.4625
2436.6613	29640.3625
2439.43954	29651.2625
2442.21603	29612.3625
2444.99077	29571.0625
2447.76377	29535.6625
2450.53501	29499.4625
2453.30451	29520.6625
2456.07226	29499.5625
2458.83827	29516.0625
2461.60254	29513.9625
2464.36507	29448.4625
2467.12586	29474.5625
2469.88492	29477.9625
2472.64224	29490.0625
2475.39782	29505.1625
2478.15167	29513.3625
2480.90379	29470.8625
2483.65417	29423.8625
2486.40283	29477.4625
2489.14976	29511.7625
2491.89497	29464.1625
2494.63845	29481.1625
2497.3802	29463.6625
2500.12024	29516.6625
2502.85855	29475.2625
2505.59514	29421.5625
2508.33002	29405.2625
2511.06318	29352.8625
2513.79462	29318.1625
2516.52435	29285.9625
2519.25237	29225.0625
2521.97867	29208.7625
2524.70327	29259.4625
2527.42616	29208.7625
2530.14734	29242.1625
2532.86681	29165.4625
2535.58458	29128.3625
2538.30065	29108.1625
2541.01501	29103.6625
2543.72768	29071.1625
2546.43864	29087.6625
2549.14791	29044.7625
2551.85548	29041.2625
2554.56136	28963.2625
2557.26554	28936.8625
2559.96803	28895.5625
2562.66883	28879.6625
2565.36794	28840.0625
2568.06536	28857.6625
2570.7611	28827.8625
2573.45514	28829.7625
2576.14751	28823.3625
2578.83819	28763.6625
2581.52719	28724.5625
2584.21451	28675.7625
2586.90015	28668.2625
2589.58411	28619.7625
2592.2664	28638.8625
2594.94701	28541.1625
2597.62594	28550.4625
2600.30321	28479.4625
2602.9788	28505.8625
2605.65273	28485.4625
2608.32498	28461.0625
2610.99557	28454.3625
2613.66449	28441.5625
2616.33175	28426.9625
2618.99734	28417.2625
2621.66128	28398.0625
2624.32355	28365.5625
2626.98416	28388.2625
2629.64311	28358.5625
2632.30041	28355.5625
2634.95605	28307.6625
2637.61004	28321.8625
2640.26238	28305.9625
2642.91306	28286.9625
2645.56209	28223.4625
2648.20948	28242.3625
2650.85521	28170.3625
2653.4993	28208.9625
2656.14175	28199.6625
2658.78255	28214.8625
2661.42171	28172.5625
2664.05923	28275.4625
2666.6951	28244.7625
2669.32934	28253.1625
2671.96194	28254.2625
2674.59291	28200.1625
2677.22224	28190.9625
2679.84993	28218.3625
2682.476	28139.2625
2685.10043	28183.6625
2687.72324	28142.0625
2690.34441	28121.2625
2692.96396	28143.7625
2695.58188	28162.6625
2698.19818	28108.2625
2700.81285	28101.9625
2703.4259	28090.9625
2706.03733	28112.1625
2708.64714	28106.7625
2711.25533	28119.5625
2713.86191	28085.8625
2716.46687	28150.4625
2719.07021	28110.8625
2721.67194	28115.4625
2724.27206	28113.5625
2726.87057	28147.7625
2729.46747	28149.4625
2732.06276	28172.9625
2734.65644	28171.5625
2737.24852	28159.5625
2739.83899	28144.1625
2742.42786	28124.8625
2745.01513	28076.8625
2747.60079	28057.0625
2750.18486	28006.1625
2752.76733	28008.2625
2755.3482	28030.5625
2757.92747	28065.8625
2760.50515	28029.8625
2763.08123	27953.5625
2765.65573	27951.6625
2768.22863	27940.2625
2770.79994	27922.7625
2773.36967	27906.1625
2775.9378	27860.6625
2778.50435	27866.3625
2781.06932	27806.3625
2783.6327	27775.9625
2786.1945	27804.1625
2788.75471	27768.7625
2791.31335	27703.9625
2793.87041	27635.7625
2796.42589	27579.2625
2798.97979	27567.8625
2801.53212	27481.7625
2804.08288	27454.1625
2806.63206	27347.5625
2809.17967	27352.5625
2811.72571	27282.8625
2814.27018	27230.2625
2816.81308	27228.2625
2819.35442	27193.0625
2821.89419	27123.0625
2824.43239	27130.8625
2826.96904	27115.3625
2829.50412	27122.8625
2832.03763	27069.7625
2834.56959	27025.8625
2837.1	26987.0625
2839.62884	26973.2625
2842.15613	26886.1625
2844.68186	26906.3625
2847.20604	26901.2625
2849.72867	26863.1625
2852.24974	26878.5625
2854.76927	26853.2625
2857.28724	26816.7625
2859.80367	26775.9625
2862.31855	26740.0625
2864.83189	26734.2625
2867.34368	26715.4625
2869.85393	26735.6625
2872.36264	26655.9625
2874.8698	26617.4625
2877.37543	26659.5625
2879.87952	26672.8625
2882.38207	26693.9625
2884.88308	26654.8625
2887.38256	26682.5625
2889.88051	26704.3625
2892.37692	26734.8625
2894.8718	26728.5625
2897.36515	26710.6625
2899.85698	26741.8625
2902.34727	26767.7625
2904.83604	26726.9625
2907.32328	26784.9625
2909.809	26788.0625
2912.29319	26818.3625
2914.77587	26745.3625
2917.25702	26712.8625
2919.73665	26744.1625
2922.21476	26709.5625
2924.69136	26699.1625
2927.16644	26661.2625
2929.64	26651.6625
2932.11205	26598.4625
2934.58258	26510.2625
2937.05161	26586.4625
2939.51912	26590.8625
2941.98513	26559.2625
2944.44962	26454.4625
2946.91261	26381.5625
2949.37409	26407.2625
2951.83407	26401.2625
2954.29254	26376.9625
2956.74951	26339.3625
2959.20498	26317.1625
2961.65895	26291.5625
2964.11142	26265.3625
2966.56239	26166.7625
2969.01186	26158.4625
2971.45984	26075.5625
2973.90632	26049.2625
2976.35131	25969.1625
2978.7948	25952.4625
2981.23681	25963.2625
2983.67732	25826.1625
2986.11635	25772.7625
2988.55388	25711.1625
2990.98993	25657.1625
2993.4245	25596.0625
2995.85758	25536.5625
2998.28917	25455.4625
3000.71928	25434.6625
3003.14791	25302.9625
3005.57506	25314.0625
3008.00073	25251.6625
3010.42493	25281.3625
3012.84764	25218.8625
3015.26888	25241.9625
3017.68865	25184.0625
3020.10694	25183.8625
3022.52376	25063.8625
3024.9391	25041.1625
3027.35298	25014.5625
3029.76539	24984.4625
3032.17632	24902.6625
3034.5858	24855.5625
3036.9938	24865.5625
3039.40034	24799.9625
3041.80542	24793.1625
3044.20903	24729.8625
3046.61118	24736.2625
3049.01187	24649.1625
3051.4111	24638.8625
3053.80888	24516.8625
3056.20519	24482.2625
3058.60005	24440.4625
3060.99345	24428.8625
3063.3854	24350.2625
3065.7759	24310.2625
3068.16494	24249.8625
3070.55254	24192.6625
3072.93868	24126.4625
3075.32338	24038.6625
3077.70662	23985.3625
3080.08842	23887.6625
3082.46878	23895.3625
3084.84769	23852.5625
3087.22515	23829.3625
3089.60118	23864.4625
3091.97576	23831.5625
3094.3489	23810.6625
3096.72061	23760.6625
3099.09087	23724.1625
3101.4597	23734.5625
3103.82709	23725.5625
3106.19305	23679.4625
3108.55757	23686.2625
3110.92066	23621.7625
3113.28232	23552.7625
3115.64255	23480.6625
3118.00134	23425.7625
3120.35871	23392.9625
3122.71466	23335.5625
3125.06917	23319.3625
3127.42226	23272.8625
3129.77393	23248.1625
3132.12417	23229.7625
3134.47299	23220.2625
3136.82039	23215.5625
3139.16636	23227.5625
3141.51092	23174.1625
3143.85406	23168.4625
3146.19579	23152.0625
3148.53609	23126.6625
3150.87499	23147.1625
3153.21246	23160.8625
3155.54853	23166.5625
3157.88318	23124.2625
3160.21642	23158.5625
3162.54826	23102.5625
3164.87868	23057.6625
3167.2077	23026.4625
3169.5353	23038.2625
3171.86151	23001.6625
3174.18631	22998.4625
3176.5097	22937.0625
3178.83169	22908.9625
3181.15228	22913.6625
3183.47147	22847.8625
3185.78926	22854.3625
3188.10565	22845.2625
3190.42065	22841.7625
3192.73424	22795.3625
3195.04645	22811.0625
3197.35725	22790.9625
3199.66667	22771.4625
3201.97469	22783.5625
3204.28132	22739.7625
3206.58656	22730.4625
3208.8904	22719.3625
3211.19287	22750.2625
3213.49394	22717.9625
3215.79363	22737.5625
3218.09193	22731.3625
3220.38884	22712.7625
3222.68438	22709.9625
3224.97853	22660.6625
3227.2713	22643.4625
3229.56269	22597.2625
3231.8527	22629.1625
3234.14133	22567.1625
3236.42858	22486.2625
3238.71446	22471.0625
3240.99896	22413.7625
3243.28209	22413.5625
3245.56384	22437.4625
3247.84423	22439.9625
3250.12324	22372.7625
3252.40088	22345.3625
3254.67715	22351.7625
3256.95205	22267.0625
3259.22558	22254.6625
3261.49775	22193.3625
3263.76855	22205.5625
3266.03799	22124.9625
3268.30606	22088.1625
3270.57277	22095.6625
3272.83812	22027.9625
3275.10211	22013.9625
3277.36474	22002.0625
3279.62601	21997.3625
3281.88593	21978.4625
3284.14448	22010.6625
3286.40168	21957.3625
3288.65753	21920.4625
3290.91202	21906.5625
3293.16516	21870.2625
3295.41695	21794.4625
3297.66738	21636.1625
3299.91647	21573.5625
3302.16421	21425.1625
3304.4106	21348.4625
3306.65564	21272.2625
3308.89933	21144.5625
3311.14169	20981.0625
3313.38269	20833.4625
3315.62236	20721.3625
3317.86068	20546.4625
3320.09766	20318.1625
3322.3333	20160.1625
3324.5676	20141.5625
3326.80056	19790.9625
3329.03219	19719.7625
3331.26248	5.6625
3333.49143	-0.7375
3335.71905	0.2625
