Data from AgNP_FTO_APTES_CRN_200uM_R6G_10uM_NaF_0.1M_Addition_RamanShift__19__19-39-08-182.txt Node

Date: Wed Dec 15 19:39:08 GMT 2021
User: TCL
Spectrometer: QEP01345
Trigger mode: 4
Integration Time (sec): 7.000000E0
Scans to average: 10
Electric dark correction enabled: true
Nonlinearity correction enabled: false
Boxcar width: 0
XAxis mode: Raman Shifts
Number of Pixels in Spectrum: 1044
>>>>>Begin Spectral Data<<<<<
46.04893	0.6625
50.45542	-0.9375
54.85868	-0.9375
59.25871	-0.8375
63.6555	56.0625
68.04907	60.5625
72.43941	65.6625
76.82654	68.0625
81.21044	70.8625
85.59113	74.8625
89.96862	74.4625
94.34289	74.4625
98.71396	84.8625
103.08183	82.3625
107.4465	85.3625
111.80798	84.1625
116.16626	87.5625
120.52136	92.6625
124.87327	96.0625
129.222	97.7625
133.56755	98.7625
137.90993	106.0625
142.24913	118.1625
146.58517	129.6625
150.91804	146.1625
155.24774	170.2625
159.57429	213.6625
163.89768	266.1625
168.21792	346.9625
172.53501	469.8625
176.84895	647.7625
181.15975	911.3625
185.46741	1264.7625
189.77193	1744.3625
194.07331	2343.5625
198.37157	2998.6625
202.6667	3698.8625
206.9587	4420.9625
211.24758	5098.6625
215.53334	5797.8625
219.81599	6522.3625
224.09553	7304.6625
228.37195	8165.2625
232.64527	9119.6625
236.91549	10114.4625
241.18261	11154.4625
245.44663	12115.6625
249.70755	12997.6625
253.96539	13787.6625
258.22014	14429.3625
262.4718	14977.9625
266.72039	15321.7625
270.96589	15547.8625
275.20832	15568.4625
279.44768	15470.4625
283.68397	15299.8625
287.91719	15174.7625
292.14735	15088.0625
296.37445	15064.7625
300.59849	15049.3625
304.81948	15032.0625
309.03742	14972.8625
313.25231	14822.2625
317.46415	14598.9625
321.67296	14323.0625
325.87872	14077.6625
330.08145	13982.7625
334.28114	14002.2625
338.47781	14066.0625
342.67145	14230.8625
346.86207	14414.3625
351.04966	14631.0625
355.23424	14872.7625
359.4158	15062.4625
363.59435	15224.0625
367.76989	15324.9625
371.94243	15436.7625
376.11196	15525.5625
380.27849	15607.9625
384.44203	15772.5625
388.60257	15875.3625
392.76012	16015.0625
396.91468	16182.9625
401.06626	16354.7625
405.21485	16502.6625
409.36047	16474.6625
413.50311	16326.9625
417.64277	16154.8625
421.77947	16122.3625
425.9132	16176.1625
430.04396	16305.4625
434.17176	16444.9625
438.2966	16673.6625
442.41849	16972.9625
446.53742	17460.6625
450.6534	17943.7625
454.76644	18310.2625
458.87653	18370.6625
462.98368	18277.0625
467.08789	18089.9625
471.18916	17923.4625
475.2875	17851.5625
479.38291	17823.0625
483.4754	17739.3625
487.56496	17502.5625
491.6516	17164.2625
495.73531	16902.8625
499.81612	16766.5625
503.89401	16815.1625
507.96899	16842.3625
512.04106	16880.8625
516.11023	16834.6625
520.1765	16810.6625
524.23987	16800.2625
528.30034	16765.8625
532.35792	16669.0625
536.41261	16548.5625
540.46441	16401.3625
544.51333	16398.4625
548.55936	16538.2625
552.60252	16855.9625
556.64279	17203.6625
560.6802	17466.5625
564.71473	17633.1625
568.7464	17779.2625
572.7752	18033.3625
576.80114	18199.9625
580.82422	18313.0625
584.84444	18547.0625
588.86181	19002.1625
592.87633	19602.5625
596.888	19891.7625
600.89682	19717.8625
604.9028	19665.5625
608.90594	20380.2625
612.90624	21307.3625
616.90371	20224.0625
620.89834	17824.4625
624.89015	16750.4625
628.87913	16610.6625
632.86528	16726.2625
636.84862	16792.2625
640.82913	16636.8625
644.80683	16324.1625
648.78172	16100.2625
652.75379	16063.9625
656.72306	16145.9625
660.68952	16269.4625
664.65319	16259.0625
668.61405	16061.1625
672.57211	16035.2625
676.52738	16096.5625
680.47986	16121.5625
684.42955	16086.1625
688.37646	16034.7625
692.32058	16047.0625
696.26192	16146.3625
700.20048	16277.4625
704.13626	16366.5625
708.06928	16374.7625
711.99952	16298.1625
715.927	16278.4625
719.85171	16261.1625
723.77365	16272.0625
727.69284	16153.9625
731.60928	16036.4625
735.52295	16018.2625
739.43388	16011.0625
743.34206	16020.2625
747.24749	16054.0625
751.15017	16137.0625
755.05012	16305.0625
758.94733	16644.7625
762.8418	17206.9625
766.73354	18160.1625
770.62254	19035.3625
774.50882	19292.6625
778.39237	18589.7625
782.27321	17514.2625
786.15132	16605.8625
790.02671	16124.9625
793.89938	15840.0625
797.76935	15784.8625
801.6366	15759.2625
805.50115	15729.1625
809.36299	15673.3625
813.22213	15627.8625
817.07857	15625.6625
820.93231	15610.1625
824.78336	15557.1625
828.63172	15528.5625
832.47738	15532.5625
836.32036	15545.4625
840.16066	15580.6625
843.99827	15556.5625
847.8332	15485.0625
851.66546	15471.2625
855.49504	15457.5625
859.32195	15438.2625
863.1462	15448.7625
866.96777	15439.8625
870.78668	15408.1625
874.60293	15409.8625
878.41652	15417.7625
882.22745	15442.9625
886.03573	15477.7625
889.84136	15446.3625
893.64433	15427.0625
897.44466	15384.2625
901.24235	15322.0625
905.0374	15251.7625
908.8298	15290.5625
912.61957	15288.0625
916.40671	15425.5625
920.19121	15535.5625
923.97308	15628.5625
927.75233	15640.7625
931.52895	15574.6625
935.30295	15438.9625
939.07433	15234.9625
942.84309	15064.9625
946.60924	14964.0625
950.37278	14917.6625
954.13371	14859.5625
957.89203	14883.8625
961.64774	14887.5625
965.40086	14853.0625
969.15137	14790.3625
972.89929	14728.9625
976.64461	14665.3625
980.38733	14632.7625
984.12747	14702.9625
987.86502	14751.8625
991.59999	14847.2625
995.33237	14992.7625
999.06217	15279.3625
1002.78939	15516.7625
1006.51404	15714.4625
1010.23611	15831.4625
1013.95561	15995.7625
1017.67255	15976.4625
1021.38692	15870.8625
1025.09872	15670.1625
1028.80796	15588.1625
1032.51465	15644.8625
1036.21877	15811.0625
1039.92035	15843.4625
1043.61937	15837.6625
1047.31584	15770.0625
1051.00976	15720.7625
1054.70114	15761.9625
1058.38998	15867.4625
1062.07627	16078.5625
1065.76003	16338.2625
1069.44126	16656.9625
1073.11995	17013.6625
1076.79611	17243.4625
1080.46974	17211.4625
1084.14085	16966.4625
1087.80943	16782.1625
1091.47549	16684.1625
1095.13903	16608.5625
1098.80005	16416.4625
1102.45857	16129.1625
1106.11456	15921.5625
1109.76805	15851.0625
1113.41903	15878.5625
1117.06751	15987.2625
1120.71348	16117.9625
1124.35696	16267.6625
1127.99793	16462.4625
1131.63641	16585.9625
1135.2724	16480.0625
1138.90589	16392.7625
1142.5369	16340.8625
1146.16542	16360.9625
1149.79145	16447.4625
1153.415	16621.6625
1157.03607	16827.4625
1160.65467	17126.9625
1164.27079	17674.1625
1167.88443	18468.4625
1171.49561	19410.3625
1175.10432	20704.4625
1178.71056	22200.8625
1182.31434	23420.4625
1185.91565	23870.4625
1189.51451	23528.8625
1193.11091	22769.9625
1196.70485	21968.7625
1200.29634	21216.7625
1203.88538	20674.7625
1207.47197	20319.1625
1211.05612	20059.5625
1214.63782	19796.9625
1218.21708	19540.3625
1221.79391	19310.8625
1225.36829	19183.5625
1228.94024	19014.0625
1232.50976	18714.6625
1236.07685	18457.2625
1239.6415	18377.9625
1243.20374	18383.6625
1246.76355	18488.6625
1250.32093	18691.1625
1253.8759	18971.9625
1257.42845	19321.9625
1260.97859	19682.8625
1264.52631	20026.6625
1268.07163	20386.6625
1271.61453	20815.5625
1275.15503	21294.9625
1278.69312	21763.4625
1282.22882	22271.1625
1285.76211	22852.5625
1289.29301	23641.1625
1292.82151	24556.5625
1296.34761	25733.9625
1299.87133	26984.0625
1303.39266	28275.7625
1306.9116	29604.7625
1310.42815	30973.4625
1313.94233	31973.7625
1317.45412	32262.1625
1320.96354	31932.8625
1324.47058	31358.0625
1327.97525	30700.8625
1331.47754	30169.3625
1334.97747	29875.5625
1338.47502	29624.7625
1341.97022	29217.2625
1345.46305	28728.6625
1348.95352	28257.6625
1352.44163	28199.7625
1355.92738	28759.6625
1359.41078	29825.6625
1362.89183	30845.4625
1366.37053	30598.9625
1369.84688	28644.4625
1373.32088	26069.1625
1376.79254	24236.7625
1380.26186	23568.3625
1383.72883	23549.5625
1387.19347	23607.2625
1390.65578	23530.9625
1394.11575	23614.1625
1397.57339	23999.9625
1401.0287	24477.4625
1404.48168	24804.7625
1407.93234	24798.1625
1411.38068	24350.5625
1414.82669	23560.3625
1418.27039	22594.5625
1421.71177	21645.1625
1425.15083	20827.0625
1428.58758	20410.0625
1432.02203	20471.3625
1435.45416	20815.3625
1438.88399	21421.8625
1442.31151	21854.1625
1445.73673	22235.9625
1449.15965	22587.5625
1452.58027	22874.2625
1455.9986	22978.5625
1459.41463	23085.6625
1462.82837	23404.6625
1466.23982	23748.1625
1469.64898	24096.4625
1473.05586	24228.8625
1476.46045	24224.4625
1479.86276	24074.5625
1483.26279	23819.6625
1486.66054	23606.5625
1490.05602	23558.3625
1493.44922	23562.6625
1496.84016	23520.2625
1500.22882	23697.1625
1503.61521	24140.3625
1506.99934	24785.1625
1510.38121	25353.9625
1513.76081	25515.3625
1517.13816	25046.3625
1520.51324	24248.4625
1523.88607	23571.3625
1527.25665	23202.0625
1530.62498	23138.2625
1533.99105	23143.9625
1537.35488	23024.6625
1540.71647	22802.4625
1544.07581	22446.8625
1547.4329	22024.1625
1550.78776	21651.0625
1554.14038	21415.4625
1557.49077	21246.7625
1560.83892	21273.5625
1564.18484	21312.1625
1567.52853	21533.3625
1570.86999	21963.3625
1574.20922	22604.8625
1577.54624	23280.1625
1580.88103	23564.5625
1584.2136	23730.4625
1587.54395	23808.7625
1590.87208	24233.1625
1594.19801	25001.2625
1597.52172	26001.6625
1600.84321	26370.4625
1604.16251	25548.5625
1607.47959	23873.0625
1610.79447	21945.5625
1614.10715	20221.2625
1617.41763	18935.2625
1620.7259	18073.3625
1624.03199	17656.6625
1627.33587	17678.6625
1630.63757	18060.6625
1633.93707	18992.6625
1637.23439	20533.4625
1640.52951	22680.4625
1643.82246	25288.0625
1647.11321	27356.0625
1650.40179	27738.5625
1653.68819	26051.0625
1656.97241	23121.3625
1660.25446	20200.9625
1663.53433	18032.5625
1666.81203	16627.1625
1670.08756	15746.2625
1673.36092	15172.3625
1676.63211	14777.4625
1679.90115	14507.7625
1683.16801	14294.9625
1686.43272	14168.5625
1689.69527	14086.3625
1692.95567	14011.8625
1696.2139	13964.2625
1699.46999	13917.4625
1702.72392	13873.0625
1705.97571	13837.5625
1709.22535	13791.7625
1712.47284	13745.5625
1715.71819	13730.4625
1718.96139	13676.1625
1722.20246	13660.9625
1725.44139	13608.0625
1728.67818	13519.3625
1731.91284	13449.6625
1735.14537	13413.2625
1738.37576	13389.0625
1741.60403	13326.6625
1744.83017	13327.5625
1748.05418	13293.5625
1751.27607	13251.8625
1754.49584	13252.7625
1757.71349	13235.1625
1760.92903	13236.9625
1764.14244	13210.7625
1767.35375	13213.9625
1770.56294	13202.6625
1773.77002	13180.8625
1776.97499	13126.5625
1780.17785	13092.5625
1783.37861	13083.9625
1786.57727	13060.0625
1789.77382	13027.9625
1792.96828	12984.2625
1796.16064	12994.4625
1799.3509	12952.0625
1802.53907	12921.6625
1805.72514	12899.5625
1808.90913	12849.1625
1812.09102	12821.6625
1815.27083	12816.3625
1818.44856	12770.0625
1821.6242	12788.5625
1824.79776	12778.3625
1827.96924	12761.7625
1831.13864	12717.6625
1834.30597	12735.4625
1837.47122	12709.0625
1840.6344	12698.5625
1843.7955	12710.6625
1846.95454	12712.7625
1850.11151	12656.1625
1853.26642	12672.6625
1856.41926	12666.1625
1859.57004	12683.5625
1862.71876	12656.4625
1865.86542	12662.0625
1869.01003	12647.9625
1872.15258	12628.1625
1875.29308	12652.8625
1878.43152	12602.6625
1881.56792	12613.5625
1884.70227	12609.7625
1887.83457	12576.6625
1890.96482	12567.2625
1894.09304	12563.2625
1897.21921	12554.8625
1900.34335	12560.6625
1903.46544	12527.7625
1906.58551	12523.3625
1909.70353	12509.8625
1912.81953	12503.5625
1915.93349	12469.6625
1919.04543	12451.1625
1922.15534	12434.2625
1925.26322	12408.2625
1928.36908	12391.7625
1931.47292	12409.6625
1934.57473	12339.2625
1937.67453	12325.0625
1940.77232	12278.7625
1943.86808	12265.5625
1946.96184	12211.3625
1950.05358	12188.5625
1953.14331	12135.6625
1956.23103	12108.3625
1959.31675	12085.4625
1962.40046	12063.9625
1965.48217	12043.6625
1968.56188	12004.6625
1971.63959	11949.8625
1974.7153	11892.1625
1977.78901	11882.2625
1980.86073	11820.1625
1983.93046	11799.7625
1986.99819	11762.4625
1990.06394	11746.6625
1993.1277	11699.3625
1996.18947	11669.9625
1999.24925	11627.2625
2002.30706	11600.7625
2005.36288	11573.7625
2008.41672	11547.9625
2011.46859	11524.0625
2014.51848	11485.5625
2017.56639	11440.2625
2020.61233	11427.2625
2023.6563	11413.7625
2026.6983	11412.5625
2029.73833	11377.8625
2032.7764	11333.9625
2035.8125	11350.3625
2038.84664	11302.6625
2041.87881	11285.3625
2044.90903	11275.0625
2047.93729	11238.6625
2050.96359	11236.3625
2053.98794	11227.4625
2057.01034	11211.8625
2060.03078	11189.6625
2063.04927	11181.2625
2066.06582	11187.1625
2069.08042	11182.0625
2072.09307	11175.1625
2075.10378	11166.9625
2078.11255	11138.1625
2081.11938	11143.5625
2084.12426	11150.8625
2087.12722	11149.1625
2090.12824	11129.9625
2093.12732	11157.6625
2096.12447	11153.6625
2099.11969	11153.6625
2102.11299	11131.1625
2105.10435	11151.7625
2108.09379	11154.8625
2111.08131	11149.3625
2114.0669	11166.6625
2117.05057	11156.0625
2120.03233	11157.0625
2123.01216	11195.2625
2125.99008	11191.2625
2128.96609	11210.3625
2131.94018	11225.7625
2134.91236	11200.6625
2137.88263	11231.7625
2140.851	11232.6625
2143.81746	11243.0625
2146.78201	11232.6625
2149.74466	11219.0625
2152.7054	11255.6625
2155.66425	11254.3625
2158.6212	11246.0625
2161.57625	11248.5625
2164.52941	11242.6625
2167.48067	11227.3625
2170.43004	11217.2625
2173.37752	11227.7625
2176.32311	11215.7625
2179.26681	11234.0625
2182.20863	11226.0625
2185.14856	11228.1625
2188.08661	11224.7625
2191.02278	11194.0625
2193.95707	11191.4625
2196.88948	11201.6625
2199.82001	11174.8625
2202.74867	11181.9625
2205.67545	11185.1625
2208.60037	11152.4625
2211.52341	11159.8625
2214.44458	11133.2625
2217.36388	11096.5625
2220.28132	11087.4625
2223.1969	11051.6625
2226.11061	11040.9625
2229.02246	11041.8625
2231.93245	10995.6625
2234.84058	10998.0625
2237.74686	10988.0625
2240.65128	10975.8625
2243.55385	10964.0625
2246.45456	10941.2625
2249.35343	10910.2625
2252.25044	10934.5625
2255.14561	10903.1625
2258.03893	10901.4625
2260.93041	10863.8625
2263.82004	10839.3625
2266.70783	10794.6625
2269.59378	10776.8625
2272.4779	10775.7625
2275.36017	10740.1625
2278.24061	10713.2625
2281.11922	10691.8625
2283.996	10664.3625
2286.87094	10657.3625
2289.74405	10645.3625
2292.61534	10614.5625
2295.4848	10601.9625
2298.35243	10645.9625
2301.21824	10600.7625
2304.08223	10608.5625
2306.94439	10593.0625
2309.80474	10625.5625
2312.66327	10577.3625
2315.51999	10607.2625
2318.37489	10577.5625
2321.22797	10558.8625
2324.07925	10542.7625
2326.92871	10549.3625
2329.77637	10549.7625
2332.62222	10531.0625
2335.46626	10502.5625
2338.3085	10494.6625
2341.14893	10490.9625
2343.98756	10497.5625
2346.8244	10482.4625
2349.65943	10479.8625
2352.49267	10464.9625
2355.32411	10461.1625
2358.15376	10450.3625
2360.98161	10437.7625
2363.80768	10431.5625
2366.63195	10448.7625
2369.45444	10417.2625
2372.27514	10404.7625
2375.09405	10416.1625
2377.91118	10387.4625
2380.72652	10371.9625
2383.54009	10325.5625
2386.35187	10346.8625
2389.16188	10293.3625
2391.97011	10267.2625
2394.77657	10261.5625
2397.58125	10227.0625
2400.38416	10211.6625
2403.18529	10226.2625
2405.98466	10206.4625
2408.78226	10210.7625
2411.57809	10184.2625
2414.37216	10156.7625
2417.16446	10148.4625
2419.955	10125.7625
2422.74378	10133.0625
2425.5308	10084.0625
2428.31606	10103.6625
2431.09956	10089.5625
2433.88131	10078.5625
2436.6613	10096.9625
2439.43954	10075.5625
2442.21603	10078.3625
2444.99077	10054.9625
2447.76377	10073.2625
2450.53501	10050.6625
2453.30451	10049.0625
2456.07226	10022.7625
2458.83827	10020.4625
2461.60254	10032.2625
2464.36507	10023.6625
2467.12586	10014.4625
2469.88492	10023.6625
2472.64224	10026.9625
2475.39782	9996.3625
2478.15167	10010.3625
2480.90379	10016.2625
2483.65417	10023.4625
2486.40283	10009.6625
2489.14976	10009.9625
2491.89497	10010.3625
2494.63845	9994.2625
2497.3802	10002.6625
2500.12024	9999.0625
2502.85855	10002.9625
2505.59514	9989.7625
2508.33002	9974.9625
2511.06318	9979.5625
2513.79462	9936.4625
2516.52435	9935.4625
2519.25237	9932.2625
2521.97867	9926.2625
2524.70327	9917.7625
2527.42616	9888.3625
2530.14734	9894.4625
2532.86681	9881.7625
2535.58458	9906.4625
2538.30065	9851.7625
2541.01501	9865.4625
2543.72768	9869.2625
2546.43864	9854.8625
2549.14791	9829.4625
2551.85548	9811.4625
2554.56136	9778.4625
2557.26554	9744.5625
2559.96803	9758.1625
2562.66883	9749.3625
2565.36794	9736.2625
2568.06536	9742.2625
2570.7611	9736.4625
2573.45514	9751.9625
2576.14751	9724.6625
2578.83819	9699.7625
2581.52719	9709.4625
2584.21451	9665.7625
2586.90015	9705.0625
2589.58411	9666.3625
2592.2664	9653.8625
2594.94701	9652.0625
2597.62594	9650.9625
2600.30321	9621.9625
2602.9788	9586.1625
2605.65273	9592.6625
2608.32498	9597.9625
2610.99557	9582.0625
2613.66449	9584.3625
2616.33175	9545.0625
2618.99734	9560.3625
2621.66128	9545.6625
2624.32355	9553.1625
2626.98416	9544.7625
2629.64311	9555.3625
2632.30041	9551.8625
2634.95605	9531.4625
2637.61004	9539.4625
2640.26238	9520.2625
2642.91306	9505.5625
2645.56209	9501.3625
2648.20948	9474.0625
2650.85521	9481.8625
2653.4993	9487.8625
2656.14175	9494.3625
2658.78255	9498.8625
2661.42171	9488.2625
2664.05923	9491.7625
2666.6951	9506.3625
2669.32934	9509.8625
2671.96194	9492.2625
2674.59291	9499.9625
2677.22224	9509.3625
2679.84993	9498.6625
2682.476	9494.2625
2685.10043	9472.3625
2687.72324	9466.9625
2690.34441	9462.6625
2692.96396	9470.9625
2695.58188	9501.4625
2698.19818	9494.0625
2700.81285	9485.3625
2703.4259	9502.3625
2706.03733	9556.2625
2708.64714	9520.3625
2711.25533	9552.8625
2713.86191	9516.2625
2716.46687	9527.8625
2719.07021	9497.3625
2721.67194	9504.8625
2724.27206	9521.5625
2726.87057	9522.5625
2729.46747	9511.0625
2732.06276	9523.2625
2734.65644	9524.8625
2737.24852	9499.9625
2739.83899	9492.7625
2742.42786	9480.1625
2745.01513	9466.4625
2747.60079	9492.6625
2750.18486	9467.8625
2752.76733	9447.8625
2755.3482	9469.5625
2757.92747	9483.7625
2760.50515	9456.4625
2763.08123	9456.0625
2765.65573	9452.9625
2768.22863	9431.9625
2770.79994	9441.6625
2773.36967	9439.6625
2775.9378	9435.2625
2778.50435	9443.1625
2781.06932	9393.0625
2783.6327	9416.5625
2786.1945	9407.7625
2788.75471	9390.8625
2791.31335	9371.4625
2793.87041	9353.7625
2796.42589	9343.6625
2798.97979	9335.8625
2801.53212	9333.5625
2804.08288	9305.7625
2806.63206	9266.1625
2809.17967	9265.4625
2811.72571	9247.4625
2814.27018	9261.2625
2816.81308	9259.0625
2819.35442	9221.4625
2821.89419	9203.8625
2824.43239	9174.1625
2826.96904	9173.9625
2829.50412	9181.9625
2832.03763	9175.6625
2834.56959	9173.5625
2837.1	9143.4625
2839.62884	9163.9625
2842.15613	9167.6625
2844.68186	9162.6625
2847.20604	9176.1625
2849.72867	9160.9625
2852.24974	9134.5625
2854.76927	9142.9625
2857.28724	9160.5625
2859.80367	9142.9625
2862.31855	9128.5625
2864.83189	9090.1625
2867.34368	9088.9625
2869.85393	9085.4625
2872.36264	9088.7625
2874.8698	9083.9625
2877.37543	9111.0625
2879.87952	9096.8625
2882.38207	9125.5625
2884.88308	9099.6625
2887.38256	9094.1625
2889.88051	9120.2625
2892.37692	9106.1625
2894.8718	9098.9625
2897.36515	9110.3625
2899.85698	9098.1625
2902.34727	9115.0625
2904.83604	9122.7625
2907.32328	9146.6625
2909.809	9140.9625
2912.29319	9139.0625
2914.77587	9173.4625
2917.25702	9155.2625
2919.73665	9153.1625
2922.21476	9137.2625
2924.69136	9149.2625
2927.16644	9144.5625
2929.64	9131.3625
2932.11205	9126.2625
2934.58258	9101.1625
2937.05161	9127.2625
2939.51912	9129.1625
2941.98513	9122.9625
2944.44962	9112.5625
2946.91261	9066.3625
2949.37409	9078.5625
2951.83407	9033.9625
2954.29254	9038.2625
2956.74951	9023.6625
2959.20498	9026.7625
2961.65895	9021.8625
2964.11142	9004.7625
2966.56239	8992.2625
2969.01186	8962.5625
2971.45984	8959.9625
2973.90632	8926.3625
2976.35131	8897.7625
2978.7948	8897.2625
2981.23681	8904.0625
2983.67732	8861.4625
2986.11635	8865.8625
2988.55388	8800.4625
2990.98993	8802.4625
2993.4245	8792.2625
2995.85758	8771.8625
2998.28917	8766.3625
3000.71928	8753.1625
3003.14791	8742.5625
3005.57506	8719.2625
3008.00073	8704.2625
3010.42493	8699.9625
3012.84764	8682.9625
3015.26888	8675.1625
3017.68865	8664.7625
3020.10694	8657.1625
3022.52376	8622.6625
3024.9391	8601.3625
3027.35298	8585.3625
3029.76539	8615.5625
3032.17632	8603.9625
3034.5858	8592.4625
3036.9938	8579.6625
3039.40034	8573.6625
3041.80542	8574.0625
3044.20903	8571.8625
3046.61118	8553.6625
3049.01187	8537.0625
3051.4111	8501.1625
3053.80888	8512.3625
3056.20519	8514.1625
3058.60005	8487.2625
3060.99345	8466.1625
3063.3854	8432.9625
3065.7759	8412.1625
3068.16494	8428.2625
3070.55254	8397.5625
3072.93868	8369.3625
3075.32338	8363.8625
3077.70662	8357.2625
3080.08842	8333.7625
3082.46878	8344.8625
3084.84769	8314.4625
3087.22515	8329.1625
3089.60118	8343.9625
3091.97576	8330.1625
3094.3489	8330.7625
3096.72061	8344.1625
3099.09087	8327.3625
3101.4597	8328.8625
3103.82709	8340.6625
3106.19305	8292.0625
3108.55757	8321.6625
3110.92066	8294.8625
3113.28232	8272.1625
3115.64255	8239.4625
3118.00134	8225.6625
3120.35871	8237.8625
3122.71466	8228.9625
3125.06917	8199.0625
3127.42226	8217.6625
3129.77393	8223.6625
3132.12417	8215.1625
3134.47299	8222.1625
3136.82039	8214.7625
3139.16636	8208.6625
3141.51092	8213.1625
3143.85406	8217.4625
3146.19579	8209.9625
3148.53609	8213.9625
3150.87499	8226.4625
3153.21246	8237.2625
3155.54853	8250.2625
3157.88318	8226.2625
3160.21642	8228.3625
3162.54826	8230.0625
3164.87868	8242.9625
3167.2077	8240.1625
3169.5353	8230.7625
3171.86151	8247.9625
3174.18631	8230.6625
3176.5097	8239.4625
3178.83169	8232.2625
3181.15228	8236.7625
3183.47147	8218.3625
3185.78926	8241.1625
3188.10565	8209.6625
3190.42065	8229.6625
3192.73424	8223.9625
3195.04645	8224.3625
3197.35725	8219.0625
3199.66667	8194.5625
3201.97469	8249.2625
3204.28132	8223.0625
3206.58656	8235.2625
3208.8904	8224.0625
3211.19287	8243.1625
3213.49394	8241.7625
3215.79363	8229.4625
3218.09193	8229.3625
3220.38884	8239.9625
3222.68438	8263.8625
3224.97853	8215.4625
3227.2713	8235.4625
3229.56269	8203.3625
3231.8527	8215.0625
3234.14133	8211.0625
3236.42858	8199.9625
3238.71446	8203.5625
3240.99896	8176.8625
3243.28209	8168.6625
3245.56384	8181.9625
3247.84423	8183.8625
3250.12324	8176.1625
3252.40088	8181.4625
3254.67715	8154.8625
3256.95205	8144.7625
3259.22558	8144.9625
3261.49775	8133.8625
3263.76855	8123.5625
3266.03799	8096.9625
3268.30606	8092.2625
3270.57277	8085.6625
3272.83812	8053.4625
3275.10211	8019.7625
3277.36474	8044.1625
3279.62601	8041.5625
3281.88593	8003.0625
3284.14448	8029.2625
3286.40168	8042.6625
3288.65753	8031.9625
3290.91202	8021.8625
3293.16516	7988.8625
3295.41695	7956.4625
3297.66738	7927.5625
3299.91647	7900.7625
3302.16421	7839.7625
3304.4106	7826.2625
3306.65564	7784.6625
3308.89933	7726.7625
3311.14169	7709.2625
3313.38269	7625.6625
3315.62236	7595.1625
3317.86068	7523.9625
3320.09766	7457.9625
3322.3333	7416.9625
3324.5676	7405.0625
3326.80056	7300.2625
3329.03219	7243.8625
3331.26248	3.2625
3333.49143	-1.3375
3335.71905	-0.1375
