Data from AgNP_FTO_APTES_CRN_0uM_R6G_10uM_NaF_0.1M_Addition_RamanShift__50__12-28-02-958.txt Node

Date: Wed Dec 15 12:28:02 GMT 2021
User: TCL
Spectrometer: QEP01345
Trigger mode: 4
Integration Time (sec): 7.000000E0
Scans to average: 10
Electric dark correction enabled: true
Nonlinearity correction enabled: false
Boxcar width: 0
XAxis mode: Raman Shifts
Number of Pixels in Spectrum: 1044
>>>>>Begin Spectral Data<<<<<
46.04893	-0.7
50.45542	-1.8
54.85868	-1.6
59.25871	-1
63.6555	155.9
68.04907	165.6
72.43941	171.2
76.82654	179.1
81.21044	185.7
85.59113	195.8
89.96862	203.1
94.34289	204.4
98.71396	212.9
103.08183	220.2
107.4465	229.7
111.80798	228.9
116.16626	236.8
120.52136	242
124.87327	247.6
129.222	265.5
133.56755	275.6
137.90993	301.1
142.24913	326.3
146.58517	360.4
150.91804	414
155.24774	490.4
159.57429	610.3
163.89768	777
168.21792	1017.1
172.53501	1368.9
176.84895	1904.9
181.15975	2649.9
185.46741	3688.8
189.77193	5063.3
194.07331	6781.1
198.37157	8704.7
202.6667	10732.6
206.9587	12748.5
211.24758	14716.1
215.53334	16723
219.81599	18830.8
224.09553	21171.1
228.37195	23726.5
232.64527	26535.9
236.91549	29537.7
241.18261	32517.7
245.44663	35324.4
249.70755	37890.7
253.96539	40121
258.22014	41847.7
262.4718	43279.4
266.72039	44254.5
270.96589	44698.3
275.20832	44668.2
279.44768	44280.2
283.68397	43827.4
287.91719	43377.6
292.14735	43066.6
296.37445	42914
300.59849	42880.1
304.81948	43016.1
309.03742	43100.4
313.25231	43068.4
317.46415	42757.9
321.67296	42242.4
325.87872	41741.7
330.08145	41495
334.28114	41553.7
338.47781	41769.7
342.67145	42202.1
346.86207	42818.7
351.04966	43495.8
355.23424	44229.4
359.4158	44952.2
363.59435	45524.8
367.76989	45893.2
371.94243	45921.3
376.11196	46032.9
380.27849	46008.6
384.44203	46157.5
388.60257	46477.5
392.76012	47023.3
396.91468	47716
401.06626	48583.2
405.21485	49156.1
409.36047	49173
413.50311	49018
417.64277	49196.6
421.77947	49731.6
425.9132	50065.4
430.04396	50291.6
434.17176	50312.2
438.2966	50324.3
442.41849	50867.9
446.53742	52015.8
450.6534	53277.7
454.76644	54186.1
458.87653	54403.2
462.98368	54144.1
467.08789	53360.6
471.18916	52294.4
475.2875	51309.4
479.38291	50606.9
483.4754	50298
487.56496	49979.6
491.6516	49647.7
495.73531	49240.6
499.81612	49185.2
503.89401	49671.3
507.96899	50051.7
512.04106	50096.4
516.11023	49783.4
520.1765	49177.8
524.23987	48563.2
528.30034	48027.4
532.35792	47563.9
536.41261	47013.9
540.46441	46583.8
544.51333	46413.6
548.55936	46900.9
552.60252	47740.7
556.64279	48736.9
560.6802	49541.6
564.71473	50265.5
568.7464	51086.6
572.7752	52775.9
576.80114	54998.3
580.82422	57757.1
584.84444	61376.8
588.86181	65573.6
592.87633	68585.7
596.888	67278.6
600.89682	62690.8
604.9028	60432.3
608.90594	61898.6
612.90624	63318.1
616.90371	59239.8
620.89834	52286.3
624.89015	49276.5
628.87913	49008.2
632.86528	49314.5
636.84862	49025.9
640.82913	47868.3
644.80683	46732.6
648.78172	46231.4
652.75379	46492.1
656.72306	47159.8
660.68952	47545.5
664.65319	47016.3
668.61405	46276.3
672.57211	46299.8
676.52738	46591
680.47986	46598.6
684.42955	46168.7
688.37646	45940.2
692.32058	46403.1
696.26192	47241.7
700.20048	48129.8
704.13626	48634.2
708.06928	48726.4
711.99952	48743.8
715.927	48847.2
719.85171	49150.1
723.77365	48798
727.69284	47852.1
731.60928	46909.8
735.52295	46471.9
739.43388	46355.2
743.34206	46501.2
747.24749	46900
751.15017	47480.4
755.05012	48323
758.94733	49639.4
762.8418	51651.1
766.73354	54307
770.62254	56197.6
774.50882	55745.7
778.39237	53220.1
782.27321	50588.6
786.15132	48588.9
790.02671	47347.2
793.89938	46665.6
797.76935	46384.5
801.6366	46400.1
805.50115	46428.4
809.36299	46210.2
813.22213	45892.8
817.07857	45629.4
820.93231	45280.8
824.78336	44964.2
828.63172	44762.8
832.47738	44639.7
836.32036	44654.3
840.16066	44717
843.99827	44781.7
847.8332	44809.8
851.66546	44798.1
855.49504	44907.2
859.32195	44962.8
863.1462	44853.3
866.96777	44770.6
870.78668	44792.4
874.60293	44841.5
878.41652	44903.3
882.22745	45136.2
886.03573	45292.1
889.84136	45412.2
893.64433	45232.4
897.44466	45074.7
901.24235	45029
905.0374	45036
908.8298	45005.7
912.61957	45177.8
916.40671	45704.5
920.19121	46358.3
923.97308	47072.3
927.75233	47197.5
931.52895	46545.4
935.30295	45521.1
939.07433	44623.3
942.84309	44022.5
946.60924	43736.7
950.37278	43674.3
954.13371	43708.1
957.89203	43629.8
961.64774	43635.7
965.40086	43600.8
969.15137	43508
972.89929	43334.2
976.64461	43155.1
980.38733	43108.9
984.12747	43093.3
987.86502	43273.8
991.59999	43497.1
995.33237	43816.6
999.06217	44513.8
1002.78939	45490
1006.51404	46639.3
1010.23611	47726.9
1013.95561	48380.3
1017.67255	48347.4
1021.38692	47654.3
1025.09872	46690.8
1028.80796	46044
1032.51465	46005.1
1036.21877	46210
1039.92035	46412.2
1043.61937	46549.5
1047.31584	46457.3
1051.00976	46453.8
1054.70114	46630.3
1058.38998	47047.6
1062.07627	47794.8
1065.76003	48704.4
1069.44126	49862.1
1073.11995	51348.3
1076.79611	52541.2
1080.46974	52806.1
1084.14085	52604.3
1087.80943	52593.2
1091.47549	52715.3
1095.13903	52675
1098.80005	51688.7
1102.45857	50205.5
1106.11456	48993.7
1109.76805	48314.8
1113.41903	48092.5
1117.06751	48175.9
1120.71348	48376.7
1124.35696	48607
1127.99793	48878
1131.63641	49229.5
1135.2724	49461.4
1138.90589	49710.4
1142.5369	50067.2
1146.16542	50497.4
1149.79145	50981.9
1153.415	51548.9
1157.03607	52445
1160.65467	54228.1
1164.27079	57078.5
1167.88443	60195.5
1171.49561	62857
1175.10432	65787
1178.71056	69459.8
1182.31434	73075.3
1185.91565	74831.2
1189.51451	74291
1193.11091	72713.4
1196.70485	70700.2
1200.29634	68666
1203.88538	67519.4
1207.47197	67369.2
1211.05612	67488
1214.63782	66822.6
1218.21708	64993
1221.79391	62693.7
1225.36829	60961.8
1228.94024	59869.5
1232.50976	59072.7
1236.07685	58270.7
1239.6415	57668.4
1243.20374	57595.4
1246.76355	57890.8
1250.32093	58789.1
1253.8759	60084.9
1257.42845	61747.6
1260.97859	63640.8
1264.52631	65706.1
1268.07163	67882.6
1271.61453	70044.5
1275.15503	72096.4
1278.69312	74523.2
1282.22882	77119.5
1285.76211	80209.5
1289.29301	83589.9
1292.82151	87348.1
1296.34761	91708.8
1299.87133	96939.3
1303.39266	102208.5
1306.9116	106249.8
1310.42815	108375.8
1313.94233	108735.1
1317.45412	107599.8
1320.96354	106338.7
1324.47058	105810.9
1327.97525	106182.7
1331.47754	106608.2
1334.97747	106379.3
1338.47502	104924.3
1341.97022	102673.9
1345.46305	99910.5
1348.95352	97524.2
1352.44163	96379.2
1355.92738	97761.6
1359.41078	101189.1
1362.89183	104394.5
1366.37053	104342.2
1369.84688	98854.8
1373.32088	89360.3
1376.79254	81665.3
1380.26186	78764
1383.72883	79024.7
1387.19347	79521.5
1390.65578	78631.8
1394.11575	78091.6
1397.57339	78910.5
1401.0287	80730
1404.48168	82480.8
1407.93234	82764.8
1411.38068	81232.4
1414.82669	78290
1418.27039	74779.1
1421.71177	71480.2
1425.15083	68969.9
1428.58758	68086.2
1432.02203	69183
1435.45416	71644.2
1438.88399	74393.5
1442.31151	76102.2
1445.73673	76682.2
1449.15965	76534.6
1452.58027	75896.6
1455.9986	75044.6
1459.41463	74972.7
1462.82837	76115.4
1466.23982	77760.9
1469.64898	79295.2
1473.05586	80106.5
1476.46045	80464.7
1479.86276	80074.9
1483.26279	79267.8
1486.66054	78991.1
1490.05602	79228.1
1493.44922	79756.6
1496.84016	79975.2
1500.22882	80146.4
1503.61521	80407.3
1506.99934	80758.9
1510.38121	81062.8
1513.76081	80839.9
1517.13816	80523.2
1520.51324	80327.5
1523.88607	80813.8
1527.25665	81923.2
1530.62498	82810.1
1533.99105	82678.2
1537.35488	81283.6
1540.71647	78994.7
1544.07581	76231.3
1547.4329	73739.1
1550.78776	71541.5
1554.14038	70086.2
1557.49077	69216.5
1560.83892	68646.8
1564.18484	68099.1
1567.52853	67926.6
1570.86999	68580.3
1574.20922	70438.3
1577.54624	72689.6
1580.88103	74775.5
1584.2136	77226.3
1587.54395	80831.1
1590.87208	85516.6
1594.19801	90636.6
1597.52172	94478.5
1600.84321	94013
1604.16251	88192.2
1607.47959	79773.9
1610.79447	71958.7
1614.10715	65381.1
1617.41763	60418.8
1620.7259	57209.6
1624.03199	55812.9
1627.33587	56065.1
1630.63757	58153.7
1633.93707	62538
1637.23439	69940.5
1640.52951	80786
1643.82246	93404.6
1647.11321	102669.3
1650.40179	102553.8
1653.68819	92811
1656.97241	78685.1
1660.25446	66206.7
1663.53433	57549.3
1666.81203	52139.6
1670.08756	48858.6
1673.36092	46828.1
1676.63211	45423.6
1679.90115	44392.5
1683.16801	43703.3
1686.43272	43197.1
1689.69527	42794.7
1692.95567	42520.2
1696.2139	42325.2
1699.46999	42173.8
1702.72392	42008.2
1705.97571	41884.9
1709.22535	41764
1712.47284	41727.1
1715.71819	41676.5
1718.96139	41516.2
1722.20246	41357.9
1725.44139	41141.8
1728.67818	40958.6
1731.91284	40695.5
1735.14537	40469.2
1738.37576	40282.1
1741.60403	40124
1744.83017	40001.9
1748.05418	39937.2
1751.27607	39824
1754.49584	39777.7
1757.71349	39681.8
1760.92903	39624.9
1764.14244	39563.4
1767.35375	39555.9
1770.56294	39473.7
1773.77002	39447.7
1776.97499	39482.6
1780.17785	39382
1783.37861	39322.6
1786.57727	39262.3
1789.77382	39162.4
1792.96828	39031.4
1796.16064	39008.1
1799.3509	38896
1802.53907	38825.6
1805.72514	38719.2
1808.90913	38666.1
1812.09102	38608.5
1815.27083	38539.7
1818.44856	38523.3
1821.6242	38464.2
1824.79776	38493.2
1827.96924	38468.7
1831.13864	38472.1
1834.30597	38469.8
1837.47122	38463.4
1840.6344	38502.4
1843.7955	38467.5
1846.95454	38452.7
1850.11151	38444.9
1853.26642	38395.5
1856.41926	38332.2
1859.57004	38287.4
1862.71876	38220.6
1865.86542	38184.7
1869.01003	38164.5
1872.15258	38120.5
1875.29308	38101.3
1878.43152	37946.9
1881.56792	37958
1884.70227	37949.4
1887.83457	37912.2
1890.96482	37845.2
1894.09304	37764.6
1897.21921	37782.7
1900.34335	37687.9
1903.46544	37689.3
1906.58551	37751.2
1909.70353	37601.5
1912.81953	37544.7
1915.93349	37437.7
1919.04543	37312.6
1922.15534	37272.7
1925.26322	37180.4
1928.36908	37051.8
1931.47292	36982.1
1934.57473	36861.5
1937.67453	36769.9
1940.77232	36726.5
1943.86808	36597.1
1946.96184	36519
1950.05358	36433.1
1953.14331	36372.3
1956.23103	36262
1959.31675	36147.6
1962.40046	36085.6
1965.48217	35984.1
1968.56188	35885.6
1971.63959	35759.1
1974.7153	35669.6
1977.78901	35559.2
1980.86073	35428.2
1983.93046	35315.1
1986.99819	35208.2
1990.06394	35140.5
1993.1277	35035.6
1996.18947	34978.5
1999.24925	34861.9
2002.30706	34781.4
2005.36288	34702.2
2008.41672	34614.5
2011.46859	34492.2
2014.51848	34381.9
2017.56639	34313.9
2020.61233	34299.2
2023.6563	34204.4
2026.6983	34095.1
2029.73833	34083.9
2032.7764	33990.3
2035.8125	33867.3
2038.84664	33845.7
2041.87881	33822.9
2044.90903	33713
2047.93729	33674.2
2050.96359	33586.9
2053.98794	33572.8
2057.01034	33560.8
2060.03078	33563.5
2063.04927	33465.7
2066.06582	33495.3
2069.08042	33481.8
2072.09307	33508.2
2075.10378	33425.6
2078.11255	33391.3
2081.11938	33395
2084.12426	33403.8
2087.12722	33361.8
2090.12824	33364.1
2093.12732	33344.7
2096.12447	33372
2099.11969	33352.9
2102.11299	33344.8
2105.10435	33358.9
2108.09379	33468.3
2111.08131	33430.2
2114.0669	33396.7
2117.05057	33462.9
2120.03233	33404
2123.01216	33422.8
2125.99008	33499.7
2128.96609	33500.1
2131.94018	33491.5
2134.91236	33479.7
2137.88263	33545
2140.851	33546.1
2143.81746	33533.7
2146.78201	33521.5
2149.74466	33554.6
2152.7054	33531.6
2155.66425	33490.4
2158.6212	33551.3
2161.57625	33533.1
2164.52941	33541.3
2167.48067	33571.3
2170.43004	33527
2173.37752	33454.7
2176.32311	33452.3
2179.26681	33447.6
2182.20863	33468.3
2185.14856	33512.3
2188.08661	33485.7
2191.02278	33501.2
2193.95707	33455.6
2196.88948	33421.5
2199.82001	33478.3
2202.74867	33402.5
2205.67545	33362.4
2208.60037	33303.1
2211.52341	33231.9
2214.44458	33204.1
2217.36388	33133.1
2220.28132	33139.6
2223.1969	33040.5
2226.11061	33098.7
2229.02246	32985.5
2231.93245	32940.9
2234.84058	32867.4
2237.74686	32863.4
2240.65128	32865.8
2243.55385	32823
2246.45456	32763.8
2249.35343	32660.4
2252.25044	32605.8
2255.14561	32518.2
2258.03893	32485.6
2260.93041	32447
2263.82004	32316.4
2266.70783	32276
2269.59378	32176.5
2272.4779	32114.3
2275.36017	32037.6
2278.24061	31982.9
2281.11922	31944.7
2283.996	31897
2286.87094	31913.9
2289.74405	31798.2
2292.61534	31736.8
2295.4848	31683.4
2298.35243	31705.6
2301.21824	31693.7
2304.08223	31737.7
2306.94439	31715.3
2309.80474	31668.2
2312.66327	31599.7
2315.51999	31625.6
2318.37489	31587.5
2321.22797	31565.3
2324.07925	31554.1
2326.92871	31497.1
2329.77637	31443.6
2332.62222	31403.2
2335.46626	31378.6
2338.3085	31387.4
2341.14893	31377.6
2343.98756	31367.7
2346.8244	31301.3
2349.65943	31268.1
2352.49267	31245
2355.32411	31279.3
2358.15376	31218.1
2360.98161	31164.5
2363.80768	31150.1
2366.63195	31161.9
2369.45444	31145.8
2372.27514	31076.8
2375.09405	31003
2377.91118	31019
2380.72652	30926.2
2383.54009	30842.2
2386.35187	30880.3
2389.16188	30853.8
2391.97011	30784.3
2394.77657	30765.7
2397.58125	30659.7
2400.38416	30630.7
2403.18529	30592.9
2405.98466	30550.8
2408.78226	30488.5
2411.57809	30501.6
2414.37216	30459.4
2417.16446	30450.2
2419.955	30406.2
2422.74378	30364.7
2425.5308	30321.9
2428.31606	30328.6
2431.09956	30272.4
2433.88131	30209.3
2436.6613	30250.8
2439.43954	30249.9
2442.21603	30241.3
2444.99077	30195
2447.76377	30170.1
2450.53501	30186
2453.30451	30154.5
2456.07226	30113.2
2458.83827	30164.9
2461.60254	30160.6
2464.36507	30160.2
2467.12586	30064.8
2469.88492	30118.2
2472.64224	30111.9
2475.39782	30090.7
2478.15167	30081.7
2480.90379	30065.1
2483.65417	30073
2486.40283	30052.1
2489.14976	30089.3
2491.89497	29994.9
2494.63845	30011.9
2497.3802	29988.2
2500.12024	30039
2502.85855	30000.2
2505.59514	30033.2
2508.33002	29944.9
2511.06318	29911.8
2513.79462	29892.3
2516.52435	29942.4
2519.25237	29902.7
2521.97867	29845.4
2524.70327	29866.2
2527.42616	29859.4
2530.14734	29887.8
2532.86681	29832.8
2535.58458	29794.5
2538.30065	29743.2
2541.01501	29714.8
2543.72768	29717.3
2546.43864	29720.9
2549.14791	29702.2
2551.85548	29675.8
2554.56136	29665
2557.26554	29578.3
2559.96803	29582.3
2562.66883	29525
2565.36794	29520.8
2568.06536	29554.2
2570.7611	29461.6
2573.45514	29475
2576.14751	29457.3
2578.83819	29415.8
2581.52719	29361.8
2584.21451	29306.1
2586.90015	29317.5
2589.58411	29258.3
2592.2664	29293.9
2594.94701	29206.6
2597.62594	29210.4
2600.30321	29173.2
2602.9788	29150.9
2605.65273	29125.6
2608.32498	29116.8
2610.99557	29065
2613.66449	29142.8
2616.33175	29113
2618.99734	29026.6
2621.66128	29013.4
2624.32355	28999.8
2626.98416	28990.9
2629.64311	28948.6
2632.30041	28946.8
2634.95605	28884.5
2637.61004	28915.1
2640.26238	28904.9
2642.91306	28913.8
2645.56209	28891.4
2648.20948	28875.8
2650.85521	28857.6
2653.4993	28901.3
2656.14175	28904.8
2658.78255	28948.6
2661.42171	28969.2
2664.05923	29002.9
2666.6951	28941.8
2669.32934	28977.4
2671.96194	28980.7
2674.59291	28969.9
2677.22224	28945.1
2679.84993	28936.7
2682.476	28945.7
2685.10043	28963.4
2687.72324	28924
2690.34441	28929.6
2692.96396	28969
2695.58188	29012.5
2698.19818	28975.5
2700.81285	28957.2
2703.4259	28942.9
2706.03733	28987.7
2708.64714	28971.6
2711.25533	29000.5
2713.86191	28933.3
2716.46687	29000.1
2719.07021	29023.4
2721.67194	29010.9
2724.27206	29019.8
2726.87057	29030.8
2729.46747	29030.4
2732.06276	29102.1
2734.65644	29102.9
2737.24852	29112.5
2739.83899	29081.9
2742.42786	29101.3
2745.01513	29022.2
2747.60079	29040.3
2750.18486	28993.3
2752.76733	28968.2
2755.3482	28978.2
2757.92747	28981.8
2760.50515	29003.2
2763.08123	28969.1
2765.65573	28984.4
2768.22863	28926.8
2770.79994	28904.4
2773.36967	28882.2
2775.9378	28846.5
2778.50435	28833.5
2781.06932	28808.8
2783.6327	28832.3
2786.1945	28761.2
2788.75471	28744.5
2791.31335	28693.5
2793.87041	28641.3
2796.42589	28556.1
2798.97979	28529.6
2801.53212	28470.5
2804.08288	28505.5
2806.63206	28346
2809.17967	28385.1
2811.72571	28301.6
2814.27018	28267.3
2816.81308	28209.4
2819.35442	28174.4
2821.89419	28076.7
2824.43239	28063.1
2826.96904	28058.6
2829.50412	28047.7
2832.03763	28011.8
2834.56959	28004
2837.1	27943
2839.62884	27948.9
2842.15613	27799.5
2844.68186	27860.5
2847.20604	27791.6
2849.72867	27845.3
2852.24974	27760.2
2854.76927	27771.5
2857.28724	27717.2
2859.80367	27701.8
2862.31855	27671.8
2864.83189	27656.2
2867.34368	27636.6
2869.85393	27617
2872.36264	27541.6
2874.8698	27529
2877.37543	27560.7
2879.87952	27575.8
2882.38207	27602.3
2884.88308	27589.9
2887.38256	27590.9
2889.88051	27609.2
2892.37692	27653.3
2894.8718	27630.2
2897.36515	27643.3
2899.85698	27663.1
2902.34727	27731
2904.83604	27667
2907.32328	27667.6
2909.809	27674.5
2912.29319	27718.9
2914.77587	27682.4
2917.25702	27645.1
2919.73665	27668.7
2922.21476	27668
2924.69136	27627
2927.16644	27647
2929.64	27544.8
2932.11205	27573.5
2934.58258	27498.3
2937.05161	27566.1
2939.51912	27562.1
2941.98513	27566.4
2944.44962	27480.3
2946.91261	27332.6
2949.37409	27437.6
2951.83407	27409.7
2954.29254	27382.8
2956.74951	27361.3
2959.20498	27365.3
2961.65895	27311.6
2964.11142	27296.8
2966.56239	27199.1
2969.01186	27166.3
2971.45984	27112.1
2973.90632	27040.4
2976.35131	27042.7
2978.7948	26995.2
2981.23681	26913.1
2983.67732	26862.8
2986.11635	26731.8
2988.55388	26692.5
2990.98993	26640.3
2993.4245	26593.8
2995.85758	26504.6
2998.28917	26400.7
3000.71928	26376.6
3003.14791	26279.3
3005.57506	26294.3
3008.00073	26226.9
3010.42493	26228
3012.84764	26160.1
3015.26888	26150.5
3017.68865	26096.1
3020.10694	26089.2
3022.52376	26006.1
3024.9391	25949.1
3027.35298	25888.1
3029.76539	25888.5
3032.17632	25859
3034.5858	25817.6
3036.9938	25790.7
3039.40034	25739.9
3041.80542	25743.3
3044.20903	25649.5
3046.61118	25669.3
3049.01187	25551.5
3051.4111	25514.6
3053.80888	25475.5
3056.20519	25428
3058.60005	25343.4
3060.99345	25261.8
3063.3854	25228.8
3065.7759	25157.1
3068.16494	25084.8
3070.55254	25007.3
3072.93868	24956.2
3075.32338	24909.8
3077.70662	24805.9
3080.08842	24718.4
3082.46878	24758.7
3084.84769	24664.1
3087.22515	24666.9
3089.60118	24718.3
3091.97576	24664
3094.3489	24633.2
3096.72061	24587.3
3099.09087	24557.4
3101.4597	24508.2
3103.82709	24524.9
3106.19305	24491.2
3108.55757	24436.5
3110.92066	24397.7
3113.28232	24317
3115.64255	24229.2
3118.00134	24201
3120.35871	24127.5
3122.71466	24119.5
3125.06917	24074.9
3127.42226	23985.8
3129.77393	24011
3132.12417	23939.4
3134.47299	23963.6
3136.82039	23942.9
3139.16636	23956.2
3141.51092	23903.4
3143.85406	23894.3
3146.19579	23883.6
3148.53609	23851.6
3150.87499	23842.4
3153.21246	23844.4
3155.54853	23906.7
3157.88318	23807.6
3160.21642	23797.3
3162.54826	23774.6
3164.87868	23764
3167.2077	23700.6
3169.5353	23711.8
3171.86151	23696.7
3174.18631	23641.9
3176.5097	23634.2
3178.83169	23595.3
3181.15228	23600.9
3183.47147	23505.3
3185.78926	23535.9
3188.10565	23512.4
3190.42065	23479.5
3192.73424	23448.4
3195.04645	23426.7
3197.35725	23378.2
3199.66667	23337.6
3201.97469	23351.1
3204.28132	23284.8
3206.58656	23318
3208.8904	23304
3211.19287	23286
3213.49394	23253.3
3215.79363	23285.5
3218.09193	23253.2
3220.38884	23246.3
3222.68438	23220.3
3224.97853	23217.2
3227.2713	23163.8
3229.56269	23149.7
3231.8527	23142.3
3234.14133	23070.6
3236.42858	23047.2
3238.71446	23019
3240.99896	22988.5
3243.28209	22937.8
3245.56384	22917.7
3247.84423	22935.6
3250.12324	22923.9
3252.40088	22902.8
3254.67715	22855.7
3256.95205	22785.4
3259.22558	22743.1
3261.49775	22703.6
3263.76855	22639.7
3266.03799	22567.5
3268.30606	22551.4
3270.57277	22529.7
3272.83812	22500.7
3275.10211	22449.3
3277.36474	22438.1
3279.62601	22473.2
3281.88593	22395.5
3284.14448	22468
3286.40168	22431.6
3288.65753	22419.4
3290.91202	22386.9
3293.16516	22306.8
3295.41695	22250.3
3297.66738	22115.5
3299.91647	21995.1
3302.16421	21868.4
3304.4106	21748.1
3306.65564	21670.5
3308.89933	21505.1
3311.14169	21364.7
3313.38269	21171.6
3315.62236	21054.1
3317.86068	20860.5
3320.09766	20645.6
3322.3333	20459.3
3324.5676	20471.6
3326.80056	20126.1
3329.03219	20042
3331.26248	5
3333.49143	-0.3
3335.71905	-0.1
