Data from AgNP_FTO_APTES_CRN_0uM_R6G_10uM_NaF_0.1M_Addition_RamanShift__51__12-29-12-960.txt Node

Date: Wed Dec 15 12:29:12 GMT 2021
User: TCL
Spectrometer: QEP01345
Trigger mode: 4
Integration Time (sec): 7.000000E0
Scans to average: 10
Electric dark correction enabled: true
Nonlinearity correction enabled: false
Boxcar width: 0
XAxis mode: Raman Shifts
Number of Pixels in Spectrum: 1044
>>>>>Begin Spectral Data<<<<<
46.04893	0.6625
50.45542	-2.8375
54.85868	-0.7375
59.25871	-0.6375
63.6555	152.4625
68.04907	165.0625
72.43941	172.4625
76.82654	182.1625
81.21044	187.7625
85.59113	193.6625
89.96862	202.2625
94.34289	203.8625
98.71396	211.0625
103.08183	224.2625
107.4465	225.5625
111.80798	228.8625
116.16626	233.3625
120.52136	244.1625
124.87327	249.5625
129.222	266.4625
133.56755	279.5625
137.90993	300.9625
142.24913	326.5625
146.58517	361.5625
150.91804	415.4625
155.24774	490.9625
159.57429	605.4625
163.89768	772.5625
168.21792	1015.6625
172.53501	1375.4625
176.84895	1895.3625
181.15975	2650.4625
185.46741	3685.6625
189.77193	5069.9625
194.07331	6781.1625
198.37157	8698.5625
202.6667	10715.6625
206.9587	12750.3625
211.24758	14713.1625
215.53334	16720.9625
219.81599	18770.5625
224.09553	21145.1625
228.37195	23686.7625
232.64527	26526.9625
236.91549	29493.4625
241.18261	32469.0625
245.44663	35267.7625
249.70755	37846.1625
253.96539	40042.7625
258.22014	41839.4625
262.4718	43326.3625
266.72039	44282.4625
270.96589	44715.7625
275.20832	44673.5625
279.44768	44368.0625
283.68397	43907.6625
287.91719	43450.1625
292.14735	43183.9625
296.37445	43038.5625
300.59849	42935.9625
304.81948	43046.0625
309.03742	43184.0625
313.25231	43071.0625
317.46415	42734.8625
321.67296	42190.6625
325.87872	41673.6625
330.08145	41420.5625
334.28114	41475.2625
338.47781	41733.6625
342.67145	42095.7625
346.86207	42698.3625
351.04966	43375.9625
355.23424	44158.6625
359.4158	44844.8625
363.59435	45411.6625
367.76989	45760.0625
371.94243	45823.5625
376.11196	45946.8625
380.27849	45941.1625
384.44203	46076.4625
388.60257	46409.5625
392.76012	46915.0625
396.91468	47613.3625
401.06626	48414.5625
405.21485	48975.7625
409.36047	49031.4625
413.50311	48825.5625
417.64277	49023.7625
421.77947	49494.8625
425.9132	49901.6625
430.04396	50099.3625
434.17176	50126.5625
438.2966	50149.5625
442.41849	50708.9625
446.53742	51803.4625
450.6534	52959.5625
454.76644	53877.8625
458.87653	54118.4625
462.98368	53900.5625
467.08789	53163.4625
471.18916	52202.7625
475.2875	51179.3625
479.38291	50604.7625
483.4754	50286.0625
487.56496	50003.1625
491.6516	49607.5625
495.73531	49207.2625
499.81612	49103.6625
503.89401	49540.7625
507.96899	49975.4625
512.04106	50041.2625
516.11023	49671.3625
520.1765	49056.7625
524.23987	48401.8625
528.30034	47866.1625
532.35792	47423.3625
536.41261	46896.9625
540.46441	46426.7625
544.51333	46414.3625
548.55936	46802.1625
552.60252	47622.2625
556.64279	48627.1625
560.6802	49459.3625
564.71473	50150.3625
568.7464	51080.6625
572.7752	52659.4625
576.80114	54908.5625
580.82422	57727.6625
584.84444	61131.7625
588.86181	65154.4625
592.87633	68013.6625
596.888	66753.0625
600.89682	62341.2625
604.9028	60178.0625
608.90594	61747.5625
612.90624	63169.3625
616.90371	59096.5625
620.89834	52153.8625
624.89015	49156.3625
628.87913	48947.7625
632.86528	49270.7625
636.84862	48976.6625
640.82913	47861.7625
644.80683	46641.1625
648.78172	46136.5625
652.75379	46430.2625
656.72306	47055.6625
660.68952	47419.8625
664.65319	46977.9625
668.61405	46223.3625
672.57211	46208.4625
676.52738	46504.4625
680.47986	46466.2625
684.42955	46105.4625
688.37646	45919.6625
692.32058	46323.1625
696.26192	47114.0625
700.20048	48055.6625
704.13626	48498.8625
708.06928	48681.6625
711.99952	48662.0625
715.927	48770.7625
719.85171	48955.0625
723.77365	48677.5625
727.69284	47715.8625
731.60928	46793.6625
735.52295	46312.3625
739.43388	46236.9625
743.34206	46378.1625
747.24749	46753.7625
751.15017	47288.2625
755.05012	48180.3625
758.94733	49571.7625
762.8418	51542.9625
766.73354	54174.1625
770.62254	56115.8625
774.50882	55644.5625
778.39237	53145.5625
782.27321	50460.1625
786.15132	48527.5625
790.02671	47246.8625
793.89938	46520.8625
797.76935	46280.9625
801.6366	46301.9625
805.50115	46285.1625
809.36299	46124.2625
813.22213	45762.0625
817.07857	45497.9625
820.93231	45179.0625
824.78336	44850.7625
828.63172	44601.9625
832.47738	44527.3625
836.32036	44587.9625
840.16066	44618.9625
843.99827	44701.1625
847.8332	44683.8625
851.66546	44698.2625
855.49504	44797.4625
859.32195	44836.6625
863.1462	44761.1625
866.96777	44692.3625
870.78668	44672.0625
874.60293	44769.2625
878.41652	44795.0625
882.22745	44983.9625
886.03573	45234.5625
889.84136	45302.9625
893.64433	45212.2625
897.44466	44970.7625
901.24235	44992.5625
905.0374	44927.9625
908.8298	44957.5625
912.61957	45115.3625
916.40671	45570.1625
920.19121	46330.1625
923.97308	47017.3625
927.75233	47084.7625
931.52895	46411.0625
935.30295	45386.0625
939.07433	44505.1625
942.84309	43862.5625
946.60924	43618.5625
950.37278	43517.5625
954.13371	43609.4625
957.89203	43544.6625
961.64774	43525.0625
965.40086	43481.9625
969.15137	43330.4625
972.89929	43207.8625
976.64461	43060.3625
980.38733	42979.4625
984.12747	42971.5625
987.86502	43055.7625
991.59999	43267.7625
995.33237	43657.4625
999.06217	44273.4625
1002.78939	45209.5625
1006.51404	46331.1625
1010.23611	47417.6625
1013.95561	48045.2625
1017.67255	48032.9625
1021.38692	47322.5625
1025.09872	46427.1625
1028.80796	45759.2625
1032.51465	45557.3625
1036.21877	45842.9625
1039.92035	46059.4625
1043.61937	46196.8625
1047.31584	46149.1625
1051.00976	46260.4625
1054.70114	46508.3625
1058.38998	46826.4625
1062.07627	47551.5625
1065.76003	48556.0625
1069.44126	49750.2625
1073.11995	51289.7625
1076.79611	52370.5625
1080.46974	52608.2625
1084.14085	52400.1625
1087.80943	52463.5625
1091.47549	52614.7625
1095.13903	52491.2625
1098.80005	51552.5625
1102.45857	50115.4625
1106.11456	48928.4625
1109.76805	48216.8625
1113.41903	47956.6625
1117.06751	47971.3625
1120.71348	48171.4625
1124.35696	48441.4625
1127.99793	48706.8625
1131.63641	49054.9625
1135.2724	49321.3625
1138.90589	49551.8625
1142.5369	49876.0625
1146.16542	50304.1625
1149.79145	50761.7625
1153.415	51361.0625
1157.03607	52327.2625
1160.65467	54002.8625
1164.27079	56790.0625
1167.88443	59895.6625
1171.49561	62586.0625
1175.10432	65350.1625
1178.71056	69071.1625
1182.31434	72627.0625
1185.91565	74322.3625
1189.51451	73975.3625
1193.11091	72506.4625
1196.70485	70540.5625
1200.29634	68467.2625
1203.88538	67225.1625
1207.47197	67191.1625
1211.05612	67258.8625
1214.63782	66648.6625
1218.21708	64848.6625
1221.79391	62554.1625
1225.36829	60742.7625
1228.94024	59656.4625
1232.50976	58824.8625
1236.07685	58008.4625
1239.6415	57452.4625
1243.20374	57329.9625
1246.76355	57753.7625
1250.32093	58612.7625
1253.8759	59934.4625
1257.42845	61494.2625
1260.97859	63420.5625
1264.52631	65533.9625
1268.07163	67587.7625
1271.61453	69689.6625
1275.15503	71911.0625
1278.69312	74178.5625
1282.22882	76757.7625
1285.76211	79736.2625
1289.29301	83065.2625
1292.82151	86723.0625
1296.34761	91066.8625
1299.87133	96258.8625
1303.39266	101320.8625
1306.9116	105219.3625
1310.42815	107324.6625
1313.94233	107626.9625
1317.45412	106608.0625
1320.96354	105475.5625
1324.47058	105135.1625
1327.97525	105671.9625
1331.47754	106191.5625
1334.97747	105987.7625
1338.47502	104689.7625
1341.97022	102598.8625
1345.46305	100091.6625
1348.95352	97698.7625
1352.44163	96405.8625
1355.92738	97359.3625
1359.41078	100438.5625
1362.89183	103291.4625
1366.37053	103218.7625
1369.84688	97789.5625
1373.32088	88597.8625
1376.79254	81244.3625
1380.26186	78348.3625
1383.72883	78673.2625
1387.19347	79108.2625
1390.65578	78370.5625
1394.11575	77746.4625
1397.57339	78574.5625
1401.0287	80374.6625
1404.48168	82072.2625
1407.93234	82197.6625
1411.38068	80570.2625
1414.82669	77676.0625
1418.27039	74206.9625
1421.71177	70869.2625
1425.15083	68415.6625
1428.58758	67623.9625
1432.02203	68692.0625
1435.45416	71046.4625
1438.88399	73700.2625
1442.31151	75434.9625
1445.73673	76045.6625
1449.15965	75967.2625
1452.58027	75372.1625
1455.9986	74645.2625
1459.41463	74706.2625
1462.82837	75814.2625
1466.23982	77479.5625
1469.64898	78856.0625
1473.05586	79539.4625
1476.46045	79744.1625
1479.86276	79400.8625
1483.26279	78608.7625
1486.66054	78303.8625
1490.05602	78545.0625
1493.44922	79055.9625
1496.84016	79329.9625
1500.22882	79620.0625
1503.61521	79996.2625
1506.99934	80530.7625
1510.38121	80776.2625
1513.76081	80636.7625
1517.13816	80340.5625
1520.51324	80148.9625
1523.88607	80676.4625
1527.25665	81771.3625
1530.62498	82676.2625
1533.99105	82443.1625
1537.35488	81107.6625
1540.71647	78720.1625
1544.07581	76016.2625
1547.4329	73444.8625
1550.78776	71303.6625
1554.14038	69865.2625
1557.49077	68967.3625
1560.83892	68493.8625
1564.18484	67990.6625
1567.52853	67812.9625
1570.86999	68457.7625
1574.20922	70288.9625
1577.54624	72614.8625
1580.88103	74647.6625
1584.2136	77120.2625
1587.54395	80620.2625
1590.87208	85099.5625
1594.19801	89880.0625
1597.52172	93541.9625
1600.84321	93077.0625
1604.16251	87239.4625
1607.47959	79143.3625
1610.79447	71519.9625
1614.10715	65190.3625
1617.41763	60263.1625
1620.7259	57072.2625
1624.03199	55594.6625
1627.33587	55871.4625
1630.63757	57805.1625
1633.93707	62179.5625
1637.23439	69536.9625
1640.52951	80139.6625
1643.82246	92585.3625
1647.11321	101675.8625
1650.40179	101567.3625
1653.68819	92038.5625
1656.97241	78312.0625
1660.25446	65989.3625
1663.53433	57393.9625
1666.81203	51981.0625
1670.08756	48565.2625
1673.36092	46473.4625
1676.63211	45178.6625
1679.90115	44165.2625
1683.16801	43465.8625
1686.43272	42917.3625
1689.69527	42574.7625
1692.95567	42251.3625
1696.2139	42077.2625
1699.46999	41926.0625
1702.72392	41747.5625
1705.97571	41653.1625
1709.22535	41554.1625
1712.47284	41458.0625
1715.71819	41401.4625
1718.96139	41258.4625
1722.20246	41120.1625
1725.44139	40900.6625
1728.67818	40639.5625
1731.91284	40421.4625
1735.14537	40232.8625
1738.37576	40033.7625
1741.60403	39852.3625
1744.83017	39756.9625
1748.05418	39625.9625
1751.27607	39560.2625
1754.49584	39443.0625
1757.71349	39390.9625
1760.92903	39377.0625
1764.14244	39273.6625
1767.35375	39273.9625
1770.56294	39244.1625
1773.77002	39208.7625
1776.97499	39167.7625
1780.17785	39103.9625
1783.37861	39052.5625
1786.57727	38972.9625
1789.77382	38886.0625
1792.96828	38781.5625
1796.16064	38667.6625
1799.3509	38677.9625
1802.53907	38611.7625
1805.72514	38509.9625
1808.90913	38358.6625
1812.09102	38311.4625
1815.27083	38277.2625
1818.44856	38238.6625
1821.6242	38191.1625
1824.79776	38142.4625
1827.96924	38205.0625
1831.13864	38198.3625
1834.30597	38193.5625
1837.47122	38164.7625
1840.6344	38165.6625
1843.7955	38208.5625
1846.95454	38206.5625
1850.11151	38167.3625
1853.26642	38084.5625
1856.41926	38130.3625
1859.57004	38055.9625
1862.71876	37986.8625
1865.86542	37923.2625
1869.01003	37841.0625
1872.15258	37803.0625
1875.29308	37782.6625
1878.43152	37660.7625
1881.56792	37667.1625
1884.70227	37635.9625
1887.83457	37622.7625
1890.96482	37524.1625
1894.09304	37533.0625
1897.21921	37475.7625
1900.34335	37422.0625
1903.46544	37411.9625
1906.58551	37371.9625
1909.70353	37292.9625
1912.81953	37238.3625
1915.93349	37114.1625
1919.04543	36994.1625
1922.15534	36973.2625
1925.26322	36869.8625
1928.36908	36761.5625
1931.47292	36689.7625
1934.57473	36534.2625
1937.67453	36501.4625
1940.77232	36467.6625
1943.86808	36321.1625
1946.96184	36222.6625
1950.05358	36091.6625
1953.14331	36012.9625
1956.23103	35940.9625
1959.31675	35852.1625
1962.40046	35860.5625
1965.48217	35689.1625
1968.56188	35552.5625
1971.63959	35469.1625
1974.7153	35345.1625
1977.78901	35243.7625
1980.86073	35099.4625
1983.93046	35056.5625
1986.99819	34866.6625
1990.06394	34871.7625
1993.1277	34756.5625
1996.18947	34673.3625
1999.24925	34576.6625
2002.30706	34432.9625
2005.36288	34355.9625
2008.41672	34304.3625
2011.46859	34184.2625
2014.51848	34055.9625
2017.56639	34058.7625
2020.61233	33969.5625
2023.6563	33867.6625
2026.6983	33784.7625
2029.73833	33724.1625
2032.7764	33646.8625
2035.8125	33590.9625
2038.84664	33511.6625
2041.87881	33446.8625
2044.90903	33359.6625
2047.93729	33317.7625
2050.96359	33318.6625
2053.98794	33216.3625
2057.01034	33231.5625
2060.03078	33192.1625
2063.04927	33150.3625
2066.06582	33175.1625
2069.08042	33184.6625
2072.09307	33170.7625
2075.10378	33129.2625
2078.11255	33063.6625
2081.11938	33092.2625
2084.12426	33054.9625
2087.12722	33015.1625
2090.12824	33038.4625
2093.12732	33052.4625
2096.12447	33010.7625
2099.11969	32987.1625
2102.11299	33022.8625
2105.10435	33038.8625
2108.09379	33096.8625
2111.08131	33082.3625
2114.0669	33099.1625
2117.05057	33068.4625
2120.03233	33071.7625
2123.01216	33082.9625
2125.99008	33129.0625
2128.96609	33151.9625
2131.94018	33125.3625
2134.91236	33136.4625
2137.88263	33183.9625
2140.851	33161.8625
2143.81746	33234.5625
2146.78201	33187.6625
2149.74466	33177.1625
2152.7054	33215.0625
2155.66425	33218.1625
2158.6212	33174.4625
2161.57625	33164.4625
2164.52941	33191.0625
2167.48067	33201.7625
2170.43004	33157.4625
2173.37752	33115.8625
2176.32311	33065.0625
2179.26681	33086.8625
2182.20863	33122.3625
2185.14856	33135.8625
2188.08661	33146.7625
2191.02278	33141.6625
2193.95707	33093.5625
2196.88948	33118.7625
2199.82001	33123.8625
2202.74867	33039.3625
2205.67545	32985.2625
2208.60037	32947.7625
2211.52341	32876.5625
2214.44458	32828.2625
2217.36388	32760.2625
2220.28132	32744.0625
2223.1969	32720.2625
2226.11061	32701.9625
2229.02246	32584.1625
2231.93245	32560.3625
2234.84058	32527.8625
2237.74686	32494.8625
2240.65128	32495.8625
2243.55385	32451.1625
2246.45456	32349.3625
2249.35343	32296.7625
2252.25044	32216.6625
2255.14561	32116.4625
2258.03893	32100.2625
2260.93041	32032.8625
2263.82004	31976.6625
2266.70783	31883.0625
2269.59378	31777.1625
2272.4779	31744.5625
2275.36017	31671.1625
2278.24061	31604.2625
2281.11922	31541.1625
2283.996	31508.7625
2286.87094	31462.6625
2289.74405	31348.8625
2292.61534	31367.8625
2295.4848	31289.3625
2298.35243	31291.7625
2301.21824	31298.4625
2304.08223	31349.9625
2306.94439	31338.4625
2309.80474	31275.3625
2312.66327	31229.7625
2315.51999	31198.3625
2318.37489	31173.5625
2321.22797	31156.6625
2324.07925	31145.7625
2326.92871	31050.7625
2329.77637	31073.4625
2332.62222	31023.3625
2335.46626	30984.1625
2338.3085	30950.6625
2341.14893	30994.3625
2343.98756	30974.2625
2346.8244	30908.0625
2349.65943	30879.8625
2352.49267	30836.3625
2355.32411	30826.8625
2358.15376	30842.8625
2360.98161	30780.5625
2363.80768	30771.8625
2366.63195	30801.9625
2369.45444	30743.3625
2372.27514	30705.6625
2375.09405	30622.4625
2377.91118	30641.8625
2380.72652	30518.5625
2383.54009	30467.3625
2386.35187	30483.6625
2389.16188	30418.5625
2391.97011	30354.8625
2394.77657	30381.3625
2397.58125	30288.6625
2400.38416	30222.7625
2403.18529	30167.7625
2405.98466	30136.1625
2408.78226	30105.4625
2411.57809	30087.5625
2414.37216	30040.5625
2417.16446	30055.5625
2419.955	29983.4625
2422.74378	29987.5625
2425.5308	29956.7625
2428.31606	29912.2625
2431.09956	29890.1625
2433.88131	29810.3625
2436.6613	29882.4625
2439.43954	29790.8625
2442.21603	29813.7625
2444.99077	29760.9625
2447.76377	29763.9625
2450.53501	29723.7625
2453.30451	29755.7625
2456.07226	29729.4625
2458.83827	29760.3625
2461.60254	29738.9625
2464.36507	29705.3625
2467.12586	29676.3625
2469.88492	29686.0625
2472.64224	29726.6625
2475.39782	29686.1625
2478.15167	29673.2625
2480.90379	29632.0625
2483.65417	29604.3625
2486.40283	29620.5625
2489.14976	29616.1625
2491.89497	29624.0625
2494.63845	29585.1625
2497.3802	29580.1625
2500.12024	29579.0625
2502.85855	29589.8625
2505.59514	29582.1625
2508.33002	29547.5625
2511.06318	29491.0625
2513.79462	29473.1625
2516.52435	29476.0625
2519.25237	29455.6625
2521.97867	29416.0625
2524.70327	29465.4625
2527.42616	29406.2625
2530.14734	29496.9625
2532.86681	29471.5625
2535.58458	29388.5625
2538.30065	29333.8625
2541.01501	29311.5625
2543.72768	29269.6625
2546.43864	29273.8625
2549.14791	29254.1625
2551.85548	29255.2625
2554.56136	29252.5625
2557.26554	29161.1625
2559.96803	29126.3625
2562.66883	29116.5625
2565.36794	29100.3625
2568.06536	29078.4625
2570.7611	28997.1625
2573.45514	29010.4625
2576.14751	29058.3625
2578.83819	28986.2625
2581.52719	28903.6625
2584.21451	28853.2625
2586.90015	28857.5625
2589.58411	28823.2625
2592.2664	28827.1625
2594.94701	28765.0625
2597.62594	28728.5625
2600.30321	28668.9625
2602.9788	28741.2625
2605.65273	28680.9625
2608.32498	28686.1625
2610.99557	28698.8625
2613.66449	28665.7625
2616.33175	28630.3625
2618.99734	28583.5625
2621.66128	28562.4625
2624.32355	28562.3625
2626.98416	28545.0625
2629.64311	28520.0625
2632.30041	28504.0625
2634.95605	28469.4625
2637.61004	28478.6625
2640.26238	28446.0625
2642.91306	28443.8625
2645.56209	28423.6625
2648.20948	28419.3625
2650.85521	28392.6625
2653.4993	28471.4625
2656.14175	28483.5625
2658.78255	28523.7625
2661.42171	28489.7625
2664.05923	28520.0625
2666.6951	28520.2625
2669.32934	28522.0625
2671.96194	28533.6625
2674.59291	28488.3625
2677.22224	28464.5625
2679.84993	28521.6625
2682.476	28520.6625
2685.10043	28475.4625
2687.72324	28443.0625
2690.34441	28480.0625
2692.96396	28480.7625
2695.58188	28561.0625
2698.19818	28495.8625
2700.81285	28472.8625
2703.4259	28474.7625
2706.03733	28527.8625
2708.64714	28494.1625
2711.25533	28536.7625
2713.86191	28540.2625
2716.46687	28542.2625
2719.07021	28522.9625
2721.67194	28566.1625
2724.27206	28529.1625
2726.87057	28619.2625
2729.46747	28581.0625
2732.06276	28601.4625
2734.65644	28638.1625
2737.24852	28619.5625
2739.83899	28595.8625
2742.42786	28611.2625
2745.01513	28601.1625
2747.60079	28584.9625
2750.18486	28529.3625
2752.76733	28526.0625
2755.3482	28513.2625
2757.92747	28569.8625
2760.50515	28529.1625
2763.08123	28463.4625
2765.65573	28454.9625
2768.22863	28435.9625
2770.79994	28409.4625
2773.36967	28383.0625
2775.9378	28384.7625
2778.50435	28360.0625
2781.06932	28337.4625
2783.6327	28301.9625
2786.1945	28252.0625
2788.75471	28216.6625
2791.31335	28167.3625
2793.87041	28204.1625
2796.42589	28101.9625
2798.97979	28068.5625
2801.53212	28034.5625
2804.08288	28022.1625
2806.63206	27910.5625
2809.17967	27876.0625
2811.72571	27794.9625
2814.27018	27824.3625
2816.81308	27742.0625
2819.35442	27702.2625
2821.89419	27641.3625
2824.43239	27580.5625
2826.96904	27563.1625
2829.50412	27559.2625
2832.03763	27535.8625
2834.56959	27495.0625
2837.1	27470.0625
2839.62884	27454.8625
2842.15613	27342.9625
2844.68186	27367.2625
2847.20604	27323.1625
2849.72867	27303.4625
2852.24974	27277.2625
2854.76927	27308.6625
2857.28724	27225.3625
2859.80367	27242.0625
2862.31855	27187.1625
2864.83189	27173.6625
2867.34368	27147.7625
2869.85393	27145.7625
2872.36264	27036.6625
2874.8698	27046.3625
2877.37543	27092.0625
2879.87952	27095.4625
2882.38207	27102.5625
2884.88308	27065.2625
2887.38256	27106.7625
2889.88051	27120.5625
2892.37692	27125.3625
2894.8718	27161.1625
2897.36515	27135.7625
2899.85698	27140.3625
2902.34727	27184.0625
2904.83604	27205.0625
2907.32328	27199.5625
2909.809	27211.4625
2912.29319	27214.0625
2914.77587	27152.5625
2917.25702	27153.1625
2919.73665	27135.7625
2922.21476	27158.4625
2924.69136	27136.8625
2927.16644	27133.6625
2929.64	27096.0625
2932.11205	27069.2625
2934.58258	26982.2625
2937.05161	27081.8625
2939.51912	27037.6625
2941.98513	27101.3625
2944.44962	26983.2625
2946.91261	26855.6625
2949.37409	26901.6625
2951.83407	26891.2625
2954.29254	26887.8625
2956.74951	26832.9625
2959.20498	26804.3625
2961.65895	26802.8625
2964.11142	26762.7625
2966.56239	26682.2625
2969.01186	26660.1625
2971.45984	26593.8625
2973.90632	26535.3625
2976.35131	26495.3625
2978.7948	26498.8625
2981.23681	26394.0625
2983.67732	26349.6625
2986.11635	26301.6625
2988.55388	26205.0625
2990.98993	26163.0625
2993.4245	26118.3625
2995.85758	26051.2625
2998.28917	25926.3625
3000.71928	25921.5625
3003.14791	25800.1625
3005.57506	25728.0625
3008.00073	25704.0625
3010.42493	25720.2625
3012.84764	25687.9625
3015.26888	25650.3625
3017.68865	25581.2625
3020.10694	25567.1625
3022.52376	25468.6625
3024.9391	25467.5625
3027.35298	25402.0625
3029.76539	25385.4625
3032.17632	25332.6625
3034.5858	25281.8625
3036.9938	25270.5625
3039.40034	25234.3625
3041.80542	25195.1625
3044.20903	25176.0625
3046.61118	25163.2625
3049.01187	25063.9625
3051.4111	25055.4625
3053.80888	24941.6625
3056.20519	24924.3625
3058.60005	24887.5625
3060.99345	24805.0625
3063.3854	24740.1625
3065.7759	24672.1625
3068.16494	24605.4625
3070.55254	24522.8625
3072.93868	24466.1625
3075.32338	24362.2625
3077.70662	24317.1625
3080.08842	24255.2625
3082.46878	24241.9625
3084.84769	24162.5625
3087.22515	24180.6625
3089.60118	24213.0625
3091.97576	24187.0625
3094.3489	24107.4625
3096.72061	24095.5625
3099.09087	24121.4625
3101.4597	24028.7625
3103.82709	24029.5625
3106.19305	23958.6625
3108.55757	23943.8625
3110.92066	23903.7625
3113.28232	23821.8625
3115.64255	23780.4625
3118.00134	23705.1625
3120.35871	23635.4625
3122.71466	23584.2625
3125.06917	23541.0625
3127.42226	23487.9625
3129.77393	23524.4625
3132.12417	23464.4625
3134.47299	23468.4625
3136.82039	23441.0625
3139.16636	23488.0625
3141.51092	23397.1625
3143.85406	23411.0625
3146.19579	23408.5625
3148.53609	23379.0625
3150.87499	23325.8625
3153.21246	23334.0625
3155.54853	23405.8625
3157.88318	23325.1625
3160.21642	23336.9625
3162.54826	23308.9625
3164.87868	23254.8625
3167.2077	23215.7625
3169.5353	23221.5625
3171.86151	23194.6625
3174.18631	23151.1625
3176.5097	23144.5625
3178.83169	23096.6625
3181.15228	23092.9625
3183.47147	23008.7625
3185.78926	23011.1625
3188.10565	22999.6625
3190.42065	22970.5625
3192.73424	22955.6625
3195.04645	22939.3625
3197.35725	22920.0625
3199.66667	22871.3625
3201.97469	22871.1625
3204.28132	22801.9625
3206.58656	22844.9625
3208.8904	22801.5625
3211.19287	22818.5625
3213.49394	22783.6625
3215.79363	22787.5625
3218.09193	22777.4625
3220.38884	22758.3625
3222.68438	22703.1625
3224.97853	22725.2625
3227.2713	22723.5625
3229.56269	22652.2625
3231.8527	22654.3625
3234.14133	22614.2625
3236.42858	22546.4625
3238.71446	22530.1625
3240.99896	22508.2625
3243.28209	22458.4625
3245.56384	22453.4625
3247.84423	22480.3625
3250.12324	22439.9625
3252.40088	22404.8625
3254.67715	22359.9625
3256.95205	22272.7625
3259.22558	22277.0625
3261.49775	22148.7625
3263.76855	22140.3625
3266.03799	22068.3625
3268.30606	22062.3625
3270.57277	22065.7625
3272.83812	22001.5625
3275.10211	21980.7625
3277.36474	21950.6625
3279.62601	21942.7625
3281.88593	21935.8625
3284.14448	21981.7625
3286.40168	21953.6625
3288.65753	21919.4625
3290.91202	21893.5625
3293.16516	21803.3625
3295.41695	21741.7625
3297.66738	21612.0625
3299.91647	21515.1625
3302.16421	21334.4625
3304.4106	21287.0625
3306.65564	21177.6625
3308.89933	21032.4625
3311.14169	20839.0625
3313.38269	20707.8625
3315.62236	20582.8625
3317.86068	20398.2625
3320.09766	20187.8625
3322.3333	19987.6625
3324.5676	19978.5625
3326.80056	19649.6625
3329.03219	19561.3625
3331.26248	5.1625
3333.49143	-0.1375
3335.71905	-0.0375
