Data from AgNP_FTO_APTES_CRN_2uM_R6G_10uM_NaF_0.1M_Addition_RamanShift__5__14-40-49-329.txt Node

Date: Wed Dec 15 14:40:49 GMT 2021
User: TCL
Spectrometer: QEP01345
Trigger mode: 4
Integration Time (sec): 7.000000E0
Scans to average: 10
Electric dark correction enabled: true
Nonlinearity correction enabled: false
Boxcar width: 0
XAxis mode: Raman Shifts
Number of Pixels in Spectrum: 1044
>>>>>Begin Spectral Data<<<<<
46.04893	-1.0375
50.45542	-2.1375
54.85868	-1.1375
59.25871	-2.7375
63.6555	147.8625
68.04907	161.1625
72.43941	163.0625
76.82654	172.2625
81.21044	177.3625
85.59113	184.8625
89.96862	194.8625
94.34289	189.9625
98.71396	203.3625
103.08183	209.0625
107.4465	214.1625
111.80798	215.4625
116.16626	226.3625
120.52136	233.5625
124.87327	239.7625
129.222	254.3625
133.56755	267.2625
137.90993	292.4625
142.24913	319.3625
146.58517	350.8625
150.91804	411.4625
155.24774	484.8625
159.57429	603.5625
163.89768	769.9625
168.21792	1011.6625
172.53501	1375.9625
176.84895	1922.6625
181.15975	2691.6625
185.46741	3771.2625
189.77193	5173.3625
194.07331	6909.5625
198.37157	8887.6625
202.6667	10968.3625
206.9587	13007.5625
211.24758	15031.4625
215.53334	17069.6625
219.81599	19243.5625
224.09553	21577.9625
228.37195	24142.4625
232.64527	27072.1625
236.91549	30084.5625
241.18261	33115.4625
245.44663	36014.2625
249.70755	38582.0625
253.96539	40853.1625
258.22014	42754.6625
262.4718	44376.0625
266.72039	45402.9625
270.96589	45964.0625
275.20832	46033.5625
279.44768	45805.2625
283.68397	45348.4625
287.91719	44987.8625
292.14735	44709.3625
296.37445	44625.5625
300.59849	44671.9625
304.81948	44728.4625
309.03742	44745.7625
313.25231	44466.1625
317.46415	43944.5625
321.67296	43258.2625
325.87872	42591.3625
330.08145	42300.1625
334.28114	42357.2625
338.47781	42644.0625
342.67145	43106.5625
346.86207	43692.6625
351.04966	44471.1625
355.23424	45334.1625
359.4158	46119.4625
363.59435	46849.4625
367.76989	47359.5625
371.94243	47684.1625
376.11196	47888.8625
380.27849	47980.8625
384.44203	48228.9625
388.60257	48544.6625
392.76012	49086.8625
396.91468	49809.0625
401.06626	50580.0625
405.21485	51153.5625
409.36047	51230.3625
413.50311	51167.9625
417.64277	51245.9625
421.77947	51631.0625
425.9132	51927.3625
430.04396	52284.2625
434.17176	52438.3625
438.2966	52444.2625
442.41849	52869.4625
446.53742	54069.9625
450.6534	55465.8625
454.76644	56604.6625
458.87653	56984.9625
462.98368	56674.8625
467.08789	55751.3625
471.18916	54739.5625
475.2875	53650.8625
479.38291	52951.6625
483.4754	52448.6625
487.56496	52067.0625
491.6516	51555.8625
495.73531	51390.1625
499.81612	51525.3625
503.89401	52151.6625
507.96899	52567.5625
512.04106	52700.4625
516.11023	52413.2625
520.1765	51720.0625
524.23987	51162.3625
528.30034	50643.4625
532.35792	50102.4625
536.41261	49389.7625
540.46441	48938.2625
544.51333	48943.7625
548.55936	49401.9625
552.60252	50316.5625
556.64279	51308.4625
560.6802	51966.0625
564.71473	52502.2625
568.7464	53323.2625
572.7752	54778.3625
576.80114	56674.7625
580.82422	58904.4625
584.84444	61527.7625
588.86181	64024.8625
592.87633	65056.4625
596.888	63675.7625
600.89682	61233.8625
604.9028	61175.2625
608.90594	64071.2625
612.90624	66542.9625
616.90371	62437.6625
620.89834	54922.1625
624.89015	51708.4625
628.87913	51294.5625
632.86528	51353.0625
636.84862	50942.7625
640.82913	50155.1625
644.80683	49185.1625
648.78172	48661.5625
652.75379	48818.4625
656.72306	49351.3625
660.68952	49816.4625
664.65319	49433.0625
668.61405	48822.6625
672.57211	48837.6625
676.52738	49080.3625
680.47986	49011.0625
684.42955	48584.5625
688.37646	48560.4625
692.32058	48961.7625
696.26192	49718.0625
700.20048	50534.3625
704.13626	50936.0625
708.06928	50879.9625
711.99952	50614.7625
715.927	50759.1625
719.85171	51121.0625
723.77365	50950.9625
727.69284	50206.4625
731.60928	49444.1625
735.52295	49021.3625
739.43388	48882.4625
743.34206	49018.0625
747.24749	49391.2625
751.15017	49884.1625
755.05012	50711.2625
758.94733	51997.6625
762.8418	53989.5625
766.73354	56661.1625
770.62254	58877.3625
774.50882	58701.5625
778.39237	56292.8625
782.27321	53454.5625
786.15132	51213.7625
790.02671	49919.4625
793.89938	49317.3625
797.76935	49118.8625
801.6366	49149.8625
805.50115	49206.1625
809.36299	49036.5625
813.22213	48532.3625
817.07857	48029.2625
820.93231	47717.8625
824.78336	47450.5625
828.63172	47369.0625
832.47738	47347.3625
836.32036	47458.7625
840.16066	47663.5625
843.99827	47785.0625
847.8332	47636.0625
851.66546	47600.9625
855.49504	47651.3625
859.32195	47634.2625
863.1462	47512.3625
866.96777	47351.5625
870.78668	47341.8625
874.60293	47332.9625
878.41652	47400.3625
882.22745	47568.2625
886.03573	47743.2625
889.84136	47712.6625
893.64433	47572.4625
897.44466	47367.1625
901.24235	47255.6625
905.0374	47198.2625
908.8298	47142.1625
912.61957	47209.7625
916.40671	47646.0625
920.19121	48364.8625
923.97308	48950.0625
927.75233	49033.7625
931.52895	48530.8625
935.30295	47771.5625
939.07433	47056.7625
942.84309	46693.4625
946.60924	46581.6625
950.37278	46615.6625
954.13371	46583.1625
957.89203	46455.5625
961.64774	46372.4625
965.40086	46392.8625
969.15137	46292.9625
972.89929	46168.1625
976.64461	46146.4625
980.38733	46266.4625
984.12747	46448.1625
987.86502	46691.4625
991.59999	47148.9625
995.33237	47793.8625
999.06217	48907.1625
1002.78939	50432.2625
1006.51404	51654.5625
1010.23611	52689.8625
1013.95561	53227.8625
1017.67255	53007.5625
1021.38692	52262.0625
1025.09872	51448.6625
1028.80796	51350.7625
1032.51465	52133.5625
1036.21877	53174.3625
1039.92035	53508.1625
1043.61937	53165.0625
1047.31584	52329.5625
1051.00976	51528.5625
1054.70114	51137.9625
1058.38998	51234.1625
1062.07627	51783.3625
1065.76003	52684.0625
1069.44126	53779.4625
1073.11995	55213.0625
1076.79611	56282.4625
1080.46974	56623.2625
1084.14085	56511.2625
1087.80943	56398.7625
1091.47549	56196.7625
1095.13903	55880.8625
1098.80005	55049.5625
1102.45857	53796.4625
1106.11456	52893.2625
1109.76805	52432.0625
1113.41903	52275.3625
1117.06751	52310.6625
1120.71348	52497.4625
1124.35696	52770.4625
1127.99793	53201.4625
1131.63641	53548.4625
1135.2724	53754.4625
1138.90589	53898.1625
1142.5369	54195.1625
1146.16542	54526.9625
1149.79145	54806.1625
1153.415	55346.6625
1157.03607	56331.0625
1160.65467	58266.4625
1164.27079	61392.5625
1167.88443	64796.2625
1171.49561	67742.4625
1175.10432	71090.6625
1178.71056	75543.5625
1182.31434	79992.4625
1185.91565	82552.4625
1189.51451	82185.6625
1193.11091	80376.9625
1196.70485	77790.9625
1200.29634	75248.5625
1203.88538	73732.2625
1207.47197	73298.0625
1211.05612	73071.4625
1214.63782	72072.8625
1218.21708	70302.4625
1221.79391	68259.5625
1225.36829	66680.8625
1228.94024	65449.5625
1232.50976	64434.0625
1236.07685	63648.9625
1239.6415	63297.5625
1243.20374	63405.6625
1246.76355	63991.9625
1250.32093	65089.2625
1253.8759	66624.8625
1257.42845	68475.4625
1260.97859	70521.1625
1264.52631	72702.6625
1268.07163	74998.1625
1271.61453	77352.1625
1275.15503	79836.9625
1278.69312	82194.4625
1282.22882	84166.3625
1285.76211	86342.3625
1289.29301	88888.6625
1292.82151	92046.3625
1296.34761	96324.5625
1299.87133	101834.6625
1303.39266	108070.4625
1306.9116	113571.7625
1310.42815	117141.1625
1313.94233	118191.7625
1317.45412	117240.4625
1320.96354	115729.7625
1324.47058	114893.7625
1327.97525	114964.7625
1331.47754	115327.6625
1334.97747	115669.2625
1338.47502	115082.5625
1341.97022	113358.9625
1345.46305	110621.9625
1348.95352	107957.6625
1352.44163	106438.8625
1355.92738	107422.9625
1359.41078	110569.8625
1362.89183	112953.8625
1366.37053	111179.3625
1369.84688	104199.8625
1373.32088	94597.0625
1376.79254	87566.9625
1380.26186	84908.6625
1383.72883	85053.1625
1387.19347	85319.0625
1390.65578	84453.8625
1394.11575	83893.6625
1397.57339	84733.1625
1401.0287	86779.7625
1404.48168	89125.2625
1407.93234	90129.5625
1411.38068	89307.0625
1414.82669	86797.1625
1418.27039	83363.1625
1421.71177	79766.2625
1425.15083	76955.3625
1428.58758	75794.2625
1432.02203	76672.8625
1435.45416	79169.2625
1438.88399	82007.9625
1442.31151	84158.0625
1445.73673	85027.8625
1449.15965	85163.1625
1452.58027	84560.6625
1455.9986	83781.3625
1459.41463	83859.0625
1462.82837	85152.2625
1466.23982	86853.9625
1469.64898	88705.1625
1473.05586	89732.7625
1476.46045	90056.2625
1479.86276	89370.8625
1483.26279	88270.0625
1486.66054	87515.7625
1490.05602	87433.1625
1493.44922	87552.5625
1496.84016	87392.7625
1500.22882	87324.2625
1503.61521	87836.2625
1506.99934	88639.2625
1510.38121	89136.6625
1513.76081	88883.1625
1517.13816	87777.2625
1520.51324	86496.6625
1523.88607	85971.4625
1527.25665	86367.6625
1530.62498	87226.1625
1533.99105	87622.9625
1537.35488	87091.6625
1540.71647	85713.3625
1544.07581	83789.4625
1547.4329	81682.4625
1550.78776	79761.4625
1554.14038	78208.6625
1557.49077	77202.4625
1560.83892	76300.0625
1564.18484	75762.8625
1567.52853	75536.5625
1570.86999	76165.9625
1574.20922	77967.5625
1577.54624	80181.2625
1580.88103	82263.6625
1584.2136	84609.2625
1587.54395	88169.6625
1590.87208	93112.4625
1594.19801	98790.5625
1597.52172	103730.3625
1600.84321	104383.7625
1604.16251	98845.8625
1607.47959	90342.2625
1610.79447	81764.4625
1614.10715	74310.3625
1617.41763	68461.9625
1620.7259	64650.7625
1624.03199	62845.2625
1627.33587	63063.7625
1630.63757	65223.2625
1633.93707	69637.5625
1637.23439	77024.9625
1640.52951	87251.3625
1643.82246	98235.4625
1647.11321	105350.3625
1650.40179	104092.1625
1653.68819	94518.8625
1656.97241	81337.9625
1660.25446	69839.6625
1663.53433	61709.4625
1666.81203	56503.0625
1670.08756	53215.3625
1673.36092	51223.1625
1676.63211	49870.0625
1679.90115	48805.4625
1683.16801	48061.1625
1686.43272	47571.5625
1689.69527	47189.0625
1692.95567	46844.0625
1696.2139	46663.0625
1699.46999	46535.7625
1702.72392	46347.8625
1705.97571	46279.3625
1709.22535	46175.0625
1712.47284	46042.3625
1715.71819	46050.1625
1718.96139	45879.8625
1722.20246	45766.3625
1725.44139	45582.1625
1728.67818	45326.7625
1731.91284	45097.1625
1735.14537	44833.6625
1738.37576	44623.7625
1741.60403	44521.6625
1744.83017	44353.9625
1748.05418	44223.3625
1751.27607	44099.6625
1754.49584	44031.9625
1757.71349	44001.1625
1760.92903	43980.4625
1764.14244	43938.8625
1767.35375	44006.1625
1770.56294	43953.8625
1773.77002	43935.6625
1776.97499	43840.2625
1780.17785	43801.3625
1783.37861	43677.8625
1786.57727	43628.3625
1789.77382	43524.3625
1792.96828	43486.9625
1796.16064	43451.9625
1799.3509	43381.3625
1802.53907	43329.9625
1805.72514	43175.5625
1808.90913	43101.8625
1812.09102	42991.7625
1815.27083	42952.8625
1818.44856	42901.4625
1821.6242	42899.0625
1824.79776	42914.5625
1827.96924	42905.7625
1831.13864	42926.8625
1834.30597	42985.1625
1837.47122	43016.0625
1840.6344	43005.3625
1843.7955	43023.0625
1846.95454	43030.1625
1850.11151	43046.7625
1853.26642	43034.0625
1856.41926	43059.9625
1859.57004	43015.6625
1862.71876	42884.3625
1865.86542	42865.6625
1869.01003	42875.9625
1872.15258	42893.3625
1875.29308	42818.9625
1878.43152	42746.5625
1881.56792	42752.9625
1884.70227	42706.7625
1887.83457	42696.1625
1890.96482	42641.5625
1894.09304	42594.2625
1897.21921	42566.5625
1900.34335	42514.0625
1903.46544	42394.6625
1906.58551	42382.1625
1909.70353	42317.6625
1912.81953	42214.5625
1915.93349	42163.1625
1919.04543	41998.9625
1922.15534	42039.4625
1925.26322	41843.1625
1928.36908	41793.9625
1931.47292	41711.5625
1934.57473	41581.6625
1937.67453	41481.4625
1940.77232	41464.5625
1943.86808	41294.5625
1946.96184	41215.5625
1950.05358	41093.6625
1953.14331	40922.2625
1956.23103	40893.1625
1959.31675	40796.7625
1962.40046	40651.0625
1965.48217	40609.4625
1968.56188	40444.5625
1971.63959	40388.8625
1974.7153	40233.8625
1977.78901	40157.4625
1980.86073	40002.7625
1983.93046	39913.3625
1986.99819	39834.6625
1990.06394	39782.5625
1993.1277	39702.4625
1996.18947	39549.3625
1999.24925	39434.9625
2002.30706	39239.5625
2005.36288	39194.0625
2008.41672	39183.0625
2011.46859	39047.5625
2014.51848	38960.7625
2017.56639	38898.6625
2020.61233	38825.2625
2023.6563	38799.5625
2026.6983	38708.9625
2029.73833	38636.7625
2032.7764	38574.4625
2035.8125	38523.9625
2038.84664	38383.1625
2041.87881	38373.1625
2044.90903	38354.4625
2047.93729	38255.9625
2050.96359	38206.4625
2053.98794	38194.7625
2057.01034	38177.8625
2060.03078	38146.9625
2063.04927	38115.1625
2066.06582	38150.4625
2069.08042	38118.5625
2072.09307	38095.3625
2075.10378	38070.2625
2078.11255	37999.4625
2081.11938	38034.8625
2084.12426	38011.9625
2087.12722	38004.7625
2090.12824	38000.0625
2093.12732	38024.0625
2096.12447	37983.1625
2099.11969	37939.9625
2102.11299	37968.6625
2105.10435	37984.9625
2108.09379	38082.6625
2111.08131	38154.2625
2114.0669	38143.1625
2117.05057	38151.2625
2120.03233	38186.4625
2123.01216	38162.0625
2125.99008	38210.7625
2128.96609	38194.2625
2131.94018	38213.4625
2134.91236	38294.7625
2137.88263	38337.9625
2140.851	38340.7625
2143.81746	38370.0625
2146.78201	38395.5625
2149.74466	38369.5625
2152.7054	38460.1625
2155.66425	38427.0625
2158.6212	38447.7625
2161.57625	38428.6625
2164.52941	38505.4625
2167.48067	38472.6625
2170.43004	38475.2625
2173.37752	38454.7625
2176.32311	38404.9625
2179.26681	38351.8625
2182.20863	38399.3625
2185.14856	38449.8625
2188.08661	38458.6625
2191.02278	38458.4625
2193.95707	38446.5625
2196.88948	38435.3625
2199.82001	38471.1625
2202.74867	38383.4625
2205.67545	38447.2625
2208.60037	38350.2625
2211.52341	38341.9625
2214.44458	38246.7625
2217.36388	38231.3625
2220.28132	38217.6625
2223.1969	38215.5625
2226.11061	38121.7625
2229.02246	38071.1625
2231.93245	38008.0625
2234.84058	37893.2625
2237.74686	37899.4625
2240.65128	37883.7625
2243.55385	37781.9625
2246.45456	37736.5625
2249.35343	37602.3625
2252.25044	37606.3625
2255.14561	37478.2625
2258.03893	37477.6625
2260.93041	37419.7625
2263.82004	37338.1625
2266.70783	37287.0625
2269.59378	37210.5625
2272.4779	37168.0625
2275.36017	37076.6625
2278.24061	36976.0625
2281.11922	36900.1625
2283.996	36897.0625
2286.87094	36884.5625
2289.74405	36816.3625
2292.61534	36860.1625
2295.4848	36786.4625
2298.35243	36821.9625
2301.21824	36781.9625
2304.08223	36830.2625
2306.94439	36847.4625
2309.80474	36846.5625
2312.66327	36874.3625
2315.51999	36850.6625
2318.37489	36893.9625
2321.22797	36785.2625
2324.07925	36800.5625
2326.92871	36752.1625
2329.77637	36692.5625
2332.62222	36703.1625
2335.46626	36687.6625
2338.3085	36632.4625
2341.14893	36688.5625
2343.98756	36706.8625
2346.8244	36703.4625
2349.65943	36700.1625
2352.49267	36583.5625
2355.32411	36644.5625
2358.15376	36547.2625
2360.98161	36525.3625
2363.80768	36533.4625
2366.63195	36473.2625
2369.45444	36406.8625
2372.27514	36397.0625
2375.09405	36353.4625
2377.91118	36331.0625
2380.72652	36287.4625
2383.54009	36204.6625
2386.35187	36184.8625
2389.16188	36094.1625
2391.97011	36089.6625
2394.77657	36059.9625
2397.58125	36023.9625
2400.38416	35985.9625
2403.18529	35907.3625
2405.98466	35874.4625
2408.78226	35789.9625
2411.57809	35743.9625
2414.37216	35670.0625
2417.16446	35756.0625
2419.955	35667.3625
2422.74378	35714.0625
2425.5308	35624.9625
2428.31606	35592.0625
2431.09956	35591.2625
2433.88131	35493.1625
2436.6613	35589.8625
2439.43954	35551.0625
2442.21603	35475.5625
2444.99077	35479.9625
2447.76377	35527.7625
2450.53501	35513.2625
2453.30451	35491.9625
2456.07226	35476.5625
2458.83827	35464.3625
2461.60254	35528.3625
2464.36507	35472.8625
2467.12586	35447.7625
2469.88492	35473.7625
2472.64224	35471.6625
2475.39782	35486.8625
2478.15167	35520.1625
2480.90379	35491.4625
2483.65417	35502.7625
2486.40283	35540.8625
2489.14976	35501.0625
2491.89497	35508.0625
2494.63845	35519.0625
2497.3802	35555.8625
2500.12024	35566.7625
2502.85855	35608.5625
2505.59514	35590.7625
2508.33002	35565.5625
2511.06318	35519.1625
2513.79462	35572.5625
2516.52435	35521.8625
2519.25237	35557.7625
2521.97867	35494.8625
2524.70327	35513.9625
2527.42616	35483.8625
2530.14734	35475.8625
2532.86681	35384.5625
2535.58458	35405.8625
2538.30065	35360.1625
2541.01501	35358.0625
2543.72768	35380.7625
2546.43864	35336.4625
2549.14791	35293.5625
2551.85548	35281.1625
2554.56136	35234.8625
2557.26554	35221.3625
2559.96803	35219.0625
2562.66883	35211.3625
2565.36794	35218.5625
2568.06536	35193.6625
2570.7611	35168.7625
2573.45514	35131.4625
2576.14751	35174.0625
2578.83819	35112.0625
2581.52719	35101.4625
2584.21451	35055.2625
2586.90015	35050.2625
2589.58411	35045.5625
2592.2664	35021.5625
2594.94701	34993.8625
2597.62594	34991.4625
2600.30321	34979.1625
2602.9788	34968.4625
2605.65273	34916.9625
2608.32498	34946.9625
2610.99557	34885.2625
2613.66449	34911.7625
2616.33175	34883.5625
2618.99734	34901.8625
2621.66128	34873.8625
2624.32355	34866.5625
2626.98416	34856.1625
2629.64311	34846.0625
2632.30041	34821.6625
2634.95605	34786.4625
2637.61004	34790.2625
2640.26238	34769.5625
2642.91306	34751.4625
2645.56209	34717.7625
2648.20948	34779.6625
2650.85521	34685.4625
2653.4993	34736.6625
2656.14175	34753.0625
2658.78255	34792.3625
2661.42171	34777.7625
2664.05923	34865.3625
2666.6951	34843.9625
2669.32934	34851.3625
2671.96194	34877.4625
2674.59291	34853.6625
2677.22224	34840.1625
2679.84993	34866.3625
2682.476	34817.2625
2685.10043	34832.0625
2687.72324	34819.7625
2690.34441	34877.9625
2692.96396	34852.2625
2695.58188	34842.4625
2698.19818	34812.7625
2700.81285	34860.8625
2703.4259	34820.1625
2706.03733	34958.3625
2708.64714	34919.4625
2711.25533	35058.8625
2713.86191	35008.1625
2716.46687	35068.3625
2719.07021	34958.2625
2721.67194	35059.2625
2724.27206	35060.0625
2726.87057	35059.8625
2729.46747	35104.4625
2732.06276	35193.7625
2734.65644	35184.7625
2737.24852	35220.1625
2739.83899	35155.4625
2742.42786	35146.7625
2745.01513	35084.0625
2747.60079	35096.5625
2750.18486	35078.4625
2752.76733	35123.3625
2755.3482	35119.9625
2757.92747	35174.5625
2760.50515	35098.8625
2763.08123	35132.3625
2765.65573	35049.7625
2768.22863	35064.9625
2770.79994	35006.0625
2773.36967	34960.3625
2775.9378	34966.5625
2778.50435	34911.8625
2781.06932	34906.5625
2783.6327	34965.9625
2786.1945	34911.9625
2788.75471	34899.9625
2791.31335	34753.1625
2793.87041	34783.6625
2796.42589	34654.3625
2798.97979	34636.3625
2801.53212	34586.1625
2804.08288	34636.7625
2806.63206	34560.9625
2809.17967	34472.2625
2811.72571	34377.7625
2814.27018	34354.3625
2816.81308	34263.0625
2819.35442	34233.5625
2821.89419	34191.7625
2824.43239	34169.4625
2826.96904	34160.0625
2829.50412	34157.9625
2832.03763	34056.3625
2834.56959	34098.4625
2837.1	33960.3625
2839.62884	34014.4625
2842.15613	33941.5625
2844.68186	33938.2625
2847.20604	33884.8625
2849.72867	33880.4625
2852.24974	33849.3625
2854.76927	33836.8625
2857.28724	33825.2625
2859.80367	33758.4625
2862.31855	33691.6625
2864.83189	33693.5625
2867.34368	33667.8625
2869.85393	33638.5625
2872.36264	33628.4625
2874.8698	33663.9625
2877.37543	33691.3625
2879.87952	33694.2625
2882.38207	33662.5625
2884.88308	33671.5625
2887.38256	33709.6625
2889.88051	33661.8625
2892.37692	33709.1625
2894.8718	33744.4625
2897.36515	33763.8625
2899.85698	33762.9625
2902.34727	33836.1625
2904.83604	33858.0625
2907.32328	33905.7625
2909.809	33888.8625
2912.29319	33993.2625
2914.77587	33948.9625
2917.25702	33922.8625
2919.73665	33872.7625
2922.21476	33986.3625
2924.69136	33918.4625
2927.16644	33908.1625
2929.64	33851.3625
2932.11205	33737.7625
2934.58258	33699.2625
2937.05161	33785.9625
2939.51912	33873.0625
2941.98513	33847.7625
2944.44962	33707.6625
2946.91261	33578.6625
2949.37409	33709.1625
2951.83407	33707.7625
2954.29254	33574.3625
2956.74951	33561.0625
2959.20498	33570.1625
2961.65895	33533.4625
2964.11142	33522.7625
2966.56239	33462.9625
2969.01186	33450.8625
2971.45984	33343.8625
2973.90632	33341.4625
2976.35131	33270.4625
2978.7948	33184.8625
2981.23681	33158.2625
2983.67732	33145.4625
2986.11635	33058.1625
2988.55388	32997.3625
2990.98993	32930.8625
2993.4245	32860.3625
2995.85758	32772.0625
2998.28917	32698.5625
3000.71928	32690.0625
3003.14791	32585.0625
3005.57506	32563.5625
3008.00073	32497.9625
3010.42493	32449.9625
3012.84764	32399.2625
3015.26888	32420.2625
3017.68865	32326.7625
3020.10694	32254.6625
3022.52376	32239.0625
3024.9391	32176.9625
3027.35298	32190.1625
3029.76539	32160.1625
3032.17632	32142.8625
3034.5858	32077.9625
3036.9938	32036.3625
3039.40034	32008.3625
3041.80542	31961.1625
3044.20903	31881.2625
3046.61118	31928.1625
3049.01187	31846.8625
3051.4111	31803.4625
3053.80888	31700.9625
3056.20519	31630.3625
3058.60005	31580.8625
3060.99345	31555.8625
3063.3854	31503.7625
3065.7759	31356.9625
3068.16494	31337.4625
3070.55254	31265.2625
3072.93868	31174.2625
3075.32338	31114.8625
3077.70662	31033.3625
3080.08842	30942.7625
3082.46878	30951.8625
3084.84769	30887.3625
3087.22515	30815.8625
3089.60118	30844.4625
3091.97576	30891.8625
3094.3489	30812.8625
3096.72061	30791.1625
3099.09087	30813.4625
3101.4597	30763.0625
3103.82709	30711.2625
3106.19305	30658.0625
3108.55757	30589.8625
3110.92066	30521.3625
3113.28232	30469.3625
3115.64255	30389.4625
3118.00134	30341.0625
3120.35871	30282.0625
3122.71466	30292.4625
3125.06917	30214.2625
3127.42226	30191.7625
3129.77393	30148.5625
3132.12417	30158.7625
3134.47299	30131.1625
3136.82039	30073.7625
3139.16636	30084.0625
3141.51092	30073.5625
3143.85406	30058.9625
3146.19579	30002.5625
3148.53609	29995.1625
3150.87499	30049.0625
3153.21246	30036.2625
3155.54853	30071.8625
3157.88318	29961.9625
3160.21642	29996.3625
3162.54826	29941.6625
3164.87868	29964.4625
3167.2077	29871.9625
3169.5353	29878.7625
3171.86151	29839.1625
3174.18631	29775.0625
3176.5097	29788.3625
3178.83169	29685.8625
3181.15228	29726.4625
3183.47147	29630.3625
3185.78926	29671.6625
3188.10565	29600.1625
3190.42065	29614.2625
3192.73424	29616.8625
3195.04645	29607.1625
3197.35725	29575.4625
3199.66667	29552.3625
3201.97469	29552.3625
3204.28132	29529.2625
3206.58656	29529.8625
3208.8904	29524.2625
3211.19287	29497.9625
3213.49394	29443.8625
3215.79363	29485.0625
3218.09193	29484.9625
3220.38884	29514.7625
3222.68438	29539.0625
3224.97853	29516.2625
3227.2713	29463.4625
3229.56269	29442.5625
3231.8527	29391.2625
3234.14133	29299.3625
3236.42858	29314.4625
3238.71446	29305.8625
3240.99896	29181.0625
3243.28209	29186.5625
3245.56384	29172.0625
3247.84423	29183.5625
3250.12324	29147.9625
3252.40088	29072.6625
3254.67715	29021.9625
3256.95205	28985.8625
3259.22558	29019.4625
3261.49775	28932.1625
3263.76855	28894.5625
3266.03799	28776.2625
3268.30606	28783.4625
3270.57277	28716.8625
3272.83812	28649.4625
3275.10211	28616.5625
3277.36474	28590.8625
3279.62601	28675.9625
3281.88593	28642.8625
3284.14448	28644.6625
3286.40168	28597.4625
3288.65753	28553.7625
3290.91202	28521.1625
3293.16516	28458.6625
3295.41695	28385.1625
3297.66738	28194.1625
3299.91647	28080.4625
3302.16421	27897.0625
3304.4106	27822.7625
3306.65564	27676.3625
3308.89933	27517.0625
3311.14169	27262.7625
3313.38269	27105.7625
3315.62236	26932.4625
3317.86068	26736.3625
3320.09766	26483.5625
3322.3333	26234.0625
3324.5676	26262.2625
3326.80056	25837.6625
3329.03219	25658.7625
3331.26248	7.3625
3333.49143	0.5625
3335.71905	-0.5375
