Data from AgNP_FTO_APTES_CRN_10uM_R6G_10uM_NaF_0.1M_Addition_RamanShift__9__16-25-27-962.txt Node

Date: Wed Dec 15 16:25:27 GMT 2021
User: TCL
Spectrometer: QEP01345
Trigger mode: 4
Integration Time (sec): 7.000000E0
Scans to average: 10
Electric dark correction enabled: true
Nonlinearity correction enabled: false
Boxcar width: 0
XAxis mode: Raman Shifts
Number of Pixels in Spectrum: 1044
>>>>>Begin Spectral Data<<<<<
46.04893	1.4625
50.45542	-2.1375
54.85868	-1.0375
59.25871	-1.3375
63.6555	71.2625
68.04907	76.8625
72.43941	84.0625
76.82654	87.4625
81.21044	91.0625
85.59113	93.1625
89.96862	99.9625
94.34289	96.5625
98.71396	103.3625
103.08183	112.8625
107.4465	110.5625
111.80798	113.1625
116.16626	116.1625
120.52136	122.9625
124.87327	123.5625
129.222	129.2625
133.56755	135.8625
137.90993	146.7625
142.24913	163.6625
146.58517	180.9625
150.91804	211.6625
155.24774	244.2625
159.57429	300.5625
163.89768	382.9625
168.21792	502.7625
172.53501	687.7625
176.84895	954.0625
181.15975	1327.8625
185.46741	1863.9625
189.77193	2561.2625
194.07331	3457.6625
198.37157	4449.4625
202.6667	5498.6625
206.9587	6539.3625
211.24758	7583.3625
215.53334	8615.7625
219.81599	9701.6625
224.09553	10886.0625
228.37195	12186.0625
232.64527	13633.3625
236.91549	15154.6625
241.18261	16745.7625
245.44663	18207.0625
249.70755	19537.9625
253.96539	20664.7625
258.22014	21595.8625
262.4718	22334.7625
266.72039	22869.9625
270.96589	23140.2625
275.20832	23149.5625
279.44768	22990.3625
283.68397	22850.2625
287.91719	22777.0625
292.14735	22670.6625
296.37445	22719.6625
300.59849	22726.8625
304.81948	22787.2625
309.03742	22800.6625
313.25231	22597.4625
317.46415	22169.3625
321.67296	21597.7625
325.87872	21076.8625
330.08145	20803.6625
334.28114	20763.8625
338.47781	20905.9625
342.67145	21183.0625
346.86207	21453.2625
351.04966	21831.9625
355.23424	22179.2625
359.4158	22430.9625
363.59435	22638.1625
367.76989	22662.4625
371.94243	22733.7625
376.11196	22693.6625
380.27849	22651.5625
384.44203	22655.6625
388.60257	22795.1625
392.76012	23032.6625
396.91468	23302.4625
401.06626	23697.1625
405.21485	23945.5625
409.36047	23911.1625
413.50311	23663.0625
417.64277	23506.9625
421.77947	23553.6625
425.9132	23657.9625
430.04396	23832.9625
434.17176	23920.2625
438.2966	23938.9625
442.41849	24113.3625
446.53742	24462.2625
450.6534	24859.5625
454.76644	25246.8625
458.87653	25373.2625
462.98368	25398.0625
467.08789	25301.2625
471.18916	25163.6625
475.2875	24973.5625
479.38291	24847.3625
483.4754	24657.7625
487.56496	24411.0625
491.6516	24088.9625
495.73531	23769.4625
499.81612	23710.6625
503.89401	23903.2625
507.96899	24089.6625
512.04106	24206.2625
516.11023	24184.7625
520.1765	24046.6625
524.23987	23907.5625
528.30034	23683.1625
532.35792	23414.5625
536.41261	23092.6625
540.46441	22843.4625
544.51333	22848.0625
548.55936	23120.1625
552.60252	23637.9625
556.64279	24061.8625
560.6802	24377.0625
564.71473	24526.8625
568.7464	24848.0625
572.7752	25537.0625
576.80114	26350.0625
580.82422	27231.7625
584.84444	27976.6625
588.86181	28671.8625
592.87633	28882.1625
596.888	28507.5625
600.89682	27669.0625
604.9028	27591.3625
608.90594	28820.0625
612.90624	30228.2625
616.90371	28511.8625
620.89834	24785.9625
624.89015	23125.1625
628.87913	22932.0625
632.86528	23156.8625
636.84862	23239.3625
640.82913	23014.7625
644.80683	22532.6625
648.78172	22198.4625
652.75379	22116.2625
656.72306	22251.3625
660.68952	22508.6625
664.65319	22477.2625
668.61405	22232.6625
672.57211	22202.4625
676.52738	22229.5625
680.47986	22233.6625
684.42955	22093.6625
688.37646	22035.3625
692.32058	22105.0625
696.26192	22344.3625
700.20048	22615.6625
704.13626	22889.2625
708.06928	23028.0625
711.99952	23026.7625
715.927	22998.0625
719.85171	22899.0625
723.77365	22698.9625
727.69284	22348.8625
731.60928	22046.1625
735.52295	21931.2625
739.43388	21899.1625
743.34206	21962.6625
747.24749	22067.6625
751.15017	22296.8625
755.05012	22633.1625
758.94733	23295.3625
762.8418	24366.5625
766.73354	26024.1625
770.62254	27478.1625
774.50882	27518.9625
778.39237	26350.5625
782.27321	24715.3625
786.15132	23447.7625
790.02671	22562.5625
793.89938	22132.8625
797.76935	21962.1625
801.6366	21870.4625
805.50115	21857.5625
809.36299	21740.2625
813.22213	21590.9625
817.07857	21528.3625
820.93231	21468.3625
824.78336	21390.3625
828.63172	21346.0625
832.47738	21320.6625
836.32036	21349.0625
840.16066	21394.0625
843.99827	21346.1625
847.8332	21297.2625
851.66546	21213.4625
855.49504	21223.0625
859.32195	21199.3625
863.1462	21198.7625
866.96777	21100.4625
870.78668	21051.0625
874.60293	21097.1625
878.41652	21134.7625
882.22745	21170.5625
886.03573	21278.1625
889.84136	21304.4625
893.64433	21303.9625
897.44466	21284.7625
901.24235	21233.9625
905.0374	21204.3625
908.8298	21177.6625
912.61957	21235.3625
916.40671	21457.0625
920.19121	21705.5625
923.97308	21825.0625
927.75233	21809.0625
931.52895	21614.6625
935.30295	21313.9625
939.07433	20997.5625
942.84309	20702.0625
946.60924	20517.1625
950.37278	20399.3625
954.13371	20406.9625
957.89203	20395.6625
961.64774	20351.4625
965.40086	20367.3625
969.15137	20339.3625
972.89929	20223.1625
976.64461	20161.1625
980.38733	20111.7625
984.12747	20175.1625
987.86502	20198.2625
991.59999	20283.1625
995.33237	20412.8625
999.06217	20738.1625
1002.78939	21068.8625
1006.51404	21390.4625
1010.23611	21882.1625
1013.95561	22162.6625
1017.67255	22109.4625
1021.38692	21859.3625
1025.09872	21568.5625
1028.80796	21303.6625
1032.51465	21288.7625
1036.21877	21417.6625
1039.92035	21551.5625
1043.61937	21683.0625
1047.31584	21796.9625
1051.00976	21973.1625
1054.70114	22202.9625
1058.38998	22637.1625
1062.07627	23266.0625
1065.76003	24102.4625
1069.44126	25053.4625
1073.11995	25916.7625
1076.79611	26356.4625
1080.46974	26080.7625
1084.14085	25440.3625
1087.80943	24865.6625
1091.47549	24558.9625
1095.13903	24286.7625
1098.80005	23904.4625
1102.45857	23250.7625
1106.11456	22640.6625
1109.76805	22311.7625
1113.41903	22113.0625
1117.06751	22216.5625
1120.71348	22431.0625
1124.35696	22687.1625
1127.99793	23026.7625
1131.63641	23272.2625
1135.2724	23258.0625
1138.90589	23214.8625
1142.5369	23236.5625
1146.16542	23316.1625
1149.79145	23425.0625
1153.415	23595.6625
1157.03607	23841.8625
1160.65467	24379.6625
1164.27079	25366.9625
1167.88443	26629.8625
1171.49561	28108.2625
1175.10432	29971.6625
1178.71056	32156.5625
1182.31434	34258.3625
1185.91565	35445.8625
1189.51451	35445.7625
1193.11091	34846.7625
1196.70485	33623.4625
1200.29634	32178.2625
1203.88538	31007.5625
1207.47197	30371.6625
1211.05612	29916.4625
1214.63782	29389.2625
1218.21708	28589.0625
1221.79391	27728.6625
1225.36829	27056.5625
1228.94024	26731.1625
1232.50976	26538.2625
1236.07685	26391.7625
1239.6415	26334.2625
1243.20374	26329.3625
1246.76355	26440.3625
1250.32093	26778.7625
1253.8759	27322.6625
1257.42845	28089.2625
1260.97859	28883.9625
1264.52631	29690.7625
1268.07163	30450.9625
1271.61453	31121.6625
1275.15503	31843.0625
1278.69312	32560.4625
1282.22882	33350.2625
1285.76211	34287.4625
1289.29301	35430.9625
1292.82151	36756.4625
1296.34761	38357.9625
1299.87133	40167.7625
1303.39266	42081.7625
1306.9116	43685.3625
1310.42815	44950.0625
1313.94233	45614.4625
1317.45412	45488.1625
1320.96354	45206.3625
1324.47058	45077.2625
1327.97525	45258.3625
1331.47754	45491.8625
1334.97747	45607.3625
1338.47502	45677.8625
1341.97022	45714.4625
1345.46305	45680.0625
1348.95352	45533.5625
1352.44163	45201.5625
1355.92738	45115.0625
1359.41078	45783.0625
1362.89183	46428.2625
1366.37053	45587.5625
1369.84688	42801.7625
1373.32088	39180.2625
1376.79254	36445.3625
1380.26186	35189.5625
1383.72883	34812.1625
1387.19347	34563.8625
1390.65578	34225.7625
1394.11575	33949.4625
1397.57339	33902.9625
1401.0287	34072.2625
1404.48168	34123.7625
1407.93234	33848.9625
1411.38068	33169.7625
1414.82669	32132.0625
1418.27039	30783.9625
1421.71177	29678.2625
1425.15083	28799.7625
1428.58758	28428.9625
1432.02203	28668.3625
1435.45416	29262.4625
1438.88399	29991.8625
1442.31151	30577.0625
1445.73673	30910.2625
1449.15965	31245.0625
1452.58027	31553.8625
1455.9986	31711.8625
1459.41463	32022.3625
1462.82837	32517.7625
1466.23982	33069.3625
1469.64898	33531.4625
1473.05586	33777.3625
1476.46045	33860.7625
1479.86276	33788.8625
1483.26279	33625.5625
1486.66054	33624.0625
1490.05602	33843.8625
1493.44922	34356.4625
1496.84016	35123.2625
1500.22882	36238.9625
1503.61521	37649.4625
1506.99934	39052.1625
1510.38121	40001.4625
1513.76081	40075.9625
1517.13816	39196.2625
1520.51324	38029.0625
1523.88607	37161.4625
1527.25665	36746.2625
1530.62498	36546.8625
1533.99105	36252.7625
1537.35488	35703.9625
1540.71647	34911.2625
1544.07581	33965.0625
1547.4329	32997.4625
1550.78776	32237.8625
1554.14038	31738.2625
1557.49077	31504.9625
1560.83892	31398.2625
1564.18484	31561.0625
1567.52853	31925.8625
1570.86999	32590.1625
1574.20922	33834.7625
1577.54624	35302.7625
1580.88103	36327.3625
1584.2136	36677.3625
1587.54395	36405.4625
1590.87208	36074.9625
1594.19801	36546.5625
1597.52172	37396.3625
1600.84321	37419.1625
1604.16251	35968.2625
1607.47959	33731.9625
1610.79447	31414.6625
1614.10715	29149.8625
1617.41763	27114.9625
1620.7259	25661.4625
1624.03199	24806.9625
1627.33587	24713.4625
1630.63757	25242.9625
1633.93707	26563.7625
1637.23439	28850.3625
1640.52951	32264.3625
1643.82246	36178.6625
1647.11321	39401.2625
1650.40179	40279.6625
1653.68819	38023.6625
1656.97241	33832.8625
1660.25446	29442.9625
1663.53433	25806.9625
1666.81203	23378.4625
1670.08756	21870.3625
1673.36092	20857.2625
1676.63211	20211.9625
1679.90115	19758.2625
1683.16801	19446.4625
1686.43272	19219.0625
1689.69527	19072.1625
1692.95567	18893.1625
1696.2139	18848.1625
1699.46999	18821.7625
1702.72392	18710.3625
1705.97571	18661.1625
1709.22535	18581.5625
1712.47284	18507.7625
1715.71819	18456.6625
1718.96139	18435.5625
1722.20246	18324.3625
1725.44139	18256.7625
1728.67818	18193.8625
1731.91284	18058.6625
1735.14537	17958.3625
1738.37576	17877.6625
1741.60403	17865.8625
1744.83017	17772.3625
1748.05418	17705.3625
1751.27607	17707.3625
1754.49584	17668.4625
1757.71349	17690.5625
1760.92903	17663.5625
1764.14244	17669.9625
1767.35375	17651.8625
1770.56294	17581.1625
1773.77002	17593.1625
1776.97499	17527.3625
1780.17785	17452.5625
1783.37861	17427.4625
1786.57727	17365.9625
1789.77382	17314.0625
1792.96828	17272.5625
1796.16064	17250.7625
1799.3509	17194.1625
1802.53907	17177.6625
1805.72514	17100.9625
1808.90913	17109.2625
1812.09102	17035.5625
1815.27083	17010.3625
1818.44856	16993.3625
1821.6242	16991.4625
1824.79776	16969.4625
1827.96924	17002.2625
1831.13864	16965.5625
1834.30597	17009.3625
1837.47122	17030.7625
1840.6344	17039.3625
1843.7955	17031.4625
1846.95454	17036.3625
1850.11151	17045.9625
1853.26642	16980.8625
1856.41926	16978.4625
1859.57004	16971.4625
1862.71876	16947.3625
1865.86542	16910.9625
1869.01003	16899.8625
1872.15258	16848.8625
1875.29308	16824.3625
1878.43152	16769.4625
1881.56792	16727.6625
1884.70227	16679.5625
1887.83457	16658.4625
1890.96482	16654.5625
1894.09304	16637.5625
1897.21921	16570.4625
1900.34335	16569.9625
1903.46544	16524.7625
1906.58551	16513.9625
1909.70353	16474.6625
1912.81953	16431.0625
1915.93349	16420.4625
1919.04543	16347.9625
1922.15534	16331.6625
1925.26322	16275.4625
1928.36908	16263.7625
1931.47292	16194.6625
1934.57473	16171.0625
1937.67453	16130.3625
1940.77232	16081.6625
1943.86808	16054.0625
1946.96184	16038.5625
1950.05358	15974.0625
1953.14331	15947.1625
1956.23103	15907.3625
1959.31675	15848.6625
1962.40046	15812.7625
1965.48217	15761.3625
1968.56188	15700.5625
1971.63959	15665.7625
1974.7153	15577.6625
1977.78901	15549.0625
1980.86073	15518.2625
1983.93046	15459.8625
1986.99819	15391.3625
1990.06394	15361.0625
1993.1277	15337.7625
1996.18947	15236.2625
1999.24925	15211.9625
2002.30706	15152.0625
2005.36288	15130.9625
2008.41672	15102.8625
2011.46859	15014.6625
2014.51848	14994.4625
2017.56639	14966.8625
2020.61233	14907.8625
2023.6563	14881.5625
2026.6983	14868.2625
2029.73833	14827.4625
2032.7764	14803.9625
2035.8125	14747.4625
2038.84664	14717.4625
2041.87881	14707.2625
2044.90903	14665.6625
2047.93729	14615.9625
2050.96359	14616.5625
2053.98794	14611.7625
2057.01034	14592.3625
2060.03078	14591.2625
2063.04927	14545.6625
2066.06582	14554.9625
2069.08042	14538.9625
2072.09307	14530.2625
2075.10378	14508.6625
2078.11255	14491.3625
2081.11938	14520.5625
2084.12426	14510.9625
2087.12722	14492.3625
2090.12824	14485.0625
2093.12732	14484.0625
2096.12447	14502.1625
2099.11969	14488.5625
2102.11299	14530.8625
2105.10435	14506.8625
2108.09379	14509.7625
2111.08131	14530.9625
2114.0669	14529.3625
2117.05057	14530.5625
2120.03233	14540.7625
2123.01216	14559.8625
2125.99008	14536.8625
2128.96609	14534.2625
2131.94018	14610.4625
2134.91236	14575.4625
2137.88263	14574.7625
2140.851	14572.2625
2143.81746	14605.6625
2146.78201	14594.6625
2149.74466	14576.1625
2152.7054	14588.5625
2155.66425	14587.4625
2158.6212	14599.1625
2161.57625	14568.7625
2164.52941	14603.7625
2167.48067	14572.1625
2170.43004	14539.2625
2173.37752	14566.2625
2176.32311	14550.5625
2179.26681	14552.4625
2182.20863	14551.6625
2185.14856	14516.5625
2188.08661	14545.0625
2191.02278	14545.8625
2193.95707	14513.4625
2196.88948	14504.6625
2199.82001	14461.0625
2202.74867	14473.4625
2205.67545	14487.3625
2208.60037	14459.7625
2211.52341	14431.6625
2214.44458	14408.2625
2217.36388	14369.4625
2220.28132	14353.8625
2223.1969	14329.9625
2226.11061	14316.7625
2229.02246	14286.3625
2231.93245	14256.3625
2234.84058	14236.5625
2237.74686	14235.5625
2240.65128	14214.6625
2243.55385	14150.4625
2246.45456	14137.7625
2249.35343	14108.2625
2252.25044	14099.2625
2255.14561	14059.3625
2258.03893	14064.1625
2260.93041	14046.5625
2263.82004	14020.5625
2266.70783	13966.0625
2269.59378	13927.8625
2272.4779	13890.3625
2275.36017	13860.9625
2278.24061	13847.3625
2281.11922	13824.5625
2283.996	13747.6625
2286.87094	13784.5625
2289.74405	13725.2625
2292.61534	13675.7625
2295.4848	13718.9625
2298.35243	13704.0625
2301.21824	13670.7625
2304.08223	13646.1625
2306.94439	13650.5625
2309.80474	13658.0625
2312.66327	13634.9625
2315.51999	13617.6625
2318.37489	13601.8625
2321.22797	13615.2625
2324.07925	13578.4625
2326.92871	13613.0625
2329.77637	13607.6625
2332.62222	13547.9625
2335.46626	13494.9625
2338.3085	13493.7625
2341.14893	13504.9625
2343.98756	13479.7625
2346.8244	13469.6625
2349.65943	13476.2625
2352.49267	13461.7625
2355.32411	13476.7625
2358.15376	13479.4625
2360.98161	13441.7625
2363.80768	13461.8625
2366.63195	13444.3625
2369.45444	13420.1625
2372.27514	13414.6625
2375.09405	13427.5625
2377.91118	13376.9625
2380.72652	13371.5625
2383.54009	13309.4625
2386.35187	13313.6625
2389.16188	13265.1625
2391.97011	13264.6625
2394.77657	13208.2625
2397.58125	13186.0625
2400.38416	13186.5625
2403.18529	13149.1625
2405.98466	13126.9625
2408.78226	13129.0625
2411.57809	13099.2625
2414.37216	13087.7625
2417.16446	13060.6625
2419.955	13060.3625
2422.74378	13057.0625
2425.5308	13047.9625
2428.31606	13042.2625
2431.09956	13025.4625
2433.88131	12996.9625
2436.6613	13042.2625
2439.43954	13005.7625
2442.21603	12968.9625
2444.99077	12969.8625
2447.76377	12977.0625
2450.53501	12961.7625
2453.30451	12952.6625
2456.07226	12928.5625
2458.83827	12909.8625
2461.60254	12916.3625
2464.36507	12909.5625
2467.12586	12901.7625
2469.88492	12896.1625
2472.64224	12908.2625
2475.39782	12895.1625
2478.15167	12911.6625
2480.90379	12877.2625
2483.65417	12879.4625
2486.40283	12899.8625
2489.14976	12894.5625
2491.89497	12890.0625
2494.63845	12884.8625
2497.3802	12863.1625
2500.12024	12855.4625
2502.85855	12839.6625
2505.59514	12835.5625
2508.33002	12820.9625
2511.06318	12797.4625
2513.79462	12772.8625
2516.52435	12811.9625
2519.25237	12798.3625
2521.97867	12755.5625
2524.70327	12768.2625
2527.42616	12771.9625
2530.14734	12738.4625
2532.86681	12713.2625
2535.58458	12728.6625
2538.30065	12697.3625
2541.01501	12689.8625
2543.72768	12683.2625
2546.43864	12686.3625
2549.14791	12654.4625
2551.85548	12636.2625
2554.56136	12591.0625
2557.26554	12596.6625
2559.96803	12573.0625
2562.66883	12540.7625
2565.36794	12540.7625
2568.06536	12541.1625
2570.7611	12554.5625
2573.45514	12518.9625
2576.14751	12500.9625
2578.83819	12459.7625
2581.52719	12477.9625
2584.21451	12440.0625
2586.90015	12443.0625
2589.58411	12396.9625
2592.2664	12400.6625
2594.94701	12362.1625
2597.62594	12363.7625
2600.30321	12348.8625
2602.9788	12329.1625
2605.65273	12317.7625
2608.32498	12302.3625
2610.99557	12290.9625
2613.66449	12293.3625
2616.33175	12291.2625
2618.99734	12258.5625
2621.66128	12256.8625
2624.32355	12262.0625
2626.98416	12222.8625
2629.64311	12239.9625
2632.30041	12238.5625
2634.95605	12218.2625
2637.61004	12179.0625
2640.26238	12165.5625
2642.91306	12168.7625
2645.56209	12167.3625
2648.20948	12163.2625
2650.85521	12166.2625
2653.4993	12154.2625
2656.14175	12183.2625
2658.78255	12179.7625
2661.42171	12149.4625
2664.05923	12156.6625
2666.6951	12156.1625
2669.32934	12178.9625
2671.96194	12159.0625
2674.59291	12186.9625
2677.22224	12169.0625
2679.84993	12165.5625
2682.476	12127.5625
2685.10043	12158.4625
2687.72324	12148.4625
2690.34441	12169.4625
2692.96396	12157.4625
2695.58188	12150.9625
2698.19818	12177.3625
2700.81285	12175.7625
2703.4259	12194.7625
2706.03733	12276.3625
2708.64714	12237.8625
2711.25533	12228.1625
2713.86191	12189.1625
2716.46687	12203.7625
2719.07021	12190.1625
2721.67194	12212.8625
2724.27206	12200.5625
2726.87057	12195.5625
2729.46747	12186.8625
2732.06276	12210.0625
2734.65644	12166.5625
2737.24852	12184.3625
2739.83899	12165.0625
2742.42786	12171.0625
2745.01513	12144.7625
2747.60079	12159.4625
2750.18486	12133.8625
2752.76733	12132.0625
2755.3482	12179.6625
2757.92747	12129.5625
2760.50515	12110.1625
2763.08123	12097.9625
2765.65573	12134.8625
2768.22863	12083.6625
2770.79994	12078.8625
2773.36967	12044.0625
2775.9378	12045.2625
2778.50435	12032.5625
2781.06932	11977.9625
2783.6327	12019.3625
2786.1945	11986.2625
2788.75471	11948.5625
2791.31335	11947.3625
2793.87041	11933.7625
2796.42589	11902.2625
2798.97979	11892.7625
2801.53212	11881.9625
2804.08288	11878.3625
2806.63206	11852.1625
2809.17967	11844.1625
2811.72571	11774.4625
2814.27018	11781.8625
2816.81308	11775.5625
2819.35442	11735.0625
2821.89419	11725.4625
2824.43239	11743.2625
2826.96904	11714.6625
2829.50412	11707.9625
2832.03763	11689.9625
2834.56959	11691.0625
2837.1	11659.8625
2839.62884	11651.9625
2842.15613	11650.1625
2844.68186	11709.7625
2847.20604	11692.6625
2849.72867	11728.5625
2852.24974	11693.4625
2854.76927	11719.8625
2857.28724	11723.9625
2859.80367	11706.4625
2862.31855	11674.6625
2864.83189	11659.1625
2867.34368	11632.3625
2869.85393	11632.7625
2872.36264	11636.6625
2874.8698	11617.4625
2877.37543	11619.4625
2879.87952	11621.9625
2882.38207	11607.0625
2884.88308	11623.9625
2887.38256	11635.1625
2889.88051	11618.5625
2892.37692	11599.9625
2894.8718	11594.7625
2897.36515	11635.0625
2899.85698	11619.5625
2902.34727	11647.1625
2904.83604	11655.3625
2907.32328	11641.6625
2909.809	11626.8625
2912.29319	11636.7625
2914.77587	11640.4625
2917.25702	11659.0625
2919.73665	11633.3625
2922.21476	11619.4625
2924.69136	11615.6625
2927.16644	11634.3625
2929.64	11624.4625
2932.11205	11618.7625
2934.58258	11603.3625
2937.05161	11590.2625
2939.51912	11592.1625
2941.98513	11567.4625
2944.44962	11521.2625
2946.91261	11439.2625
2949.37409	11486.0625
2951.83407	11485.9625
2954.29254	11488.3625
2956.74951	11451.6625
2959.20498	11449.6625
2961.65895	11443.3625
2964.11142	11445.6625
2966.56239	11396.5625
2969.01186	11409.9625
2971.45984	11349.4625
2973.90632	11316.1625
2976.35131	11291.0625
2978.7948	11245.0625
2981.23681	11235.1625
2983.67732	11241.7625
2986.11635	11207.0625
2988.55388	11182.7625
2990.98993	11156.4625
2993.4245	11125.7625
2995.85758	11107.6625
2998.28917	11076.9625
3000.71928	11045.7625
3003.14791	11015.2625
3005.57506	11021.6625
3008.00073	11014.3625
3010.42493	10998.1625
3012.84764	10972.8625
3015.26888	10965.0625
3017.68865	10914.2625
3020.10694	10928.2625
3022.52376	10865.2625
3024.9391	10857.0625
3027.35298	10877.6625
3029.76539	10869.4625
3032.17632	10858.2625
3034.5858	10813.8625
3036.9938	10856.6625
3039.40034	10800.9625
3041.80542	10782.6625
3044.20903	10752.0625
3046.61118	10770.0625
3049.01187	10756.4625
3051.4111	10755.1625
3053.80888	10718.3625
3056.20519	10693.5625
3058.60005	10689.4625
3060.99345	10655.0625
3063.3854	10641.2625
3065.7759	10618.9625
3068.16494	10592.5625
3070.55254	10550.0625
3072.93868	10547.9625
3075.32338	10500.0625
3077.70662	10503.1625
3080.08842	10464.1625
3082.46878	10479.3625
3084.84769	10433.0625
3087.22515	10442.1625
3089.60118	10440.6625
3091.97576	10399.9625
3094.3489	10418.3625
3096.72061	10406.5625
3099.09087	10415.0625
3101.4597	10385.2625
3103.82709	10375.5625
3106.19305	10378.5625
3108.55757	10363.0625
3110.92066	10353.5625
3113.28232	10315.3625
3115.64255	10314.5625
3118.00134	10282.6625
3120.35871	10270.8625
3122.71466	10238.4625
3125.06917	10216.3625
3127.42226	10215.0625
3129.77393	10224.5625
3132.12417	10226.1625
3134.47299	10223.9625
3136.82039	10223.5625
3139.16636	10222.2625
3141.51092	10220.3625
3143.85406	10229.4625
3146.19579	10234.0625
3148.53609	10249.3625
3150.87499	10239.6625
3153.21246	10254.1625
3155.54853	10267.7625
3157.88318	10234.7625
3160.21642	10232.6625
3162.54826	10248.7625
3164.87868	10236.5625
3167.2077	10249.9625
3169.5353	10219.3625
3171.86151	10233.4625
3174.18631	10216.1625
3176.5097	10232.9625
3178.83169	10193.9625
3181.15228	10190.9625
3183.47147	10182.7625
3185.78926	10185.8625
3188.10565	10162.1625
3190.42065	10152.2625
3192.73424	10138.1625
3195.04645	10158.5625
3197.35725	10154.1625
3199.66667	10133.5625
3201.97469	10178.3625
3204.28132	10151.6625
3206.58656	10173.4625
3208.8904	10183.2625
3211.19287	10134.0625
3213.49394	10138.9625
3215.79363	10149.9625
3218.09193	10173.3625
3220.38884	10160.4625
3222.68438	10171.9625
3224.97853	10145.4625
3227.2713	10129.3625
3229.56269	10115.2625
3231.8527	10086.8625
3234.14133	10054.3625
3236.42858	10067.5625
3238.71446	10085.6625
3240.99896	10038.9625
3243.28209	10043.1625
3245.56384	10011.6625
3247.84423	10038.1625
3250.12324	9999.6625
3252.40088	10030.1625
3254.67715	10002.8625
3256.95205	10018.2625
3259.22558	9991.2625
3261.49775	9982.3625
3263.76855	9958.0625
3266.03799	9935.6625
3268.30606	9907.9625
3270.57277	9894.1625
3272.83812	9894.4625
3275.10211	9847.9625
3277.36474	9866.1625
3279.62601	9844.7625
3281.88593	9823.1625
3284.14448	9869.6625
3286.40168	9826.4625
3288.65753	9823.5625
3290.91202	9802.9625
3293.16516	9799.3625
3295.41695	9763.3625
3297.66738	9683.7625
3299.91647	9633.3625
3302.16421	9583.7625
3304.4106	9531.6625
3306.65564	9499.7625
3308.89933	9460.0625
3311.14169	9355.1625
3313.38269	9321.8625
3315.62236	9260.0625
3317.86068	9159.7625
3320.09766	9061.7625
3322.3333	9007.4625
3324.5676	8995.1625
3326.80056	8887.5625
3329.03219	8804.3625
3331.26248	3.5625
3333.49143	-0.8375
3335.71905	-0.3375
