Data from AgNP_FTO_APTES_CRN_0uM_R6G_10uM_NaF_0.1M_Addition_RamanShift__52__12-30-22-961.txt Node

Date: Wed Dec 15 12:30:22 GMT 2021
User: TCL
Spectrometer: QEP01345
Trigger mode: 4
Integration Time (sec): 7.000000E0
Scans to average: 10
Electric dark correction enabled: true
Nonlinearity correction enabled: false
Boxcar width: 0
XAxis mode: Raman Shifts
Number of Pixels in Spectrum: 1044
>>>>>Begin Spectral Data<<<<<
46.04893	1.1625
50.45542	-1.7375
54.85868	-1.4375
59.25871	-1.4375
63.6555	148.3625
68.04907	158.1625
72.43941	169.1625
76.82654	173.7625
81.21044	178.5625
85.59113	187.2625
89.96862	198.7625
94.34289	199.1625
98.71396	206.9625
103.08183	213.3625
107.4465	217.6625
111.80798	223.6625
116.16626	228.6625
120.52136	234.3625
124.87327	240.1625
129.222	258.9625
133.56755	267.8625
137.90993	289.2625
142.24913	311.2625
146.58517	347.3625
150.91804	401.6625
155.24774	475.4625
159.57429	581.4625
163.89768	734.5625
168.21792	967.8625
172.53501	1303.7625
176.84895	1814.6625
181.15975	2516.0625
185.46741	3526.7625
189.77193	4824.9625
194.07331	6441.5625
198.37157	8296.7625
202.6667	10232.5625
206.9587	12159.6625
211.24758	14036.7625
215.53334	15892.0625
219.81599	17894.5625
224.09553	20061.7625
228.37195	22476.8625
232.64527	25178.4625
236.91549	27973.1625
241.18261	30835.6625
245.44663	33557.1625
249.70755	36114.5625
253.96539	38212.6625
258.22014	40012.9625
262.4718	41359.2625
266.72039	42296.1625
270.96589	42657.9625
275.20832	42634.9625
279.44768	42309.3625
283.68397	41858.7625
287.91719	41454.3625
292.14735	41172.2625
296.37445	40906.8625
300.59849	40774.7625
304.81948	40795.4625
309.03742	40880.0625
313.25231	40805.6625
317.46415	40500.7625
321.67296	40074.5625
325.87872	39666.0625
330.08145	39383.9625
334.28114	39464.5625
338.47781	39728.0625
342.67145	40081.9625
346.86207	40591.8625
351.04966	41225.2625
355.23424	41870.9625
359.4158	42422.5625
363.59435	42905.2625
367.76989	43165.8625
371.94243	43220.6625
376.11196	43297.5625
380.27849	43317.5625
384.44203	43318.8625
388.60257	43598.4625
392.76012	44116.1625
396.91468	44772.6625
401.06626	45626.8625
405.21485	46210.1625
409.36047	46208.2625
413.50311	46009.0625
417.64277	46110.8625
421.77947	46584.3625
425.9132	46946.1625
430.04396	47185.6625
434.17176	47285.8625
438.2966	47262.2625
442.41849	47735.0625
446.53742	48613.5625
450.6534	49615.7625
454.76644	50394.2625
458.87653	50656.4625
462.98368	50487.6625
467.08789	49959.4625
471.18916	49154.3625
475.2875	48365.0625
479.38291	47840.6625
483.4754	47574.2625
487.56496	47370.4625
491.6516	46971.3625
495.73531	46578.1625
499.81612	46424.0625
503.89401	46827.8625
507.96899	47183.1625
512.04106	47379.3625
516.11023	47100.5625
520.1765	46579.7625
524.23987	45991.1625
528.30034	45505.8625
532.35792	45018.4625
536.41261	44563.7625
540.46441	44200.8625
544.51333	44162.7625
548.55936	44595.8625
552.60252	45327.1625
556.64279	46203.4625
560.6802	46867.8625
564.71473	47414.9625
568.7464	48325.9625
572.7752	49948.6625
576.80114	52185.4625
580.82422	54816.4625
584.84444	57956.0625
588.86181	61794.2625
592.87633	64803.1625
596.888	64119.6625
600.89682	59971.4625
604.9028	57596.9625
608.90594	58468.1625
612.90624	59439.1625
616.90371	55622.7625
620.89834	49771.6625
624.89015	47245.3625
628.87913	47243.3625
632.86528	47521.9625
636.84862	47250.8625
640.82913	46046.9625
644.80683	44759.3625
648.78172	44203.4625
652.75379	44351.0625
656.72306	44878.4625
660.68952	45277.2625
664.65319	44848.4625
668.61405	44262.2625
672.57211	44244.7625
676.52738	44370.8625
680.47986	44380.1625
684.42955	44142.2625
688.37646	43952.7625
692.32058	44207.8625
696.26192	44899.0625
700.20048	45696.7625
704.13626	46186.0625
708.06928	46415.1625
711.99952	46417.6625
715.927	46550.3625
719.85171	46543.0625
723.77365	46146.9625
727.69284	45234.7625
731.60928	44428.5625
735.52295	43995.1625
739.43388	43947.2625
743.34206	44084.0625
747.24749	44375.7625
751.15017	44948.2625
755.05012	45812.4625
758.94733	47085.0625
762.8418	48913.4625
766.73354	51335.7625
770.62254	53065.7625
774.50882	52631.8625
778.39237	50386.2625
782.27321	47950.8625
786.15132	46186.3625
790.02671	45013.0625
793.89938	44397.6625
797.76935	44041.3625
801.6366	44000.3625
805.50115	43914.6625
809.36299	43742.7625
813.22213	43479.7625
817.07857	43314.9625
820.93231	43088.2625
824.78336	42864.3625
828.63172	42612.4625
832.47738	42525.6625
836.32036	42524.4625
840.16066	42612.3625
843.99827	42614.6625
847.8332	42670.2625
851.66546	42721.9625
855.49504	42832.4625
859.32195	42878.2625
863.1462	42818.6625
866.96777	42741.0625
870.78668	42805.2625
874.60293	42842.5625
878.41652	42914.7625
882.22745	43087.7625
886.03573	43328.9625
889.84136	43383.9625
893.64433	43358.7625
897.44466	43235.0625
901.24235	43237.0625
905.0374	43341.2625
908.8298	43401.9625
912.61957	43546.9625
916.40671	44105.1625
920.19121	44810.1625
923.97308	45459.4625
927.75233	45519.9625
931.52895	44826.4625
935.30295	43837.8625
939.07433	42903.9625
942.84309	42297.6625
946.60924	41973.4625
950.37278	41785.9625
954.13371	41837.0625
957.89203	41834.3625
961.64774	41736.9625
965.40086	41709.7625
969.15137	41546.9625
972.89929	41439.5625
976.64461	41173.3625
980.38733	41066.1625
984.12747	40991.8625
987.86502	41150.2625
991.59999	41289.2625
995.33237	41559.4625
999.06217	42115.7625
1002.78939	42958.9625
1006.51404	44008.7625
1010.23611	45019.7625
1013.95561	45583.4625
1017.67255	45564.5625
1021.38692	44944.0625
1025.09872	44142.7625
1028.80796	43413.1625
1032.51465	43145.2625
1036.21877	43246.7625
1039.92035	43455.1625
1043.61937	43678.5625
1047.31584	43770.8625
1051.00976	43948.9625
1054.70114	44248.3625
1058.38998	44700.3625
1062.07627	45402.9625
1065.76003	46289.7625
1069.44126	47478.8625
1073.11995	48850.5625
1076.79611	49864.3625
1080.46974	50109.2625
1084.14085	49914.8625
1087.80943	49923.2625
1091.47549	50130.5625
1095.13903	50145.7625
1098.80005	49342.1625
1102.45857	47942.7625
1106.11456	46687.8625
1109.76805	45923.5625
1113.41903	45722.3625
1117.06751	45671.7625
1120.71348	45818.4625
1124.35696	46018.2625
1127.99793	46298.6625
1131.63641	46629.9625
1135.2724	46902.4625
1138.90589	47166.2625
1142.5369	47505.7625
1146.16542	47913.6625
1149.79145	48432.7625
1153.415	48931.9625
1157.03607	49690.2625
1160.65467	51134.1625
1164.27079	53513.8625
1167.88443	56139.6625
1171.49561	58505.2625
1175.10432	60975.8625
1178.71056	64122.6625
1182.31434	67268.6625
1185.91565	68921.5625
1189.51451	68934.6625
1193.11091	68010.6625
1196.70485	66490.7625
1200.29634	64637.0625
1203.88538	63435.7625
1207.47197	63276.1625
1211.05612	63526.5625
1214.63782	62887.7625
1218.21708	61346.1625
1221.79391	59189.1625
1225.36829	57454.5625
1228.94024	56392.4625
1232.50976	55633.5625
1236.07685	55005.0625
1239.6415	54539.8625
1243.20374	54459.3625
1246.76355	54831.2625
1250.32093	55594.6625
1253.8759	56703.9625
1257.42845	58285.0625
1260.97859	60078.5625
1264.52631	61879.3625
1268.07163	63881.4625
1271.61453	65842.6625
1275.15503	67775.8625
1278.69312	69939.3625
1282.22882	72330.0625
1285.76211	75046.1625
1289.29301	78086.9625
1292.82151	81307.1625
1296.34761	85038.0625
1299.87133	89353.6625
1303.39266	93473.7625
1306.9116	96601.1625
1310.42815	98234.1625
1313.94233	98336.5625
1317.45412	97569.1625
1320.96354	96746.4625
1324.47058	96590.9625
1327.97525	97247.0625
1331.47754	97711.4625
1334.97747	97709.1625
1338.47502	96946.7625
1341.97022	95811.4625
1345.46305	94141.4625
1348.95352	92368.6625
1352.44163	91104.5625
1355.92738	91255.7625
1359.41078	93048.8625
1362.89183	94833.2625
1366.37053	94479.0625
1369.84688	89982.5625
1373.32088	82307.9625
1376.79254	76064.4625
1380.26186	73465.4625
1383.72883	73572.6625
1387.19347	73847.6625
1390.65578	73244.7625
1394.11575	72775.9625
1397.57339	73405.6625
1401.0287	74878.6625
1404.48168	76096.0625
1407.93234	76027.6625
1411.38068	74421.6625
1414.82669	71756.6625
1418.27039	68609.4625
1421.71177	65786.5625
1425.15083	63648.2625
1428.58758	62990.1625
1432.02203	63966.3625
1435.45416	65972.5625
1438.88399	68210.7625
1442.31151	69722.2625
1445.73673	70304.1625
1449.15965	70301.9625
1452.58027	70020.6625
1455.9986	69640.5625
1459.41463	69958.0625
1462.82837	71017.6625
1466.23982	72496.9625
1469.64898	73654.0625
1473.05586	74166.4625
1476.46045	74253.1625
1479.86276	73841.9625
1483.26279	73225.3625
1486.66054	72874.3625
1490.05602	73136.3625
1493.44922	73755.1625
1496.84016	74291.1625
1500.22882	74819.4625
1503.61521	75374.4625
1506.99934	75757.9625
1510.38121	76017.3625
1513.76081	75949.6625
1517.13816	75865.9625
1520.51324	76045.7625
1523.88607	76738.7625
1527.25665	77770.3625
1530.62498	78434.6625
1533.99105	77954.5625
1537.35488	76393.6625
1540.71647	74192.8625
1544.07581	71687.5625
1547.4329	69339.7625
1550.78776	67448.4625
1554.14038	66204.7625
1557.49077	65465.3625
1560.83892	64980.7625
1564.18484	64593.8625
1567.52853	64383.5625
1570.86999	64989.3625
1574.20922	66618.5625
1577.54624	68680.5625
1580.88103	70462.7625
1584.2136	72633.9625
1587.54395	75512.9625
1590.87208	79287.8625
1594.19801	83177.8625
1597.52172	86083.1625
1600.84321	85462.5625
1604.16251	80518.9625
1607.47959	73662.1625
1610.79447	67032.6625
1614.10715	61487.2625
1617.41763	57067.9625
1620.7259	54163.0625
1624.03199	52825.6625
1627.33587	52948.5625
1630.63757	54718.8625
1633.93707	58584.0625
1637.23439	65265.8625
1640.52951	74879.7625
1643.82246	86023.1625
1647.11321	94176.5625
1650.40179	94135.1625
1653.68819	85784.6625
1656.97241	73598.5625
1660.25446	62502.2625
1663.53433	54618.1625
1666.81203	49620.7625
1670.08756	46444.8625
1673.36092	44476.9625
1676.63211	43193.1625
1679.90115	42274.6625
1683.16801	41539.4625
1686.43272	41054.2625
1689.69527	40745.6625
1692.95567	40435.2625
1696.2139	40214.4625
1699.46999	40066.9625
1702.72392	39968.2625
1705.97571	39821.5625
1709.22535	39671.7625
1712.47284	39643.8625
1715.71819	39545.5625
1718.96139	39439.2625
1722.20246	39349.9625
1725.44139	39116.5625
1728.67818	38908.5625
1731.91284	38657.0625
1735.14537	38378.6625
1738.37576	38294.1625
1741.60403	38084.6625
1744.83017	38007.8625
1748.05418	37864.7625
1751.27607	37823.7625
1754.49584	37779.2625
1757.71349	37696.5625
1760.92903	37652.6625
1764.14244	37524.8625
1767.35375	37540.4625
1770.56294	37493.7625
1773.77002	37425.9625
1776.97499	37437.9625
1780.17785	37406.8625
1783.37861	37292.9625
1786.57727	37261.7625
1789.77382	37150.3625
1792.96828	37037.7625
1796.16064	36970.2625
1799.3509	36922.7625
1802.53907	36848.8625
1805.72514	36757.3625
1808.90913	36704.3625
1812.09102	36618.1625
1815.27083	36546.7625
1818.44856	36542.7625
1821.6242	36527.4625
1824.79776	36444.0625
1827.96924	36526.0625
1831.13864	36424.2625
1834.30597	36456.6625
1837.47122	36473.0625
1840.6344	36441.9625
1843.7955	36521.0625
1846.95454	36494.2625
1850.11151	36425.7625
1853.26642	36424.3625
1856.41926	36398.6625
1859.57004	36363.6625
1862.71876	36319.0625
1865.86542	36231.3625
1869.01003	36143.2625
1872.15258	36107.4625
1875.29308	36010.9625
1878.43152	35971.1625
1881.56792	35932.5625
1884.70227	35913.1625
1887.83457	35884.8625
1890.96482	35825.5625
1894.09304	35807.8625
1897.21921	35757.0625
1900.34335	35732.4625
1903.46544	35661.2625
1906.58551	35659.0625
1909.70353	35604.4625
1912.81953	35517.6625
1915.93349	35446.3625
1919.04543	35314.8625
1922.15534	35257.5625
1925.26322	35210.9625
1928.36908	35080.5625
1931.47292	34953.8625
1934.57473	34867.5625
1937.67453	34807.8625
1940.77232	34722.8625
1943.86808	34638.9625
1946.96184	34561.2625
1950.05358	34455.2625
1953.14331	34331.6625
1956.23103	34281.6625
1959.31675	34169.7625
1962.40046	34089.3625
1965.48217	34022.7625
1968.56188	33907.6625
1971.63959	33756.5625
1974.7153	33667.6625
1977.78901	33610.3625
1980.86073	33471.0625
1983.93046	33331.6625
1986.99819	33223.8625
1990.06394	33162.6625
1993.1277	33148.7625
1996.18947	33032.0625
1999.24925	32947.0625
2002.30706	32799.7625
2005.36288	32773.8625
2008.41672	32679.7625
2011.46859	32513.2625
2014.51848	32476.4625
2017.56639	32394.5625
2020.61233	32295.5625
2023.6563	32258.0625
2026.6983	32149.7625
2029.73833	32057.8625
2032.7764	31995.1625
2035.8125	31936.5625
2038.84664	31875.1625
2041.87881	31857.7625
2044.90903	31764.3625
2047.93729	31688.0625
2050.96359	31657.7625
2053.98794	31638.7625
2057.01034	31585.8625
2060.03078	31593.9625
2063.04927	31527.0625
2066.06582	31520.7625
2069.08042	31515.7625
2072.09307	31542.5625
2075.10378	31504.1625
2078.11255	31448.4625
2081.11938	31485.1625
2084.12426	31416.2625
2087.12722	31384.1625
2090.12824	31363.2625
2093.12732	31380.6625
2096.12447	31412.4625
2099.11969	31396.9625
2102.11299	31396.7625
2105.10435	31388.2625
2108.09379	31410.8625
2111.08131	31429.0625
2114.0669	31457.5625
2117.05057	31452.2625
2120.03233	31421.1625
2123.01216	31435.5625
2125.99008	31503.6625
2128.96609	31483.7625
2131.94018	31465.9625
2134.91236	31513.6625
2137.88263	31473.4625
2140.851	31545.6625
2143.81746	31519.3625
2146.78201	31526.2625
2149.74466	31529.8625
2152.7054	31553.7625
2155.66425	31513.9625
2158.6212	31503.7625
2161.57625	31499.8625
2164.52941	31507.6625
2167.48067	31493.1625
2170.43004	31475.7625
2173.37752	31438.0625
2176.32311	31391.7625
2179.26681	31373.7625
2182.20863	31431.2625
2185.14856	31435.6625
2188.08661	31425.5625
2191.02278	31428.0625
2193.95707	31391.6625
2196.88948	31430.6625
2199.82001	31378.6625
2202.74867	31340.5625
2205.67545	31273.9625
2208.60037	31237.3625
2211.52341	31179.1625
2214.44458	31156.2625
2217.36388	31092.5625
2220.28132	31010.8625
2223.1969	30986.1625
2226.11061	30944.3625
2229.02246	30911.2625
2231.93245	30849.0625
2234.84058	30822.1625
2237.74686	30788.2625
2240.65128	30807.3625
2243.55385	30716.7625
2246.45456	30649.6625
2249.35343	30623.4625
2252.25044	30513.8625
2255.14561	30478.4625
2258.03893	30435.3625
2260.93041	30386.7625
2263.82004	30274.0625
2266.70783	30209.5625
2269.59378	30131.1625
2272.4779	30084.6625
2275.36017	29960.7625
2278.24061	29939.4625
2281.11922	29878.5625
2283.996	29839.5625
2286.87094	29833.0625
2289.74405	29712.2625
2292.61534	29647.2625
2295.4848	29630.9625
2298.35243	29639.1625
2301.21824	29622.8625
2304.08223	29662.4625
2306.94439	29597.3625
2309.80474	29556.9625
2312.66327	29552.3625
2315.51999	29487.5625
2318.37489	29481.6625
2321.22797	29401.6625
2324.07925	29436.5625
2326.92871	29335.3625
2329.77637	29314.0625
2332.62222	29322.6625
2335.46626	29273.6625
2338.3085	29265.7625
2341.14893	29251.0625
2343.98756	29261.8625
2346.8244	29188.2625
2349.65943	29143.2625
2352.49267	29110.2625
2355.32411	29117.7625
2358.15376	29073.3625
2360.98161	29050.9625
2363.80768	29087.6625
2366.63195	29050.0625
2369.45444	29010.6625
2372.27514	28949.6625
2375.09405	28964.2625
2377.91118	28925.1625
2380.72652	28861.4625
2383.54009	28776.2625
2386.35187	28769.8625
2389.16188	28744.3625
2391.97011	28688.6625
2394.77657	28634.3625
2397.58125	28596.5625
2400.38416	28526.0625
2403.18529	28465.7625
2405.98466	28473.0625
2408.78226	28438.1625
2411.57809	28420.6625
2414.37216	28345.2625
2417.16446	28362.4625
2419.955	28319.1625
2422.74378	28259.6625
2425.5308	28257.1625
2428.31606	28239.1625
2431.09956	28221.0625
2433.88131	28154.8625
2436.6613	28140.9625
2439.43954	28161.5625
2442.21603	28108.9625
2444.99077	28072.6625
2447.76377	28141.3625
2450.53501	28043.1625
2453.30451	28016.9625
2456.07226	28029.2625
2458.83827	28034.2625
2461.60254	28024.4625
2464.36507	27997.9625
2467.12586	27961.8625
2469.88492	27947.4625
2472.64224	27979.4625
2475.39782	27969.8625
2478.15167	27935.8625
2480.90379	27929.5625
2483.65417	27918.3625
2486.40283	27897.4625
2489.14976	27897.3625
2491.89497	27836.7625
2494.63845	27814.2625
2497.3802	27856.9625
2500.12024	27855.8625
2502.85855	27876.1625
2505.59514	27838.2625
2508.33002	27788.4625
2511.06318	27770.7625
2513.79462	27731.6625
2516.52435	27718.1625
2519.25237	27684.6625
2521.97867	27658.9625
2524.70327	27686.0625
2527.42616	27661.6625
2530.14734	27680.8625
2532.86681	27649.5625
2535.58458	27600.4625
2538.30065	27524.2625
2541.01501	27516.3625
2543.72768	27516.9625
2546.43864	27509.1625
2549.14791	27477.6625
2551.85548	27516.4625
2554.56136	27447.9625
2557.26554	27375.0625
2559.96803	27387.5625
2562.66883	27310.0625
2565.36794	27346.4625
2568.06536	27299.8625
2570.7611	27233.1625
2573.45514	27243.9625
2576.14751	27221.3625
2578.83819	27187.8625
2581.52719	27138.3625
2584.21451	27085.8625
2586.90015	27052.7625
2589.58411	27054.6625
2592.2664	26996.7625
2594.94701	26981.8625
2597.62594	26976.6625
2600.30321	26902.1625
2602.9788	26870.1625
2605.65273	26876.8625
2608.32498	26865.0625
2610.99557	26843.8625
2613.66449	26846.5625
2616.33175	26808.2625
2618.99734	26789.4625
2621.66128	26752.6625
2624.32355	26721.6625
2626.98416	26744.1625
2629.64311	26726.0625
2632.30041	26702.7625
2634.95605	26663.0625
2637.61004	26625.3625
2640.26238	26631.0625
2642.91306	26628.5625
2645.56209	26605.0625
2648.20948	26608.6625
2650.85521	26603.1625
2653.4993	26628.4625
2656.14175	26666.1625
2658.78255	26692.8625
2661.42171	26666.8625
2664.05923	26684.5625
2666.6951	26673.3625
2669.32934	26685.8625
2671.96194	26687.4625
2674.59291	26676.9625
2677.22224	26625.1625
2679.84993	26662.5625
2682.476	26617.8625
2685.10043	26659.9625
2687.72324	26604.7625
2690.34441	26631.1625
2692.96396	26652.5625
2695.58188	26687.2625
2698.19818	26639.3625
2700.81285	26638.2625
2703.4259	26607.1625
2706.03733	26660.6625
2708.64714	26641.2625
2711.25533	26661.3625
2713.86191	26640.0625
2716.46687	26709.5625
2719.07021	26647.6625
2721.67194	26683.6625
2724.27206	26639.5625
2726.87057	26692.5625
2729.46747	26659.5625
2732.06276	26734.1625
2734.65644	26761.4625
2737.24852	26764.2625
2739.83899	26704.3625
2742.42786	26692.2625
2745.01513	26679.1625
2747.60079	26665.4625
2750.18486	26638.0625
2752.76733	26643.5625
2755.3482	26614.1625
2757.92747	26626.4625
2760.50515	26601.3625
2763.08123	26573.9625
2765.65573	26562.9625
2768.22863	26602.6625
2770.79994	26524.5625
2773.36967	26497.1625
2775.9378	26422.9625
2778.50435	26429.3625
2781.06932	26383.8625
2783.6327	26367.8625
2786.1945	26369.6625
2788.75471	26308.5625
2791.31335	26262.7625
2793.87041	26243.4625
2796.42589	26130.0625
2798.97979	26111.5625
2801.53212	26083.5625
2804.08288	26094.5625
2806.63206	25971.4625
2809.17967	25933.0625
2811.72571	25888.6625
2814.27018	25839.6625
2816.81308	25807.3625
2819.35442	25770.4625
2821.89419	25709.2625
2824.43239	25651.3625
2826.96904	25662.4625
2829.50412	25622.2625
2832.03763	25619.9625
2834.56959	25578.7625
2837.1	25492.5625
2839.62884	25503.6625
2842.15613	25424.2625
2844.68186	25458.9625
2847.20604	25405.4625
2849.72867	25389.1625
2852.24974	25351.3625
2854.76927	25356.8625
2857.28724	25331.2625
2859.80367	25305.6625
2862.31855	25238.4625
2864.83189	25228.3625
2867.34368	25216.5625
2869.85393	25196.6625
2872.36264	25149.7625
2874.8698	25125.0625
2877.37543	25101.4625
2879.87952	25130.6625
2882.38207	25137.5625
2884.88308	25151.2625
2887.38256	25152.5625
2889.88051	25098.7625
2892.37692	25170.8625
2894.8718	25191.3625
2897.36515	25177.2625
2899.85698	25170.6625
2902.34727	25231.4625
2904.83604	25197.9625
2907.32328	25208.4625
2909.809	25165.3625
2912.29319	25242.5625
2914.77587	25139.2625
2917.25702	25142.7625
2919.73665	25123.9625
2922.21476	25164.7625
2924.69136	25134.6625
2927.16644	25112.3625
2929.64	25100.1625
2932.11205	25092.0625
2934.58258	25024.8625
2937.05161	25048.7625
2939.51912	25064.5625
2941.98513	25059.1625
2944.44962	24974.3625
2946.91261	24880.8625
2949.37409	24928.0625
2951.83407	24926.8625
2954.29254	24904.2625
2956.74951	24862.5625
2959.20498	24844.7625
2961.65895	24810.1625
2964.11142	24773.1625
2966.56239	24727.4625
2969.01186	24695.3625
2971.45984	24612.6625
2973.90632	24585.9625
2976.35131	24538.9625
2978.7948	24527.4625
2981.23681	24508.8625
2983.67732	24400.5625
2986.11635	24354.7625
2988.55388	24261.4625
2990.98993	24233.9625
2993.4245	24155.0625
2995.85758	24087.0625
2998.28917	24011.4625
3000.71928	24001.4625
3003.14791	23909.7625
3005.57506	23835.0625
3008.00073	23780.1625
3010.42493	23786.1625
3012.84764	23733.1625
3015.26888	23724.4625
3017.68865	23658.1625
3020.10694	23656.6625
3022.52376	23569.5625
3024.9391	23566.5625
3027.35298	23476.4625
3029.76539	23494.1625
3032.17632	23451.3625
3034.5858	23391.3625
3036.9938	23344.8625
3039.40034	23347.6625
3041.80542	23323.8625
3044.20903	23276.1625
3046.61118	23227.6625
3049.01187	23163.6625
3051.4111	23128.1625
3053.80888	23084.8625
3056.20519	23026.5625
3058.60005	22966.0625
3060.99345	22904.0625
3063.3854	22854.7625
3065.7759	22801.6625
3068.16494	22736.1625
3070.55254	22628.4625
3072.93868	22621.0625
3075.32338	22529.2625
3077.70662	22464.8625
3080.08842	22390.8625
3082.46878	22399.5625
3084.84769	22332.6625
3087.22515	22327.6625
3089.60118	22372.4625
3091.97576	22317.9625
3094.3489	22257.2625
3096.72061	22197.4625
3099.09087	22191.6625
3101.4597	22172.9625
3103.82709	22161.7625
3106.19305	22127.8625
3108.55757	22091.1625
3110.92066	22028.4625
3113.28232	21997.8625
3115.64255	21872.6625
3118.00134	21850.8625
3120.35871	21812.1625
3122.71466	21764.5625
3125.06917	21711.3625
3127.42226	21651.4625
3129.77393	21666.2625
3132.12417	21657.4625
3134.47299	21621.9625
3136.82039	21613.6625
3139.16636	21618.9625
3141.51092	21583.8625
3143.85406	21552.6625
3146.19579	21560.5625
3148.53609	21516.9625
3150.87499	21515.5625
3153.21246	21544.8625
3155.54853	21573.6625
3157.88318	21478.2625
3160.21642	21504.1625
3162.54826	21460.8625
3164.87868	21460.6625
3167.2077	21440.2625
3169.5353	21402.3625
3171.86151	21356.0625
3174.18631	21349.9625
3176.5097	21329.6625
3178.83169	21283.0625
3181.15228	21264.4625
3183.47147	21205.8625
3185.78926	21213.4625
3188.10565	21213.2625
3190.42065	21148.0625
3192.73424	21151.8625
3195.04645	21112.8625
3197.35725	21113.7625
3199.66667	21068.1625
3201.97469	21036.6625
3204.28132	20986.0625
3206.58656	21007.0625
3208.8904	21020.8625
3211.19287	20987.7625
3213.49394	20967.7625
3215.79363	20962.6625
3218.09193	20939.7625
3220.38884	20959.4625
3222.68438	20914.9625
3224.97853	20907.6625
3227.2713	20866.1625
3229.56269	20868.6625
3231.8527	20834.6625
3234.14133	20792.7625
3236.42858	20756.9625
3238.71446	20705.7625
3240.99896	20661.9625
3243.28209	20661.4625
3245.56384	20625.5625
3247.84423	20634.9625
3250.12324	20599.3625
3252.40088	20555.8625
3254.67715	20524.7625
3256.95205	20490.5625
3259.22558	20453.6625
3261.49775	20371.5625
3263.76855	20340.8625
3266.03799	20264.4625
3268.30606	20281.1625
3270.57277	20228.0625
3272.83812	20209.4625
3275.10211	20184.9625
3277.36474	20137.0625
3279.62601	20145.1625
3281.88593	20131.4625
3284.14448	20176.8625
3286.40168	20124.9625
3288.65753	20089.0625
3290.91202	20095.0625
3293.16516	19999.9625
3295.41695	19930.9625
3297.66738	19837.5625
3299.91647	19743.0625
3302.16421	19589.9625
3304.4106	19526.2625
3306.65564	19403.5625
3308.89933	19285.7625
3311.14169	19127.6625
3313.38269	18957.4625
3315.62236	18864.9625
3317.86068	18701.1625
3320.09766	18490.8625
3322.3333	18308.6625
3324.5676	18302.1625
3326.80056	17980.7625
3329.03219	17907.7625
3331.26248	4.7625
3333.49143	0.1625
3335.71905	-0.8375
