Data from AgNP_FTO_APTES_CRN_1uM_R6G_10uM_NaF_0.1M_Addition_RamanShift__18__14-06-30-801.txt Node

Date: Wed Dec 15 14:06:30 GMT 2021
User: TCL
Spectrometer: QEP01345
Trigger mode: 4
Integration Time (sec): 7.000000E0
Scans to average: 10
Electric dark correction enabled: true
Nonlinearity correction enabled: false
Boxcar width: 0
XAxis mode: Raman Shifts
Number of Pixels in Spectrum: 1044
>>>>>Begin Spectral Data<<<<<
46.04893	0.4625
50.45542	-2.7375
54.85868	-2.5375
59.25871	-1.2375
63.6555	139.4625
68.04907	146.2625
72.43941	158.6625
76.82654	161.8625
81.21044	168.3625
85.59113	179.2625
89.96862	184.3625
94.34289	187.3625
98.71396	199.6625
103.08183	203.3625
107.4465	207.4625
111.80798	211.0625
116.16626	219.0625
120.52136	227.8625
124.87327	232.4625
129.222	235.9625
133.56755	253.9625
137.90993	273.4625
142.24913	285.2625
146.58517	323.4625
150.91804	369.0625
155.24774	434.9625
159.57429	525.0625
163.89768	670.5625
168.21792	872.2625
172.53501	1179.4625
176.84895	1633.2625
181.15975	2274.3625
185.46741	3189.5625
189.77193	4367.1625
194.07331	5820.4625
198.37157	7490.1625
202.6667	9219.9625
206.9587	10961.1625
211.24758	12647.5625
215.53334	14348.2625
219.81599	16186.9625
224.09553	18243.2625
228.37195	20497.0625
232.64527	22964.5625
236.91549	25585.1625
241.18261	28138.4625
245.44663	30520.3625
249.70755	32599.6625
253.96539	34320.6625
258.22014	35879.2625
262.4718	37167.1625
266.72039	38068.5625
270.96589	38598.2625
275.20832	38647.1625
279.44768	38422.0625
283.68397	38072.5625
287.91719	37720.8625
292.14735	37577.3625
296.37445	37615.1625
300.59849	37836.1625
304.81948	38098.5625
309.03742	38305.1625
313.25231	38000.8625
317.46415	37120.2625
321.67296	35940.9625
325.87872	34942.7625
330.08145	34470.8625
334.28114	34393.5625
338.47781	34739.3625
342.67145	35203.9625
346.86207	35946.3625
351.04966	36739.7625
355.23424	37788.9625
359.4158	38606.7625
363.59435	39220.7625
367.76989	39585.8625
371.94243	39703.6625
376.11196	39838.0625
380.27849	39944.3625
384.44203	40068.4625
388.60257	40163.2625
392.76012	40530.1625
396.91468	41027.0625
401.06626	41776.4625
405.21485	42298.7625
409.36047	42224.6625
413.50311	41500.7625
417.64277	40829.0625
421.77947	40602.1625
425.9132	40684.4625
430.04396	40821.3625
434.17176	41081.7625
438.2966	41375.2625
442.41849	42088.1625
446.53742	43159.6625
450.6534	44428.9625
454.76644	45415.7625
458.87653	45771.8625
462.98368	45565.4625
467.08789	45067.0625
471.18916	44258.5625
475.2875	43479.8625
479.38291	42951.5625
483.4754	42508.6625
487.56496	42075.7625
491.6516	41545.0625
495.73531	41175.7625
499.81612	41024.8625
503.89401	41337.3625
507.96899	41661.7625
512.04106	41700.8625
516.11023	41620.4625
520.1765	41416.6625
524.23987	41136.3625
528.30034	40733.0625
532.35792	40175.6625
536.41261	39582.0625
540.46441	39024.3625
544.51333	38950.4625
548.55936	39470.1625
552.60252	40280.7625
556.64279	40997.3625
560.6802	41495.5625
564.71473	41893.9625
568.7464	42663.5625
572.7752	43563.7625
576.80114	44382.9625
580.82422	45136.4625
584.84444	45959.2625
588.86181	46716.9625
592.87633	47472.3625
596.888	48172.3625
600.89682	48790.8625
604.9028	51054.0625
608.90594	56036.2625
612.90624	60610.5625
616.90371	56429.8625
620.89834	46532.6625
624.89015	42379.0625
628.87913	41981.7625
632.86528	42048.1625
636.84862	41770.7625
640.82913	40968.9625
644.80683	39687.2625
648.78172	38728.8625
652.75379	38602.0625
656.72306	39240.1625
660.68952	40032.7625
664.65319	39861.9625
668.61405	39095.2625
672.57211	38708.0625
676.52738	38726.4625
680.47986	38683.9625
684.42955	38461.7625
688.37646	38342.7625
692.32058	38543.5625
696.26192	39042.8625
700.20048	39500.8625
704.13626	39861.5625
708.06928	39730.7625
711.99952	39438.2625
715.927	39399.8625
719.85171	39595.2625
723.77365	39430.4625
727.69284	38819.2625
731.60928	38356.5625
735.52295	38163.3625
739.43388	38185.2625
743.34206	38278.7625
747.24749	38527.3625
751.15017	38956.4625
755.05012	39750.6625
758.94733	40997.5625
762.8418	43347.0625
766.73354	46981.7625
770.62254	50480.7625
774.50882	51290.1625
778.39237	48681.7625
782.27321	44668.4625
786.15132	41509.2625
790.02671	39619.1625
793.89938	38732.9625
797.76935	38482.2625
801.6366	38420.3625
805.50115	38261.1625
809.36299	38033.1625
813.22213	37707.2625
817.07857	37572.7625
820.93231	37460.6625
824.78336	37377.0625
828.63172	37334.8625
832.47738	37359.5625
836.32036	37448.8625
840.16066	37707.4625
843.99827	37893.6625
847.8332	37828.1625
851.66546	37643.6625
855.49504	37518.5625
859.32195	37482.8625
863.1462	37347.0625
866.96777	37144.7625
870.78668	36974.0625
874.60293	36952.2625
878.41652	36948.6625
882.22745	37100.2625
886.03573	37277.5625
889.84136	37192.6625
893.64433	36944.1625
897.44466	36781.9625
901.24235	36662.7625
905.0374	36638.1625
908.8298	36590.8625
912.61957	36683.7625
916.40671	37094.7625
920.19121	37681.5625
923.97308	38330.6625
927.75233	38661.0625
931.52895	38558.2625
935.30295	37990.7625
939.07433	37150.2625
942.84309	36540.2625
946.60924	36394.1625
950.37278	36297.5625
954.13371	36202.2625
957.89203	35979.3625
961.64774	35836.3625
965.40086	35773.5625
969.15137	35747.0625
972.89929	35588.6625
976.64461	35597.0625
980.38733	35719.5625
984.12747	36009.1625
987.86502	36442.6625
991.59999	37108.6625
995.33237	38003.3625
999.06217	39424.9625
1002.78939	40931.7625
1006.51404	41969.7625
1010.23611	42455.6625
1013.95561	42752.3625
1017.67255	42531.6625
1021.38692	41803.9625
1025.09872	41323.8625
1028.80796	41882.2625
1032.51465	43458.8625
1036.21877	44997.6625
1039.92035	45278.4625
1043.61937	44418.8625
1047.31584	43038.0625
1051.00976	41547.0625
1054.70114	40702.7625
1058.38998	40688.3625
1062.07627	40995.2625
1065.76003	41521.2625
1069.44126	42181.6625
1073.11995	43219.0625
1076.79611	44149.8625
1080.46974	44588.2625
1084.14085	44735.0625
1087.80943	44940.4625
1091.47549	44968.4625
1095.13903	44719.1625
1098.80005	43957.0625
1102.45857	42880.4625
1106.11456	42080.4625
1109.76805	41822.6625
1113.41903	41833.7625
1117.06751	42109.7625
1120.71348	42478.9625
1124.35696	42858.8625
1127.99793	43374.8625
1131.63641	43732.4625
1135.2724	43488.2625
1138.90589	43101.6625
1142.5369	42908.5625
1146.16542	42882.3625
1149.79145	42972.7625
1153.415	43309.8625
1157.03607	43829.4625
1160.65467	44973.8625
1164.27079	46856.0625
1167.88443	49506.3625
1171.49561	52777.0625
1175.10432	57115.1625
1178.71056	62606.9625
1182.31434	67591.1625
1185.91565	70112.1625
1189.51451	69566.0625
1193.11091	66856.9625
1196.70485	63214.7625
1200.29634	60132.0625
1203.88538	57976.5625
1207.47197	56656.2625
1211.05612	55529.2625
1214.63782	54758.6625
1218.21708	54183.3625
1221.79391	53879.5625
1225.36829	53590.1625
1228.94024	52994.8625
1232.50976	52077.9625
1236.07685	51273.2625
1239.6415	50840.6625
1243.20374	50793.8625
1246.76355	51155.1625
1250.32093	52080.8625
1253.8759	53408.6625
1257.42845	55177.3625
1260.97859	56819.4625
1264.52631	58481.8625
1268.07163	60202.5625
1271.61453	62054.3625
1275.15503	64247.8625
1278.69312	66289.9625
1282.22882	68087.0625
1285.76211	69696.0625
1289.29301	71333.2625
1292.82151	73334.4625
1296.34761	76187.2625
1299.87133	80327.0625
1303.39266	85509.8625
1306.9116	91483.6625
1310.42815	97113.6625
1313.94233	100743.7625
1317.45412	100804.0625
1320.96354	98442.8625
1324.47058	95538.6625
1327.97525	93080.1625
1331.47754	91422.0625
1334.97747	90483.1625
1338.47502	90086.1625
1341.97022	89262.9625
1345.46305	87779.0625
1348.95352	86283.3625
1352.44163	85842.7625
1355.92738	87727.6625
1359.41078	92446.8625
1362.89183	97054.2625
1366.37053	95811.7625
1369.84688	87929.6625
1373.32088	78368.7625
1376.79254	71533.8625
1380.26186	68567.6625
1383.72883	67970.8625
1387.19347	67422.7625
1390.65578	66387.3625
1394.11575	65710.0625
1397.57339	66014.0625
1401.0287	67232.0625
1404.48168	68531.3625
1407.93234	69140.2625
1411.38068	68730.4625
1414.82669	67068.4625
1418.27039	64665.5625
1421.71177	62016.1625
1425.15083	59802.7625
1428.58758	58538.0625
1432.02203	58727.8625
1435.45416	60049.2625
1438.88399	61849.8625
1442.31151	63479.7625
1445.73673	64575.5625
1449.15965	65377.4625
1452.58027	65740.4625
1455.9986	65810.5625
1459.41463	66042.5625
1462.82837	67162.0625
1466.23982	68885.5625
1469.64898	70378.3625
1473.05586	71393.1625
1476.46045	71694.5625
1479.86276	71291.7625
1483.26279	70611.3625
1486.66054	69899.5625
1490.05602	69904.4625
1493.44922	70149.5625
1496.84016	70692.7625
1500.22882	72035.9625
1503.61521	74258.3625
1506.99934	77183.4625
1510.38121	79936.9625
1513.76081	80862.5625
1517.13816	79105.1625
1520.51324	75528.0625
1523.88607	72074.5625
1527.25665	69842.8625
1530.62498	68743.9625
1533.99105	68229.7625
1537.35488	67717.7625
1540.71647	66963.0625
1544.07581	65939.0625
1547.4329	64884.1625
1550.78776	63883.1625
1554.14038	63087.4625
1557.49077	62602.6625
1560.83892	62341.8625
1564.18484	62402.3625
1567.52853	62635.4625
1570.86999	63343.6625
1574.20922	64581.2625
1577.54624	65787.8625
1580.88103	66264.4625
1584.2136	66767.5625
1587.54395	68259.3625
1590.87208	71196.4625
1594.19801	75562.8625
1597.52172	80175.7625
1600.84321	81501.7625
1604.16251	77694.2625
1607.47959	71042.7625
1610.79447	64373.2625
1614.10715	58497.4625
1617.41763	53923.0625
1620.7259	50860.3625
1624.03199	49342.2625
1627.33587	49396.1625
1630.63757	50984.0625
1633.93707	54280.8625
1637.23439	59588.9625
1640.52951	66700.1625
1643.82246	74619.3625
1647.11321	80440.6625
1650.40179	81109.6625
1653.68819	75445.1625
1656.97241	65553.7625
1660.25446	55900.9625
1663.53433	48747.9625
1666.81203	44193.1625
1670.08756	41350.1625
1673.36092	39536.5625
1676.63211	38326.9625
1679.90115	37496.4625
1683.16801	36824.3625
1686.43272	36398.4625
1689.69527	36058.5625
1692.95567	35770.3625
1696.2139	35662.0625
1699.46999	35511.2625
1702.72392	35359.5625
1705.97571	35307.6625
1709.22535	35204.8625
1712.47284	35196.7625
1715.71819	35143.2625
1718.96139	35077.2625
1722.20246	34893.0625
1725.44139	34792.4625
1728.67818	34562.7625
1731.91284	34340.2625
1735.14537	34206.7625
1738.37576	34001.3625
1741.60403	33837.5625
1744.83017	33750.4625
1748.05418	33651.9625
1751.27607	33624.2625
1754.49584	33505.2625
1757.71349	33465.4625
1760.92903	33460.0625
1764.14244	33476.1625
1767.35375	33393.6625
1770.56294	33363.7625
1773.77002	33339.5625
1776.97499	33300.3625
1780.17785	33203.9625
1783.37861	33187.6625
1786.57727	33159.8625
1789.77382	33068.8625
1792.96828	33018.9625
1796.16064	32956.4625
1799.3509	32932.7625
1802.53907	32851.9625
1805.72514	32790.8625
1808.90913	32621.8625
1812.09102	32618.6625
1815.27083	32601.2625
1818.44856	32495.8625
1821.6242	32511.4625
1824.79776	32444.3625
1827.96924	32403.5625
1831.13864	32395.0625
1834.30597	32425.8625
1837.47122	32432.5625
1840.6344	32417.7625
1843.7955	32415.1625
1846.95454	32390.5625
1850.11151	32384.0625
1853.26642	32368.3625
1856.41926	32384.8625
1859.57004	32335.9625
1862.71876	32358.2625
1865.86542	32344.8625
1869.01003	32376.9625
1872.15258	32315.9625
1875.29308	32263.1625
1878.43152	32304.2625
1881.56792	32306.7625
1884.70227	32271.2625
1887.83457	32307.3625
1890.96482	32319.1625
1894.09304	32273.7625
1897.21921	32244.5625
1900.34335	32215.5625
1903.46544	32236.5625
1906.58551	32237.9625
1909.70353	32227.7625
1912.81953	32184.5625
1915.93349	32145.4625
1919.04543	32087.4625
1922.15534	32059.3625
1925.26322	31960.0625
1928.36908	31902.2625
1931.47292	31830.3625
1934.57473	31712.7625
1937.67453	31654.4625
1940.77232	31528.0625
1943.86808	31391.1625
1946.96184	31339.0625
1950.05358	31184.7625
1953.14331	31075.2625
1956.23103	30986.4625
1959.31675	30908.0625
1962.40046	30874.4625
1965.48217	30745.3625
1968.56188	30711.7625
1971.63959	30591.7625
1974.7153	30527.2625
1977.78901	30401.7625
1980.86073	30367.4625
1983.93046	30270.5625
1986.99819	30162.1625
1990.06394	30059.0625
1993.1277	30033.2625
1996.18947	29908.0625
1999.24925	29830.2625
2002.30706	29694.4625
2005.36288	29630.9625
2008.41672	29559.0625
2011.46859	29510.9625
2014.51848	29433.4625
2017.56639	29382.3625
2020.61233	29257.3625
2023.6563	29235.1625
2026.6983	29176.5625
2029.73833	29187.7625
2032.7764	29142.9625
2035.8125	29127.7625
2038.84664	29064.8625
2041.87881	29079.1625
2044.90903	29027.8625
2047.93729	29014.5625
2050.96359	28931.2625
2053.98794	28914.2625
2057.01034	28879.4625
2060.03078	28823.4625
2063.04927	28845.7625
2066.06582	28810.2625
2069.08042	28799.5625
2072.09307	28748.6625
2075.10378	28716.5625
2078.11255	28702.9625
2081.11938	28690.3625
2084.12426	28660.6625
2087.12722	28674.1625
2090.12824	28582.1625
2093.12732	28639.9625
2096.12447	28641.9625
2099.11969	28631.1625
2102.11299	28655.7625
2105.10435	28724.7625
2108.09379	28698.4625
2111.08131	28738.3625
2114.0669	28703.1625
2117.05057	28745.1625
2120.03233	28750.4625
2123.01216	28804.0625
2125.99008	28783.8625
2128.96609	28824.8625
2131.94018	28840.1625
2134.91236	28888.5625
2137.88263	28903.4625
2140.851	28891.3625
2143.81746	28960.3625
2146.78201	28949.1625
2149.74466	28971.2625
2152.7054	29009.7625
2155.66425	29003.0625
2158.6212	29012.6625
2161.57625	29005.2625
2164.52941	28999.0625
2167.48067	28957.3625
2170.43004	28969.0625
2173.37752	28937.6625
2176.32311	28964.4625
2179.26681	28990.2625
2182.20863	28968.1625
2185.14856	28946.5625
2188.08661	29003.4625
2191.02278	28983.1625
2193.95707	29007.5625
2196.88948	28977.7625
2199.82001	28988.4625
2202.74867	28989.7625
2205.67545	28988.8625
2208.60037	28904.2625
2211.52341	28948.6625
2214.44458	28956.2625
2217.36388	28935.8625
2220.28132	28901.0625
2223.1969	28813.1625
2226.11061	28808.3625
2229.02246	28708.6625
2231.93245	28726.5625
2234.84058	28613.9625
2237.74686	28538.7625
2240.65128	28525.9625
2243.55385	28449.5625
2246.45456	28444.4625
2249.35343	28412.2625
2252.25044	28355.3625
2255.14561	28335.3625
2258.03893	28357.1625
2260.93041	28291.7625
2263.82004	28186.0625
2266.70783	28120.9625
2269.59378	28063.3625
2272.4779	28037.3625
2275.36017	27889.3625
2278.24061	27903.8625
2281.11922	27810.6625
2283.996	27811.2625
2286.87094	27754.3625
2289.74405	27734.6625
2292.61534	27752.8625
2295.4848	27736.3625
2298.35243	27822.2625
2301.21824	27801.6625
2304.08223	27806.3625
2306.94439	27822.7625
2309.80474	27837.4625
2312.66327	27855.9625
2315.51999	27849.2625
2318.37489	27903.2625
2321.22797	27869.9625
2324.07925	27908.9625
2326.92871	27882.1625
2329.77637	27852.3625
2332.62222	27826.1625
2335.46626	27873.0625
2338.3085	27860.6625
2341.14893	27895.6625
2343.98756	27901.4625
2346.8244	27919.3625
2349.65943	27923.8625
2352.49267	27874.6625
2355.32411	27851.4625
2358.15376	27850.5625
2360.98161	27810.1625
2363.80768	27811.4625
2366.63195	27766.6625
2369.45444	27697.2625
2372.27514	27657.9625
2375.09405	27624.4625
2377.91118	27544.3625
2380.72652	27417.1625
2383.54009	27373.6625
2386.35187	27366.6625
2389.16188	27296.4625
2391.97011	27261.2625
2394.77657	27243.9625
2397.58125	27213.4625
2400.38416	27210.0625
2403.18529	27163.6625
2405.98466	27136.6625
2408.78226	27032.9625
2411.57809	27021.8625
2414.37216	26934.1625
2417.16446	26947.6625
2419.955	26846.7625
2422.74378	26853.9625
2425.5308	26814.9625
2428.31606	26845.7625
2431.09956	26812.7625
2433.88131	26751.9625
2436.6613	26757.3625
2439.43954	26756.3625
2442.21603	26791.2625
2444.99077	26721.5625
2447.76377	26755.5625
2450.53501	26712.7625
2453.30451	26733.5625
2456.07226	26768.7625
2458.83827	26759.8625
2461.60254	26748.7625
2464.36507	26753.8625
2467.12586	26761.2625
2469.88492	26787.9625
2472.64224	26775.7625
2475.39782	26819.5625
2478.15167	26852.0625
2480.90379	26856.2625
2483.65417	26902.4625
2486.40283	26896.7625
2489.14976	26898.7625
2491.89497	26862.2625
2494.63845	26933.5625
2497.3802	26895.5625
2500.12024	26916.7625
2502.85855	26910.1625
2505.59514	26914.3625
2508.33002	26890.1625
2511.06318	26806.5625
2513.79462	26814.5625
2516.52435	26799.1625
2519.25237	26763.0625
2521.97867	26794.7625
2524.70327	26790.7625
2527.42616	26712.0625
2530.14734	26721.1625
2532.86681	26693.6625
2535.58458	26692.6625
2538.30065	26687.4625
2541.01501	26704.4625
2543.72768	26635.7625
2546.43864	26653.1625
2549.14791	26650.2625
2551.85548	26640.0625
2554.56136	26568.6625
2557.26554	26566.5625
2559.96803	26582.7625
2562.66883	26540.7625
2565.36794	26559.2625
2568.06536	26528.2625
2570.7611	26507.8625
2573.45514	26517.5625
2576.14751	26478.6625
2578.83819	26486.7625
2581.52719	26497.4625
2584.21451	26489.3625
2586.90015	26495.2625
2589.58411	26454.3625
2592.2664	26510.0625
2594.94701	26408.9625
2597.62594	26420.1625
2600.30321	26416.6625
2602.9788	26422.5625
2605.65273	26405.6625
2608.32498	26418.1625
2610.99557	26421.8625
2613.66449	26446.2625
2616.33175	26406.8625
2618.99734	26421.0625
2621.66128	26443.6625
2624.32355	26446.7625
2626.98416	26463.0625
2629.64311	26434.1625
2632.30041	26458.6625
2634.95605	26457.5625
2637.61004	26405.4625
2640.26238	26373.2625
2642.91306	26344.9625
2645.56209	26317.0625
2648.20948	26311.7625
2650.85521	26302.9625
2653.4993	26306.2625
2656.14175	26253.0625
2658.78255	26303.3625
2661.42171	26253.3625
2664.05923	26299.8625
2666.6951	26283.2625
2669.32934	26394.0625
2671.96194	26343.1625
2674.59291	26399.0625
2677.22224	26377.3625
2679.84993	26369.6625
2682.476	26313.5625
2685.10043	26279.7625
2687.72324	26311.8625
2690.34441	26277.7625
2692.96396	26216.4625
2695.58188	26218.1625
2698.19818	26221.3625
2700.81285	26200.5625
2703.4259	26202.2625
2706.03733	26245.2625
2708.64714	26231.7625
2711.25533	26247.3625
2713.86191	26219.2625
2716.46687	26261.2625
2719.07021	26292.3625
2721.67194	26263.2625
2724.27206	26254.4625
2726.87057	26302.3625
2729.46747	26314.6625
2732.06276	26300.8625
2734.65644	26301.4625
2737.24852	26322.6625
2739.83899	26291.1625
2742.42786	26344.1625
2745.01513	26339.5625
2747.60079	26309.0625
2750.18486	26293.5625
2752.76733	26303.9625
2755.3482	26275.7625
2757.92747	26207.5625
2760.50515	26207.4625
2763.08123	26218.8625
2765.65573	26158.9625
2768.22863	26211.4625
2770.79994	26179.8625
2773.36967	26213.1625
2775.9378	26203.6625
2778.50435	26160.0625
2781.06932	26158.0625
2783.6327	26165.8625
2786.1945	26160.9625
2788.75471	26146.4625
2791.31335	26097.4625
2793.87041	26078.3625
2796.42589	25980.7625
2798.97979	25961.4625
2801.53212	25921.9625
2804.08288	25872.2625
2806.63206	25838.9625
2809.17967	25841.2625
2811.72571	25742.9625
2814.27018	25736.6625
2816.81308	25716.0625
2819.35442	25679.6625
2821.89419	25648.1625
2824.43239	25661.3625
2826.96904	25607.1625
2829.50412	25629.3625
2832.03763	25522.1625
2834.56959	25531.9625
2837.1	25435.6625
2839.62884	25468.2625
2842.15613	25399.1625
2844.68186	25453.6625
2847.20604	25383.5625
2849.72867	25388.4625
2852.24974	25349.8625
2854.76927	25348.4625
2857.28724	25341.2625
2859.80367	25323.8625
2862.31855	25332.0625
2864.83189	25299.3625
2867.34368	25222.5625
2869.85393	25291.5625
2872.36264	25282.5625
2874.8698	25257.3625
2877.37543	25239.4625
2879.87952	25277.7625
2882.38207	25267.2625
2884.88308	25264.5625
2887.38256	25276.8625
2889.88051	25259.9625
2892.37692	25293.6625
2894.8718	25328.3625
2897.36515	25338.0625
2899.85698	25330.2625
2902.34727	25400.6625
2904.83604	25370.5625
2907.32328	25445.0625
2909.809	25466.7625
2912.29319	25511.7625
2914.77587	25476.6625
2917.25702	25467.2625
2919.73665	25417.8625
2922.21476	25465.0625
2924.69136	25421.6625
2927.16644	25410.7625
2929.64	25361.7625
2932.11205	25364.4625
2934.58258	25225.8625
2937.05161	25280.7625
2939.51912	25238.5625
2941.98513	25247.7625
2944.44962	25179.0625
2946.91261	25090.2625
2949.37409	25106.2625
2951.83407	25127.5625
2954.29254	25078.4625
2956.74951	25094.2625
2959.20498	25081.7625
2961.65895	25025.3625
2964.11142	25018.6625
2966.56239	24939.0625
2969.01186	24909.4625
2971.45984	24834.7625
2973.90632	24792.4625
2976.35131	24723.6625
2978.7948	24691.0625
2981.23681	24640.7625
2983.67732	24576.5625
2986.11635	24507.3625
2988.55388	24424.2625
2990.98993	24386.1625
2993.4245	24331.4625
2995.85758	24285.8625
2998.28917	24249.6625
3000.71928	24234.1625
3003.14791	24209.9625
3005.57506	24152.0625
3008.00073	24094.0625
3010.42493	24070.5625
3012.84764	24067.8625
3015.26888	24026.5625
3017.68865	23936.2625
3020.10694	23906.0625
3022.52376	23838.3625
3024.9391	23856.8625
3027.35298	23819.0625
3029.76539	23819.4625
3032.17632	23713.1625
3034.5858	23707.8625
3036.9938	23674.3625
3039.40034	23646.9625
3041.80542	23644.9625
3044.20903	23589.9625
3046.61118	23565.7625
3049.01187	23485.9625
3051.4111	23472.6625
3053.80888	23453.7625
3056.20519	23432.4625
3058.60005	23350.4625
3060.99345	23318.5625
3063.3854	23262.6625
3065.7759	23199.6625
3068.16494	23175.9625
3070.55254	23093.9625
3072.93868	23041.5625
3075.32338	22978.5625
3077.70662	22945.4625
3080.08842	22890.1625
3082.46878	22869.8625
3084.84769	22799.9625
3087.22515	22804.2625
3089.60118	22778.4625
3091.97576	22761.2625
3094.3489	22756.5625
3096.72061	22755.3625
3099.09087	22732.7625
3101.4597	22699.0625
3103.82709	22730.5625
3106.19305	22683.0625
3108.55757	22647.7625
3110.92066	22571.9625
3113.28232	22548.2625
3115.64255	22481.9625
3118.00134	22421.9625
3120.35871	22379.5625
3122.71466	22358.9625
3125.06917	22312.8625
3127.42226	22288.1625
3129.77393	22279.7625
3132.12417	22219.5625
3134.47299	22206.0625
3136.82039	22177.7625
3139.16636	22188.2625
3141.51092	22201.2625
3143.85406	22218.2625
3146.19579	22222.8625
3148.53609	22196.3625
3150.87499	22219.8625
3153.21246	22175.3625
3155.54853	22193.3625
3157.88318	22145.5625
3160.21642	22169.0625
3162.54826	22132.7625
3164.87868	22110.4625
3167.2077	22093.3625
3169.5353	22083.4625
3171.86151	22041.8625
3174.18631	22056.8625
3176.5097	22026.7625
3178.83169	21988.6625
3181.15228	21975.2625
3183.47147	21934.6625
3185.78926	21975.9625
3188.10565	21933.6625
3190.42065	21925.8625
3192.73424	21959.4625
3195.04645	21958.4625
3197.35725	21949.0625
3199.66667	21876.5625
3201.97469	21928.4625
3204.28132	21886.8625
3206.58656	21933.7625
3208.8904	21881.3625
3211.19287	21857.1625
3213.49394	21880.4625
3215.79363	21844.6625
3218.09193	21873.9625
3220.38884	21844.7625
3222.68438	21872.8625
3224.97853	21800.0625
3227.2713	21822.3625
3229.56269	21758.3625
3231.8527	21795.9625
3234.14133	21809.7625
3236.42858	21731.8625
3238.71446	21754.6625
3240.99896	21693.1625
3243.28209	21661.3625
3245.56384	21624.5625
3247.84423	21630.1625
3250.12324	21603.5625
3252.40088	21591.2625
3254.67715	21564.5625
3256.95205	21527.5625
3259.22558	21545.8625
3261.49775	21451.5625
3263.76855	21489.6625
3266.03799	21468.3625
3268.30606	21431.9625
3270.57277	21393.3625
3272.83812	21350.8625
3275.10211	21313.2625
3277.36474	21314.3625
3279.62601	21277.9625
3281.88593	21252.3625
3284.14448	21292.0625
3286.40168	21270.8625
3288.65753	21273.9625
3290.91202	21231.6625
3293.16516	21159.2625
3295.41695	21139.4625
3297.66738	21012.5625
3299.91647	20935.9625
3302.16421	20795.6625
3304.4106	20743.1625
3306.65564	20621.6625
3308.89933	20510.3625
3311.14169	20383.1625
3313.38269	20206.5625
3315.62236	20106.6625
3317.86068	19931.0625
3320.09766	19730.3625
3322.3333	19585.8625
3324.5676	19574.9625
3326.80056	19241.0625
3329.03219	19150.6625
3331.26248	4.4625
3333.49143	1.3625
3335.71905	-0.6375
