Data from AgNP_FTO_APTES_CRN_500uM_R6G_10uM_NaF_0.1M_Addition_RamanShift__2__20-05-58-204.txt Node

Date: Wed Dec 15 20:05:58 GMT 2021
User: TCL
Spectrometer: QEP01345
Trigger mode: 4
Integration Time (sec): 7.000000E0
Scans to average: 10
Electric dark correction enabled: true
Nonlinearity correction enabled: false
Boxcar width: 0
XAxis mode: Raman Shifts
Number of Pixels in Spectrum: 1044
>>>>>Begin Spectral Data<<<<<
46.04893	0.3625
50.45542	-2.4375
54.85868	-1.0375
59.25871	-1.1375
63.6555	68.3625
68.04907	73.8625
72.43941	75.7625
76.82654	81.3625
81.21044	85.0625
85.59113	87.4625
89.96862	92.6625
94.34289	90.4625
98.71396	99.8625
103.08183	102.7625
107.4465	105.4625
111.80798	105.0625
116.16626	108.3625
120.52136	114.1625
124.87327	112.0625
129.222	119.5625
133.56755	126.8625
137.90993	137.9625
142.24913	144.7625
146.58517	165.8625
150.91804	188.7625
155.24774	221.1625
159.57429	274.6625
163.89768	350.0625
168.21792	458.2625
172.53501	619.2625
176.84895	853.0625
181.15975	1204.6625
185.46741	1696.9625
189.77193	2338.7625
194.07331	3142.2625
198.37157	4049.8625
202.6667	5004.2625
206.9587	5962.3625
211.24758	6885.5625
215.53334	7818.2625
219.81599	8787.6625
224.09553	9841.4625
228.37195	10991.8625
232.64527	12291.6625
236.91549	13663.4625
241.18261	15073.9625
245.44663	16380.2625
249.70755	17613.4625
253.96539	18667.3625
258.22014	19569.9625
262.4718	20308.0625
266.72039	20806.2625
270.96589	21062.9625
275.20832	21067.6625
279.44768	20935.8625
283.68397	20737.9625
287.91719	20543.9625
292.14735	20401.1625
296.37445	20346.0625
300.59849	20322.0625
304.81948	20369.8625
309.03742	20350.5625
313.25231	20281.6625
317.46415	20037.6625
321.67296	19676.6625
325.87872	19426.7625
330.08145	19279.9625
334.28114	19275.6625
338.47781	19454.0625
342.67145	19649.8625
346.86207	19916.4625
351.04966	20248.3625
355.23424	20614.6625
359.4158	20911.2625
363.59435	21110.2625
367.76989	21223.1625
371.94243	21362.7625
376.11196	21444.7625
380.27849	21550.9625
384.44203	21676.9625
388.60257	21844.3625
392.76012	22066.1625
396.91468	22254.8625
401.06626	22536.9625
405.21485	22730.0625
409.36047	22732.5625
413.50311	22562.3625
417.64277	22383.6625
421.77947	22336.0625
425.9132	22380.7625
430.04396	22494.5625
434.17176	22641.8625
438.2966	22848.1625
442.41849	23186.1625
446.53742	23617.4625
450.6534	24019.8625
454.76644	24351.8625
458.87653	24501.1625
462.98368	24439.9625
467.08789	24273.2625
471.18916	24155.1625
475.2875	23978.4625
479.38291	23887.7625
483.4754	23724.0625
487.56496	23522.1625
491.6516	23284.3625
495.73531	23137.1625
499.81612	23017.9625
503.89401	23147.4625
507.96899	23205.6625
512.04106	23250.7625
516.11023	23251.7625
520.1765	23231.6625
524.23987	23175.3625
528.30034	23089.2625
532.35792	23002.4625
536.41261	22857.8625
540.46441	22669.1625
544.51333	22637.1625
548.55936	22802.7625
552.60252	23116.4625
556.64279	23512.2625
560.6802	23708.4625
564.71473	23857.1625
568.7464	24051.8625
572.7752	24395.9625
576.80114	24733.4625
580.82422	25023.9625
584.84444	25406.3625
588.86181	25918.7625
592.87633	26443.6625
596.888	26501.5625
600.89682	26165.1625
604.9028	26252.5625
608.90594	27491.7625
612.90624	28931.5625
616.90371	27784.6625
620.89834	24725.3625
624.89015	23322.9625
628.87913	23151.5625
632.86528	23213.2625
636.84862	23303.4625
640.82913	23083.9625
644.80683	22771.5625
648.78172	22536.9625
652.75379	22551.5625
656.72306	22730.0625
660.68952	22925.0625
664.65319	22877.8625
668.61405	22631.2625
672.57211	22598.8625
676.52738	22707.4625
680.47986	22749.3625
684.42955	22656.4625
688.37646	22599.5625
692.32058	22641.8625
696.26192	22802.3625
700.20048	22982.3625
704.13626	23111.1625
708.06928	23145.8625
711.99952	23136.2625
715.927	23143.8625
719.85171	23167.5625
723.77365	23075.3625
727.69284	22867.4625
731.60928	22695.1625
735.52295	22612.0625
739.43388	22601.2625
743.34206	22696.8625
747.24749	22747.0625
751.15017	22858.4625
755.05012	23064.3625
758.94733	23450.2625
762.8418	24218.7625
766.73354	25363.4625
770.62254	26548.2625
774.50882	26806.6625
778.39237	26088.2625
782.27321	24810.5625
786.15132	23718.7625
790.02671	23049.3625
793.89938	22722.2625
797.76935	22575.1625
801.6366	22544.8625
805.50115	22487.5625
809.36299	22416.0625
813.22213	22387.1625
817.07857	22334.6625
820.93231	22349.3625
824.78336	22262.9625
828.63172	22302.7625
832.47738	22265.7625
836.32036	22316.3625
840.16066	22337.6625
843.99827	22322.6625
847.8332	22322.9625
851.66546	22266.5625
855.49504	22256.2625
859.32195	22283.1625
863.1462	22246.8625
866.96777	22223.2625
870.78668	22229.5625
874.60293	22202.1625
878.41652	22252.4625
882.22745	22307.2625
886.03573	22358.8625
889.84136	22345.0625
893.64433	22323.1625
897.44466	22259.8625
901.24235	22219.5625
905.0374	22124.4625
908.8298	22130.9625
912.61957	22104.5625
916.40671	22226.0625
920.19121	22404.4625
923.97308	22486.4625
927.75233	22521.2625
931.52895	22479.5625
935.30295	22299.1625
939.07433	22075.3625
942.84309	21852.7625
946.60924	21779.8625
950.37278	21668.5625
954.13371	21655.0625
957.89203	21584.7625
961.64774	21600.8625
965.40086	21569.4625
969.15137	21528.2625
972.89929	21436.3625
976.64461	21428.9625
980.38733	21439.9625
984.12747	21472.0625
987.86502	21598.4625
991.59999	21719.2625
995.33237	21837.5625
999.06217	22144.5625
1002.78939	22430.4625
1006.51404	22640.8625
1010.23611	22880.3625
1013.95561	23073.8625
1017.67255	23073.1625
1021.38692	22938.3625
1025.09872	22746.8625
1028.80796	22671.9625
1032.51465	22764.0625
1036.21877	22935.0625
1039.92035	23056.2625
1043.61937	23069.1625
1047.31584	22996.5625
1051.00976	22928.8625
1054.70114	22881.7625
1058.38998	23041.7625
1062.07627	23271.2625
1065.76003	23620.4625
1069.44126	24008.7625
1073.11995	24431.7625
1076.79611	24687.1625
1080.46974	24583.0625
1084.14085	24349.7625
1087.80943	24156.7625
1091.47549	24115.7625
1095.13903	23945.4625
1098.80005	23724.0625
1102.45857	23396.9625
1106.11456	23149.6625
1109.76805	23012.5625
1113.41903	23059.6625
1117.06751	23151.7625
1120.71348	23325.1625
1124.35696	23530.5625
1127.99793	23797.5625
1131.63641	23921.6625
1135.2724	23748.6625
1138.90589	23632.3625
1142.5369	23525.2625
1146.16542	23475.3625
1149.79145	23532.6625
1153.415	23700.9625
1157.03607	23823.9625
1160.65467	24177.3625
1164.27079	24753.6625
1167.88443	25627.9625
1171.49561	26643.7625
1175.10432	27957.9625
1178.71056	29619.6625
1182.31434	31093.5625
1185.91565	31768.3625
1189.51451	31514.9625
1193.11091	30824.6625
1196.70485	29928.9625
1200.29634	29008.7625
1203.88538	28397.6625
1207.47197	27895.1625
1211.05612	27510.5625
1214.63782	27082.5625
1218.21708	26690.3625
1221.79391	26412.3625
1225.36829	26167.2625
1228.94024	26055.0625
1232.50976	25861.9625
1236.07685	25629.9625
1239.6415	25506.9625
1243.20374	25520.5625
1246.76355	25647.7625
1250.32093	25822.1625
1253.8759	26165.0625
1257.42845	26622.2625
1260.97859	27006.8625
1264.52631	27472.6625
1268.07163	27942.9625
1271.61453	28496.3625
1275.15503	28992.8625
1278.69312	29496.6625
1282.22882	29979.7625
1285.76211	30586.6625
1289.29301	31408.3625
1292.82151	32379.4625
1296.34761	33536.4625
1299.87133	34880.0625
1303.39266	36352.6625
1306.9116	37830.9625
1310.42815	39096.4625
1313.94233	39888.7625
1317.45412	39660.2625
1320.96354	39003.9625
1324.47058	38257.7625
1327.97525	37477.2625
1331.47754	36991.2625
1334.97747	36607.1625
1338.47502	36407.4625
1341.97022	36279.1625
1345.46305	36152.2625
1348.95352	36237.6625
1352.44163	36626.2625
1355.92738	37522.9625
1359.41078	39000.8625
1362.89183	40209.6625
1366.37053	39690.5625
1369.84688	37061.3625
1373.32088	33889.5625
1376.79254	31711.8625
1380.26186	30790.2625
1383.72883	30592.9625
1387.19347	30422.6625
1390.65578	30122.3625
1394.11575	29968.9625
1397.57339	29966.1625
1401.0287	30157.2625
1404.48168	30253.2625
1407.93234	30125.7625
1411.38068	29733.9625
1414.82669	29127.4625
1418.27039	28396.7625
1421.71177	27670.3625
1425.15083	27006.2625
1428.58758	26674.7625
1432.02203	26790.0625
1435.45416	27168.4625
1438.88399	27654.8625
1442.31151	27934.1625
1445.73673	28151.9625
1449.15965	28330.3625
1452.58027	28421.3625
1455.9986	28428.9625
1459.41463	28554.4625
1462.82837	28823.3625
1466.23982	29200.3625
1469.64898	29595.1625
1473.05586	29830.6625
1476.46045	29974.8625
1479.86276	30016.4625
1483.26279	29911.8625
1486.66054	29931.0625
1490.05602	30193.7625
1493.44922	30535.2625
1496.84016	31004.3625
1500.22882	31710.5625
1503.61521	32681.0625
1506.99934	33716.7625
1510.38121	34494.4625
1513.76081	34527.0625
1517.13816	33707.9625
1520.51324	32563.8625
1523.88607	31541.6625
1527.25665	31015.1625
1530.62498	30840.9625
1533.99105	30683.0625
1537.35488	30517.4625
1540.71647	30170.6625
1544.07581	29592.2625
1547.4329	29102.4625
1550.78776	28687.4625
1554.14038	28386.5625
1557.49077	28200.1625
1560.83892	28156.5625
1564.18484	28291.7625
1567.52853	28633.6625
1570.86999	29088.6625
1574.20922	29772.0625
1577.54624	30449.7625
1580.88103	30700.6625
1584.2136	30659.5625
1587.54395	30599.6625
1590.87208	30887.2625
1594.19801	31631.5625
1597.52172	32645.7625
1600.84321	32937.4625
1604.16251	32092.7625
1607.47959	30450.2625
1610.79447	28758.8625
1614.10715	27049.2625
1617.41763	25643.7625
1620.7259	24755.1625
1624.03199	24318.5625
1627.33587	24268.0625
1630.63757	24583.5625
1633.93707	25488.2625
1637.23439	26989.9625
1640.52951	29256.9625
1643.82246	31981.9625
1647.11321	34263.2625
1650.40179	34860.0625
1653.68819	33223.7625
1656.97241	30142.8625
1660.25446	27064.2625
1663.53433	24756.7625
1666.81203	23259.6625
1670.08756	22343.7625
1673.36092	21736.1625
1676.63211	21316.6625
1679.90115	21018.3625
1683.16801	20790.9625
1686.43272	20631.2625
1689.69527	20495.5625
1692.95567	20423.8625
1696.2139	20390.1625
1699.46999	20366.2625
1702.72392	20356.2625
1705.97571	20293.8625
1709.22535	20261.3625
1712.47284	20251.8625
1715.71819	20228.0625
1718.96139	20229.0625
1722.20246	20135.2625
1725.44139	20080.8625
1728.67818	20005.6625
1731.91284	19924.4625
1735.14537	19823.8625
1738.37576	19809.4625
1741.60403	19766.4625
1744.83017	19704.3625
1748.05418	19698.4625
1751.27607	19651.7625
1754.49584	19631.3625
1757.71349	19643.6625
1760.92903	19628.4625
1764.14244	19630.4625
1767.35375	19611.2625
1770.56294	19558.2625
1773.77002	19566.1625
1776.97499	19516.4625
1780.17785	19468.9625
1783.37861	19451.6625
1786.57727	19467.1625
1789.77382	19399.9625
1792.96828	19369.4625
1796.16064	19356.4625
1799.3509	19292.8625
1802.53907	19267.2625
1805.72514	19217.5625
1808.90913	19168.3625
1812.09102	19170.5625
1815.27083	19118.6625
1818.44856	19136.2625
1821.6242	19096.2625
1824.79776	19064.4625
1827.96924	19040.6625
1831.13864	19032.0625
1834.30597	19025.9625
1837.47122	18996.0625
1840.6344	19007.3625
1843.7955	19025.4625
1846.95454	18983.6625
1850.11151	18961.4625
1853.26642	18947.4625
1856.41926	18949.8625
1859.57004	18963.2625
1862.71876	18904.9625
1865.86542	18933.5625
1869.01003	18930.2625
1872.15258	18897.2625
1875.29308	18862.5625
1878.43152	18792.3625
1881.56792	18840.6625
1884.70227	18809.0625
1887.83457	18830.7625
1890.96482	18782.8625
1894.09304	18779.5625
1897.21921	18768.4625
1900.34335	18771.1625
1903.46544	18717.8625
1906.58551	18721.9625
1909.70353	18661.3625
1912.81953	18663.0625
1915.93349	18629.3625
1919.04543	18548.8625
1922.15534	18555.1625
1925.26322	18493.5625
1928.36908	18510.1625
1931.47292	18503.4625
1934.57473	18452.8625
1937.67453	18405.8625
1940.77232	18341.6625
1943.86808	18318.4625
1946.96184	18288.2625
1950.05358	18244.7625
1953.14331	18185.2625
1956.23103	18137.1625
1959.31675	18097.6625
1962.40046	18084.6625
1965.48217	18043.8625
1968.56188	17961.5625
1971.63959	17905.5625
1974.7153	17908.2625
1977.78901	17809.9625
1980.86073	17760.6625
1983.93046	17725.7625
1986.99819	17687.9625
1990.06394	17654.4625
1993.1277	17583.7625
1996.18947	17488.3625
1999.24925	17496.8625
2002.30706	17432.7625
2005.36288	17398.8625
2008.41672	17613.5625
2011.46859	17368.0625
2014.51848	17267.8625
2017.56639	17250.2625
2020.61233	17193.0625
2023.6563	17169.1625
2026.6983	17138.2625
2029.73833	17110.2625
2032.7764	17071.3625
2035.8125	16995.0625
2038.84664	16945.1625
2041.87881	16947.0625
2044.90903	16920.7625
2047.93729	16907.9625
2050.96359	16878.0625
2053.98794	16862.1625
2057.01034	16826.4625
2060.03078	16860.3625
2063.04927	16809.2625
2066.06582	16802.7625
2069.08042	16810.0625
2072.09307	16808.4625
2075.10378	16784.1625
2078.11255	16756.6625
2081.11938	16769.6625
2084.12426	16790.4625
2087.12722	16780.4625
2090.12824	16776.7625
2093.12732	16764.2625
2096.12447	16783.2625
2099.11969	16762.0625
2102.11299	16799.7625
2105.10435	16791.5625
2108.09379	16813.2625
2111.08131	16815.5625
2114.0669	16798.6625
2117.05057	16808.4625
2120.03233	16863.0625
2123.01216	16884.1625
2125.99008	16865.7625
2128.96609	16937.2625
2131.94018	16926.0625
2134.91236	16928.4625
2137.88263	16880.1625
2140.851	16936.7625
2143.81746	16970.3625
2146.78201	16972.0625
2149.74466	16966.2625
2152.7054	16965.9625
2155.66425	16979.6625
2158.6212	17020.0625
2161.57625	16997.8625
2164.52941	16981.8625
2167.48067	16977.8625
2170.43004	16982.5625
2173.37752	16979.2625
2176.32311	16962.9625
2179.26681	16950.1625
2182.20863	16967.7625
2185.14856	16944.3625
2188.08661	16942.8625
2191.02278	16945.4625
2193.95707	16934.3625
2196.88948	16902.6625
2199.82001	16902.8625
2202.74867	16893.3625
2205.67545	16915.6625
2208.60037	16896.3625
2211.52341	16854.4625
2214.44458	16858.9625
2217.36388	16803.2625
2220.28132	16811.5625
2223.1969	16706.4625
2226.11061	16678.3625
2229.02246	16687.1625
2231.93245	16654.6625
2234.84058	16636.5625
2237.74686	16628.9625
2240.65128	16578.1625
2243.55385	16571.4625
2246.45456	16529.7625
2249.35343	16524.3625
2252.25044	16523.2625
2255.14561	16481.2625
2258.03893	16494.7625
2260.93041	16443.5625
2263.82004	16374.7625
2266.70783	16382.4625
2269.59378	16343.2625
2272.4779	16302.2625
2275.36017	16272.6625
2278.24061	16236.8625
2281.11922	16190.7625
2283.996	16180.6625
2286.87094	16156.9625
2289.74405	16133.3625
2292.61534	16133.6625
2295.4848	16110.2625
2298.35243	16115.5625
2301.21824	16106.4625
2304.08223	16082.8625
2306.94439	16058.8625
2309.80474	16060.2625
2312.66327	16056.6625
2315.51999	16054.6625
2318.37489	16013.8625
2321.22797	16061.2625
2324.07925	16026.2625
2326.92871	16012.9625
2329.77637	16007.3625
2332.62222	15947.0625
2335.46626	15908.2625
2338.3085	15911.9625
2341.14893	15898.3625
2343.98756	15855.2625
2346.8244	15878.0625
2349.65943	15846.2625
2352.49267	15855.0625
2355.32411	15828.4625
2358.15376	15836.5625
2360.98161	15824.3625
2363.80768	15826.2625
2366.63195	15781.1625
2369.45444	15793.5625
2372.27514	15748.3625
2375.09405	15746.9625
2377.91118	15725.9625
2380.72652	15686.2625
2383.54009	15667.7625
2386.35187	15648.1625
2389.16188	15620.8625
2391.97011	15588.8625
2394.77657	15555.0625
2397.58125	15527.8625
2400.38416	15538.3625
2403.18529	15509.5625
2405.98466	15489.3625
2408.78226	15439.4625
2411.57809	15448.9625
2414.37216	15425.9625
2417.16446	15394.9625
2419.955	15391.9625
2422.74378	15383.1625
2425.5308	15325.3625
2428.31606	15309.8625
2431.09956	15313.9625
2433.88131	15323.8625
2436.6613	15274.6625
2439.43954	15306.6625
2442.21603	15294.1625
2444.99077	15259.9625
2447.76377	15270.5625
2450.53501	15237.9625
2453.30451	15239.3625
2456.07226	15191.5625
2458.83827	15196.2625
2461.60254	15195.0625
2464.36507	15167.7625
2467.12586	15187.7625
2469.88492	15176.3625
2472.64224	15160.7625
2475.39782	15140.4625
2478.15167	15146.0625
2480.90379	15131.6625
2483.65417	15135.9625
2486.40283	15142.8625
2489.14976	15146.4625
2491.89497	15120.5625
2494.63845	15143.1625
2497.3802	15099.4625
2500.12024	15067.3625
2502.85855	15090.7625
2505.59514	15088.3625
2508.33002	15076.3625
2511.06318	15038.1625
2513.79462	15052.5625
2516.52435	15000.4625
2519.25237	14979.0625
2521.97867	14995.2625
2524.70327	14981.5625
2527.42616	14962.3625
2530.14734	14942.7625
2532.86681	14906.4625
2535.58458	14887.9625
2538.30065	14903.6625
2541.01501	14867.5625
2543.72768	14868.6625
2546.43864	14858.1625
2549.14791	14816.7625
2551.85548	14797.5625
2554.56136	14756.4625
2557.26554	14733.1625
2559.96803	14719.6625
2562.66883	14705.2625
2565.36794	14702.9625
2568.06536	14733.5625
2570.7611	14687.0625
2573.45514	14662.9625
2576.14751	14678.3625
2578.83819	14651.2625
2581.52719	14623.2625
2584.21451	14575.9625
2586.90015	14582.0625
2589.58411	14514.3625
2592.2664	14520.2625
2594.94701	14453.3625
2597.62594	14472.6625
2600.30321	14460.0625
2602.9788	14419.8625
2605.65273	14400.4625
2608.32498	14393.2625
2610.99557	14361.7625
2613.66449	14375.2625
2616.33175	14292.2625
2618.99734	14325.6625
2621.66128	14292.1625
2624.32355	14308.4625
2626.98416	14291.5625
2629.64311	14290.6625
2632.30041	14280.3625
2634.95605	14233.5625
2637.61004	14235.7625
2640.26238	14241.2625
2642.91306	14215.9625
2645.56209	14219.1625
2648.20948	14181.0625
2650.85521	14188.6625
2653.4993	14208.2625
2656.14175	14176.6625
2658.78255	14176.9625
2661.42171	14175.2625
2664.05923	14213.5625
2666.6951	14193.7625
2669.32934	14205.4625
2671.96194	14148.4625
2674.59291	14175.0625
2677.22224	14207.8625
2679.84993	14202.1625
2682.476	14196.2625
2685.10043	14171.8625
2687.72324	14168.2625
2690.34441	14193.1625
2692.96396	14189.9625
2695.58188	14173.1625
2698.19818	14148.7625
2700.81285	14160.3625
2703.4259	14186.1625
2706.03733	14249.4625
2708.64714	14217.9625
2711.25533	14214.4625
2713.86191	14198.8625
2716.46687	14189.8625
2719.07021	14211.4625
2721.67194	14210.0625
2724.27206	14170.9625
2726.87057	14179.5625
2729.46747	14189.4625
2732.06276	14164.3625
2734.65644	14181.5625
2737.24852	14181.3625
2739.83899	14148.3625
2742.42786	14154.0625
2745.01513	14103.5625
2747.60079	14104.0625
2750.18486	14089.7625
2752.76733	14084.3625
2755.3482	14110.2625
2757.92747	14074.5625
2760.50515	14062.6625
2763.08123	14074.0625
2765.65573	14030.7625
2768.22863	14044.8625
2770.79994	14019.7625
2773.36967	14017.9625
2775.9378	14006.5625
2778.50435	13981.3625
2781.06932	13952.2625
2783.6327	13961.3625
2786.1945	13948.2625
2788.75471	13900.5625
2791.31335	13887.4625
2793.87041	13843.0625
2796.42589	13803.7625
2798.97979	13789.2625
2801.53212	13809.6625
2804.08288	13718.1625
2806.63206	13722.7625
2809.17967	13684.6625
2811.72571	13681.2625
2814.27018	13664.0625
2816.81308	13632.5625
2819.35442	13623.6625
2821.89419	13624.8625
2824.43239	13612.0625
2826.96904	13559.1625
2829.50412	13576.1625
2832.03763	13560.1625
2834.56959	13528.8625
2837.1	13537.9625
2839.62884	13518.0625
2842.15613	13543.4625
2844.68186	13542.5625
2847.20604	13533.6625
2849.72867	13542.5625
2852.24974	13520.5625
2854.76927	13502.1625
2857.28724	13492.9625
2859.80367	13477.1625
2862.31855	13452.5625
2864.83189	13432.6625
2867.34368	13440.7625
2869.85393	13426.1625
2872.36264	13406.8625
2874.8698	13409.7625
2877.37543	13429.7625
2879.87952	13433.9625
2882.38207	13421.5625
2884.88308	13423.4625
2887.38256	13401.3625
2889.88051	13408.7625
2892.37692	13382.7625
2894.8718	13385.8625
2897.36515	13403.5625
2899.85698	13386.5625
2902.34727	13437.6625
2904.83604	13422.2625
2907.32328	13438.0625
2909.809	13437.9625
2912.29319	13435.2625
2914.77587	13435.1625
2917.25702	13431.9625
2919.73665	13407.3625
2922.21476	13436.6625
2924.69136	13423.9625
2927.16644	13430.5625
2929.64	13398.8625
2932.11205	13373.5625
2934.58258	13354.3625
2937.05161	13402.7625
2939.51912	13413.6625
2941.98513	13366.2625
2944.44962	13339.6625
2946.91261	13286.5625
2949.37409	13309.6625
2951.83407	13315.6625
2954.29254	13292.4625
2956.74951	13260.9625
2959.20498	13260.2625
2961.65895	13239.7625
2964.11142	13267.5625
2966.56239	13227.9625
2969.01186	13213.0625
2971.45984	13173.8625
2973.90632	13206.5625
2976.35131	13127.7625
2978.7948	13136.4625
2981.23681	13089.7625
2983.67732	13056.8625
2986.11635	13059.3625
2988.55388	13013.9625
2990.98993	13022.9625
2993.4245	12990.0625
2995.85758	12986.2625
2998.28917	12957.2625
3000.71928	12939.0625
3003.14791	12887.9625
3005.57506	12898.1625
3008.00073	12855.7625
3010.42493	12850.4625
3012.84764	12821.0625
3015.26888	12814.3625
3017.68865	12785.4625
3020.10694	12769.2625
3022.52376	12787.1625
3024.9391	12747.5625
3027.35298	12712.1625
3029.76539	12740.0625
3032.17632	12702.0625
3034.5858	12668.9625
3036.9938	12689.7625
3039.40034	12683.0625
3041.80542	12646.8625
3044.20903	12636.5625
3046.61118	12632.0625
3049.01187	12590.7625
3051.4111	12617.5625
3053.80888	12569.2625
3056.20519	12542.5625
3058.60005	12523.5625
3060.99345	12499.5625
3063.3854	12500.2625
3065.7759	12461.4625
3068.16494	12463.6625
3070.55254	12413.0625
3072.93868	12431.1625
3075.32338	12348.2625
3077.70662	12346.9625
3080.08842	12319.5625
3082.46878	12294.0625
3084.84769	12323.0625
3087.22515	12310.0625
3089.60118	12314.3625
3091.97576	12322.8625
3094.3489	12307.0625
3096.72061	12335.2625
3099.09087	12317.0625
3101.4597	12296.2625
3103.82709	12315.2625
3106.19305	12272.3625
3108.55757	12267.3625
3110.92066	12259.6625
3113.28232	12227.7625
3115.64255	12210.2625
3118.00134	12188.6625
3120.35871	12212.8625
3122.71466	12145.1625
3125.06917	12136.3625
3127.42226	12114.1625
3129.77393	12125.5625
3132.12417	12120.9625
3134.47299	12131.9625
3136.82039	12142.6625
3139.16636	12149.3625
3141.51092	12139.6625
3143.85406	12150.2625
3146.19579	12117.4625
3148.53609	12140.0625
3150.87499	12160.0625
3153.21246	12124.3625
3155.54853	12169.7625
3157.88318	12153.1625
3160.21642	12182.1625
3162.54826	12170.8625
3164.87868	12115.2625
3167.2077	12135.7625
3169.5353	12125.7625
3171.86151	12144.2625
3174.18631	12136.7625
3176.5097	12122.5625
3178.83169	12106.0625
3181.15228	12082.9625
3183.47147	12097.4625
3185.78926	12099.9625
3188.10565	12056.9625
3190.42065	12082.7625
3192.73424	12052.8625
3195.04645	12077.5625
3197.35725	12059.2625
3199.66667	12072.4625
3201.97469	12079.7625
3204.28132	12073.6625
3206.58656	12065.5625
3208.8904	12084.1625
3211.19287	12096.1625
3213.49394	12071.5625
3215.79363	12044.4625
3218.09193	12067.4625
3220.38884	12069.3625
3222.68438	12081.4625
3224.97853	12091.5625
3227.2713	12049.2625
3229.56269	12012.3625
3231.8527	12031.1625
3234.14133	11979.1625
3236.42858	11965.2625
3238.71446	11960.2625
3240.99896	11943.8625
3243.28209	11946.0625
3245.56384	11966.6625
3247.84423	11986.8625
3250.12324	11964.2625
3252.40088	11946.0625
3254.67715	11922.4625
3256.95205	11906.7625
3259.22558	11930.9625
3261.49775	11898.8625
3263.76855	11888.8625
3266.03799	11863.2625
3268.30606	11839.0625
3270.57277	11806.8625
3272.83812	11791.7625
3275.10211	11809.6625
3277.36474	11769.3625
3279.62601	11768.4625
3281.88593	11774.1625
3284.14448	11789.5625
3286.40168	11788.4625
3288.65753	11760.7625
3290.91202	11729.9625
3293.16516	11708.6625
3295.41695	11685.0625
3297.66738	11603.3625
3299.91647	11569.2625
3302.16421	11495.0625
3304.4106	11439.9625
3306.65564	11381.9625
3308.89933	11310.3625
3311.14169	11250.0625
3313.38269	11173.6625
3315.62236	11097.1625
3317.86068	11011.0625
3320.09766	10892.1625
3322.3333	10824.6625
3324.5676	10830.2625
3326.80056	10661.9625
3329.03219	10617.7625
3331.26248	3.7625
3333.49143	-0.3375
3335.71905	0.2625
