Data from AgNP_FTO_APTES_CRN_200uM_R6G_10uM_NaF_0.1M_Addition_RamanShift__38__20-01-18-206.txt Node

Date: Wed Dec 15 20:01:18 GMT 2021
User: TCL
Spectrometer: QEP01345
Trigger mode: 4
Integration Time (sec): 7.000000E0
Scans to average: 10
Electric dark correction enabled: true
Nonlinearity correction enabled: false
Boxcar width: 0
XAxis mode: Raman Shifts
Number of Pixels in Spectrum: 1044
>>>>>Begin Spectral Data<<<<<
46.04893	-0.4375
50.45542	-1.6375
54.85868	-1.4375
59.25871	-1.1375
63.6555	82.2625
68.04907	87.6625
72.43941	91.7625
76.82654	97.9625
81.21044	101.9625
85.59113	103.0625
89.96862	108.4625
94.34289	105.6625
98.71396	111.1625
103.08183	119.0625
107.4465	123.1625
111.80798	121.8625
116.16626	128.1625
120.52136	132.8625
124.87327	137.0625
129.222	141.4625
133.56755	146.8625
137.90993	162.5625
142.24913	173.5625
146.58517	196.5625
150.91804	228.9625
155.24774	268.5625
159.57429	330.1625
163.89768	420.8625
168.21792	552.0625
172.53501	757.2625
176.84895	1048.7625
181.15975	1480.4625
185.46741	2075.1625
189.77193	2880.4625
194.07331	3845.9625
198.37157	4964.6625
202.6667	6148.5625
206.9587	7304.8625
211.24758	8450.6625
215.53334	9606.2625
219.81599	10766.8625
224.09553	12091.7625
228.37195	13532.0625
232.64527	15113.7625
236.91549	16797.3625
241.18261	18548.0625
245.44663	20197.8625
249.70755	21701.3625
253.96539	23068.9625
258.22014	24203.9625
262.4718	25147.7625
266.72039	25723.8625
270.96589	26056.1625
275.20832	26074.1625
279.44768	25830.3625
283.68397	25513.1625
287.91719	25216.0625
292.14735	24968.4625
296.37445	24814.3625
300.59849	24810.6625
304.81948	24832.7625
309.03742	24831.1625
313.25231	24777.8625
317.46415	24600.4625
321.67296	24340.9625
325.87872	24152.1625
330.08145	24098.9625
334.28114	24212.1625
338.47781	24455.9625
342.67145	24712.2625
346.86207	25084.0625
351.04966	25457.5625
355.23424	25899.9625
359.4158	26264.1625
363.59435	26507.3625
367.76989	26764.9625
371.94243	26931.5625
376.11196	27129.0625
380.27849	27331.3625
384.44203	27507.8625
388.60257	27734.2625
392.76012	27918.6625
396.91468	28169.1625
401.06626	28444.6625
405.21485	28750.3625
409.36047	28735.5625
413.50311	28580.9625
417.64277	28413.7625
421.77947	28466.8625
425.9132	28609.4625
430.04396	28771.4625
434.17176	29041.8625
438.2966	29427.6625
442.41849	29968.1625
446.53742	30847.2625
450.6534	31710.1625
454.76644	32275.9625
458.87653	32361.7625
462.98368	32090.6625
467.08789	31600.3625
471.18916	31164.7625
475.2875	30756.7625
479.38291	30412.9625
483.4754	30125.7625
487.56496	29879.7625
491.6516	29650.9625
495.73531	29464.1625
499.81612	29402.0625
503.89401	29551.8625
507.96899	29613.6625
512.04106	29614.4625
516.11023	29605.1625
520.1765	29689.5625
524.23987	29791.8625
528.30034	29806.9625
532.35792	29781.4625
536.41261	29572.6625
540.46441	29273.0625
544.51333	29155.5625
548.55936	29249.0625
552.60252	29599.6625
556.64279	30067.8625
560.6802	30428.2625
564.71473	30470.6625
568.7464	30560.4625
572.7752	30827.7625
576.80114	31144.4625
580.82422	31404.5625
584.84444	32070.2625
588.86181	33170.5625
592.87633	34581.5625
596.888	35319.1625
600.89682	34831.4625
604.9028	34588.0625
608.90594	35787.0625
612.90624	37288.2625
616.90371	35853.3625
620.89834	32252.7625
624.89015	30679.7625
628.87913	30426.6625
632.86528	30372.0625
636.84862	30177.9625
640.82913	29884.5625
644.80683	29492.3625
648.78172	29243.5625
652.75379	29292.9625
656.72306	29571.3625
660.68952	29883.7625
664.65319	29834.8625
668.61405	29521.2625
672.57211	29567.1625
676.52738	29637.1625
680.47986	29635.7625
684.42955	29509.4625
688.37646	29421.2625
692.32058	29577.8625
696.26192	29848.7625
700.20048	30158.4625
704.13626	30264.2625
708.06928	30185.9625
711.99952	30071.3625
715.927	30037.9625
719.85171	30149.2625
723.77365	30058.2625
727.69284	29802.3625
731.60928	29619.0625
735.52295	29639.2625
739.43388	29674.4625
743.34206	29766.6625
747.24749	29843.9625
751.15017	29968.4625
755.05012	30187.7625
758.94733	30613.2625
762.8418	31427.4625
766.73354	32688.8625
770.62254	34013.2625
774.50882	34411.9625
778.39237	33668.8625
782.27321	32291.0625
786.15132	31030.9625
790.02671	30308.0625
793.89938	29981.0625
797.76935	29850.1625
801.6366	29799.8625
805.50115	29746.5625
809.36299	29658.7625
813.22213	29587.8625
817.07857	29525.8625
820.93231	29496.9625
824.78336	29494.3625
828.63172	29547.5625
832.47738	29583.8625
836.32036	29630.3625
840.16066	29823.5625
843.99827	29856.9625
847.8332	29799.2625
851.66546	29702.6625
855.49504	29689.0625
859.32195	29728.2625
863.1462	29668.3625
866.96777	29588.3625
870.78668	29604.6625
874.60293	29615.0625
878.41652	29614.6625
882.22745	29724.7625
886.03573	29788.7625
889.84136	29779.8625
893.64433	29694.8625
897.44466	29580.1625
901.24235	29490.1625
905.0374	29423.1625
908.8298	29418.8625
912.61957	29439.5625
916.40671	29544.9625
920.19121	29810.6625
923.97308	29976.6625
927.75233	30107.1625
931.52895	30116.4625
935.30295	29953.4625
939.07433	29619.0625
942.84309	29397.6625
946.60924	29352.4625
950.37278	29306.6625
954.13371	29209.7625
957.89203	29076.9625
961.64774	29029.3625
965.40086	28960.0625
969.15137	28933.3625
972.89929	28913.8625
976.64461	28961.6625
980.38733	29076.3625
984.12747	29244.8625
987.86502	29429.7625
991.59999	29673.7625
995.33237	30015.1625
999.06217	30588.5625
1002.78939	31202.6625
1006.51404	31555.8625
1010.23611	31744.2625
1013.95561	31896.7625
1017.67255	31878.1625
1021.38692	31613.6625
1025.09872	31375.7625
1028.80796	31446.4625
1032.51465	32028.4625
1036.21877	32592.2625
1039.92035	32722.0625
1043.61937	32466.7625
1047.31584	31947.6625
1051.00976	31488.4625
1054.70114	31285.1625
1058.38998	31294.9625
1062.07627	31467.4625
1065.76003	31717.5625
1069.44126	32010.5625
1073.11995	32391.4625
1076.79611	32717.2625
1080.46974	32744.4625
1084.14085	32647.3625
1087.80943	32597.7625
1091.47549	32456.1625
1095.13903	32225.3625
1098.80005	31856.0625
1102.45857	31545.3625
1106.11456	31384.5625
1109.76805	31399.6625
1113.41903	31526.3625
1117.06751	31582.6625
1120.71348	31788.5625
1124.35696	31963.2625
1127.99793	32168.1625
1131.63641	32228.2625
1135.2724	32033.7625
1138.90589	31869.2625
1142.5369	31743.9625
1146.16542	31753.5625
1149.79145	31756.8625
1153.415	31881.9625
1157.03607	31991.9625
1160.65467	32393.2625
1164.27079	33159.4625
1167.88443	34175.8625
1171.49561	35571.1625
1175.10432	37326.3625
1178.71056	39613.9625
1182.31434	41681.7625
1185.91565	42515.0625
1189.51451	42050.9625
1193.11091	40851.6625
1196.70485	39516.2625
1200.29634	38368.2625
1203.88538	37550.5625
1207.47197	36919.7625
1211.05612	36403.9625
1214.63782	35991.3625
1218.21708	35929.9625
1221.79391	35924.5625
1225.36829	35969.7625
1228.94024	35812.9625
1232.50976	35288.9625
1236.07685	34678.5625
1239.6415	34402.2625
1243.20374	34355.3625
1246.76355	34524.8625
1250.32093	34957.7625
1253.8759	35425.1625
1257.42845	36061.7625
1260.97859	36666.2625
1264.52631	37309.1625
1268.07163	38032.3625
1271.61453	38783.6625
1275.15503	39544.6625
1278.69312	40316.0625
1282.22882	40895.3625
1285.76211	41615.4625
1289.29301	42481.2625
1292.82151	43625.5625
1296.34761	45120.2625
1299.87133	47026.8625
1303.39266	49200.4625
1306.9116	51556.9625
1310.42815	53771.9625
1313.94233	55002.8625
1317.45412	54776.0625
1320.96354	53371.7625
1324.47058	51734.2625
1327.97525	50146.4625
1331.47754	48905.7625
1334.97747	48185.3625
1338.47502	47719.7625
1341.97022	47236.7625
1345.46305	46738.5625
1348.95352	46688.0625
1352.44163	47533.2625
1355.92738	49363.7625
1359.41078	51872.8625
1362.89183	53838.4625
1366.37053	53153.1625
1369.84688	49623.1625
1373.32088	45203.4625
1376.79254	42109.1625
1380.26186	40992.6625
1383.72883	40823.2625
1387.19347	40601.7625
1390.65578	40081.2625
1394.11575	39832.4625
1397.57339	39961.5625
1401.0287	40378.0625
1404.48168	40715.4625
1407.93234	40817.8625
1411.38068	40468.1625
1414.82669	39888.7625
1418.27039	39127.8625
1421.71177	38247.2625
1425.15083	37390.6625
1428.58758	37023.9625
1432.02203	37241.9625
1435.45416	37927.9625
1438.88399	38628.5625
1442.31151	39075.3625
1445.73673	39248.3625
1449.15965	39395.8625
1452.58027	39286.2625
1455.9986	38981.2625
1459.41463	38976.6625
1462.82837	39349.1625
1466.23982	39975.3625
1469.64898	40694.9625
1473.05586	41243.9625
1476.46045	41649.9625
1479.86276	41755.3625
1483.26279	41598.1625
1486.66054	41579.5625
1490.05602	41764.3625
1493.44922	42019.6625
1496.84016	42088.9625
1500.22882	42206.9625
1503.61521	42641.0625
1506.99934	43301.8625
1510.38121	43880.5625
1513.76081	43957.1625
1517.13816	43232.5625
1520.51324	41932.4625
1523.88607	40956.9625
1527.25665	40460.4625
1530.62498	40392.2625
1533.99105	40388.4625
1537.35488	40262.7625
1540.71647	39981.1625
1544.07581	39599.3625
1547.4329	39092.9625
1550.78776	38673.8625
1554.14038	38234.8625
1557.49077	37933.9625
1560.83892	37783.9625
1564.18484	37745.0625
1567.52853	37991.4625
1570.86999	38453.8625
1574.20922	39149.0625
1577.54624	39790.7625
1580.88103	40043.4625
1584.2136	40171.4625
1587.54395	40581.1625
1590.87208	41691.5625
1594.19801	43508.7625
1597.52172	45486.5625
1600.84321	46311.8625
1604.16251	45214.1625
1607.47959	42493.5625
1610.79447	39395.2625
1614.10715	36685.8625
1617.41763	34798.2625
1620.7259	33730.5625
1624.03199	33307.0625
1627.33587	33424.7625
1630.63757	34042.5625
1633.93707	35296.7625
1637.23439	37380.4625
1640.52951	40382.9625
1643.82246	43923.1625
1647.11321	46699.4625
1650.40179	46858.9625
1653.68819	43981.8625
1656.97241	39646.5625
1660.25446	35771.6625
1663.53433	33127.2625
1666.81203	31527.5625
1670.08756	30510.7625
1673.36092	29876.9625
1676.63211	29468.1625
1679.90115	29138.7625
1683.16801	28850.0625
1686.43272	28730.8625
1689.69527	28564.4625
1692.95567	28463.0625
1696.2139	28456.5625
1699.46999	28426.8625
1702.72392	28412.0625
1705.97571	28385.4625
1709.22535	28352.6625
1712.47284	28276.7625
1715.71819	28296.1625
1718.96139	28284.7625
1722.20246	28232.5625
1725.44139	28187.3625
1728.67818	28079.1625
1731.91284	27990.8625
1735.14537	27894.6625
1738.37576	27786.0625
1741.60403	27793.9625
1744.83017	27743.3625
1748.05418	27701.9625
1751.27607	27634.1625
1754.49584	27612.3625
1757.71349	27618.3625
1760.92903	27622.0625
1764.14244	27608.0625
1767.35375	27610.5625
1770.56294	27567.0625
1773.77002	27591.2625
1776.97499	27563.0625
1780.17785	27508.6625
1783.37861	27496.7625
1786.57727	27459.2625
1789.77382	27413.0625
1792.96828	27380.0625
1796.16064	27303.4625
1799.3509	27351.1625
1802.53907	27310.9625
1805.72514	27226.8625
1808.90913	27178.7625
1812.09102	27115.0625
1815.27083	27085.8625
1818.44856	27069.7625
1821.6242	27020.9625
1824.79776	27006.0625
1827.96924	26995.9625
1831.13864	27000.0625
1834.30597	26982.9625
1837.47122	26971.6625
1840.6344	26955.4625
1843.7955	26959.1625
1846.95454	26927.3625
1850.11151	26930.1625
1853.26642	26912.8625
1856.41926	26909.4625
1859.57004	26929.4625
1862.71876	26872.2625
1865.86542	26835.9625
1869.01003	26879.6625
1872.15258	26853.0625
1875.29308	26857.0625
1878.43152	26807.2625
1881.56792	26808.6625
1884.70227	26775.4625
1887.83457	26777.9625
1890.96482	26803.0625
1894.09304	26691.9625
1897.21921	26706.1625
1900.34335	26724.5625
1903.46544	26692.1625
1906.58551	26706.6625
1909.70353	26638.9625
1912.81953	26648.0625
1915.93349	26582.6625
1919.04543	26574.4625
1922.15534	26567.3625
1925.26322	26480.9625
1928.36908	26521.2625
1931.47292	26473.1625
1934.57473	26419.4625
1937.67453	26351.5625
1940.77232	26284.4625
1943.86808	26240.9625
1946.96184	26201.3625
1950.05358	26143.6625
1953.14331	26063.4625
1956.23103	26012.0625
1959.31675	25960.0625
1962.40046	25879.8625
1965.48217	25811.1625
1968.56188	25755.0625
1971.63959	25696.3625
1974.7153	25615.3625
1977.78901	25554.5625
1980.86073	25430.7625
1983.93046	25406.3625
1986.99819	25364.7625
1990.06394	25326.1625
1993.1277	25209.6625
1996.18947	25156.9625
1999.24925	25100.3625
2002.30706	25062.6625
2005.36288	24949.3625
2008.41672	24898.7625
2011.46859	24862.4625
2014.51848	24806.8625
2017.56639	24771.7625
2020.61233	24733.1625
2023.6563	24682.8625
2026.6983	24679.9625
2029.73833	24620.7625
2032.7764	24572.4625
2035.8125	24473.2625
2038.84664	24455.0625
2041.87881	24431.0625
2044.90903	24428.8625
2047.93729	24367.6625
2050.96359	24378.8625
2053.98794	24322.2625
2057.01034	24322.1625
2060.03078	24310.0625
2063.04927	24248.0625
2066.06582	24252.6625
2069.08042	24255.3625
2072.09307	24247.4625
2075.10378	24205.1625
2078.11255	24177.9625
2081.11938	24189.0625
2084.12426	24197.0625
2087.12722	24187.1625
2090.12824	24161.4625
2093.12732	24250.9625
2096.12447	24253.2625
2099.11969	24247.6625
2102.11299	24285.8625
2105.10435	24265.3625
2108.09379	24311.6625
2111.08131	24336.4625
2114.0669	24299.8625
2117.05057	24327.7625
2120.03233	24349.2625
2123.01216	24404.8625
2125.99008	24412.0625
2128.96609	24454.3625
2131.94018	24496.9625
2134.91236	24442.5625
2137.88263	24513.2625
2140.851	24557.1625
2143.81746	24544.7625
2146.78201	24554.9625
2149.74466	24578.8625
2152.7054	24614.0625
2155.66425	24638.3625
2158.6212	24642.3625
2161.57625	24670.3625
2164.52941	24631.6625
2167.48067	24600.0625
2170.43004	24580.7625
2173.37752	24607.2625
2176.32311	24617.3625
2179.26681	24616.5625
2182.20863	24638.9625
2185.14856	24598.4625
2188.08661	24582.4625
2191.02278	24629.7625
2193.95707	24611.3625
2196.88948	24620.5625
2199.82001	24578.1625
2202.74867	24642.7625
2205.67545	24607.1625
2208.60037	24624.8625
2211.52341	24600.1625
2214.44458	24532.8625
2217.36388	24439.6625
2220.28132	24436.6625
2223.1969	24406.8625
2226.11061	24363.2625
2229.02246	24301.1625
2231.93245	24317.0625
2234.84058	24283.2625
2237.74686	24255.0625
2240.65128	24274.9625
2243.55385	24231.2625
2246.45456	24163.0625
2249.35343	24155.8625
2252.25044	24112.0625
2255.14561	24074.7625
2258.03893	24092.6625
2260.93041	24035.6625
2263.82004	23994.6625
2266.70783	23958.7625
2269.59378	23902.0625
2272.4779	23854.2625
2275.36017	23800.8625
2278.24061	23735.0625
2281.11922	23709.2625
2283.996	23683.8625
2286.87094	23669.0625
2289.74405	23639.2625
2292.61534	23607.2625
2295.4848	23618.9625
2298.35243	23620.7625
2301.21824	23589.3625
2304.08223	23629.5625
2306.94439	23609.9625
2309.80474	23618.3625
2312.66327	23640.4625
2315.51999	23602.6625
2318.37489	23597.7625
2321.22797	23601.5625
2324.07925	23596.8625
2326.92871	23528.6625
2329.77637	23535.9625
2332.62222	23478.5625
2335.46626	23462.9625
2338.3085	23461.4625
2341.14893	23435.4625
2343.98756	23415.1625
2346.8244	23405.2625
2349.65943	23402.7625
2352.49267	23390.2625
2355.32411	23349.3625
2358.15376	23328.8625
2360.98161	23308.4625
2363.80768	23306.1625
2366.63195	23288.1625
2369.45444	23254.6625
2372.27514	23242.3625
2375.09405	23250.0625
2377.91118	23185.8625
2380.72652	23118.9625
2383.54009	23060.3625
2386.35187	23078.5625
2389.16188	23007.5625
2391.97011	23000.4625
2394.77657	22991.1625
2397.58125	22950.3625
2400.38416	22911.9625
2403.18529	22898.5625
2405.98466	22872.3625
2408.78226	22841.3625
2411.57809	22804.4625
2414.37216	22749.0625
2417.16446	22750.5625
2419.955	22731.4625
2422.74378	22674.1625
2425.5308	22670.1625
2428.31606	22641.6625
2431.09956	22612.9625
2433.88131	22603.5625
2436.6613	22648.3625
2439.43954	22629.0625
2442.21603	22600.4625
2444.99077	22596.6625
2447.76377	22605.2625
2450.53501	22573.5625
2453.30451	22527.6625
2456.07226	22553.4625
2458.83827	22511.2625
2461.60254	22526.5625
2464.36507	22499.3625
2467.12586	22476.4625
2469.88492	22484.3625
2472.64224	22485.1625
2475.39782	22491.2625
2478.15167	22488.1625
2480.90379	22470.4625
2483.65417	22494.3625
2486.40283	22497.1625
2489.14976	22505.1625
2491.89497	22431.7625
2494.63845	22467.7625
2497.3802	22455.2625
2500.12024	22419.2625
2502.85855	22395.3625
2505.59514	22396.4625
2508.33002	22406.0625
2511.06318	22362.8625
2513.79462	22384.9625
2516.52435	22339.9625
2519.25237	22319.6625
2521.97867	22306.0625
2524.70327	22289.2625
2527.42616	22288.3625
2530.14734	22229.4625
2532.86681	22191.5625
2535.58458	22223.0625
2538.30065	22166.0625
2541.01501	22163.4625
2543.72768	22176.4625
2546.43864	22151.8625
2549.14791	22074.9625
2551.85548	22047.7625
2554.56136	22007.7625
2557.26554	21944.2625
2559.96803	21961.4625
2562.66883	21949.0625
2565.36794	21945.2625
2568.06536	21940.9625
2570.7611	21945.8625
2573.45514	21908.8625
2576.14751	21880.3625
2578.83819	21859.8625
2581.52719	21852.5625
2584.21451	21867.4625
2586.90015	21847.6625
2589.58411	21783.7625
2592.2664	21762.1625
2594.94701	21727.0625
2597.62594	21739.8625
2600.30321	21685.8625
2602.9788	21663.3625
2605.65273	21615.3625
2608.32498	21571.6625
2610.99557	21572.2625
2613.66449	21571.1625
2616.33175	21523.9625
2618.99734	21487.3625
2621.66128	21517.2625
2624.32355	21454.8625
2626.98416	21474.6625
2629.64311	21455.7625
2632.30041	21454.4625
2634.95605	21421.3625
2637.61004	21427.8625
2640.26238	21390.4625
2642.91306	21348.7625
2645.56209	21349.8625
2648.20948	21342.3625
2650.85521	21331.8625
2653.4993	21353.6625
2656.14175	21330.4625
2658.78255	21333.1625
2661.42171	21342.3625
2664.05923	21347.2625
2666.6951	21367.1625
2669.32934	21390.6625
2671.96194	21343.5625
2674.59291	21316.0625
2677.22224	21368.2625
2679.84993	21352.9625
2682.476	21353.4625
2685.10043	21333.1625
2687.72324	21331.6625
2690.34441	21327.6625
2692.96396	21332.1625
2695.58188	21338.2625
2698.19818	21303.5625
2700.81285	21327.3625
2703.4259	21362.9625
2706.03733	21452.9625
2708.64714	21421.0625
2711.25533	21451.7625
2713.86191	21423.1625
2716.46687	21439.4625
2719.07021	21403.1625
2721.67194	21396.9625
2724.27206	21399.7625
2726.87057	21400.4625
2729.46747	21428.9625
2732.06276	21416.0625
2734.65644	21403.1625
2737.24852	21409.6625
2739.83899	21360.8625
2742.42786	21377.2625
2745.01513	21355.9625
2747.60079	21320.7625
2750.18486	21313.7625
2752.76733	21314.0625
2755.3482	21314.0625
2757.92747	21282.2625
2760.50515	21297.9625
2763.08123	21317.3625
2765.65573	21253.6625
2768.22863	21237.2625
2770.79994	21208.3625
2773.36967	21243.8625
2775.9378	21255.8625
2778.50435	21178.9625
2781.06932	21181.3625
2783.6327	21223.8625
2786.1945	21170.7625
2788.75471	21152.0625
2791.31335	21063.5625
2793.87041	21060.5625
2796.42589	20973.9625
2798.97979	20985.6625
2801.53212	20972.6625
2804.08288	20955.8625
2806.63206	20855.4625
2809.17967	20808.5625
2811.72571	20769.9625
2814.27018	20761.9625
2816.81308	20755.8625
2819.35442	20761.8625
2821.89419	20688.1625
2824.43239	20662.4625
2826.96904	20669.3625
2829.50412	20715.5625
2832.03763	20619.7625
2834.56959	20606.5625
2837.1	20582.7625
2839.62884	20570.8625
2842.15613	20563.8625
2844.68186	20610.5625
2847.20604	20573.0625
2849.72867	20601.5625
2852.24974	20578.8625
2854.76927	20498.0625
2857.28724	20521.6625
2859.80367	20503.2625
2862.31855	20492.4625
2864.83189	20440.0625
2867.34368	20407.2625
2869.85393	20439.2625
2872.36264	20390.8625
2874.8698	20400.7625
2877.37543	20431.4625
2879.87952	20433.4625
2882.38207	20456.4625
2884.88308	20463.6625
2887.38256	20477.8625
2889.88051	20458.9625
2892.37692	20452.2625
2894.8718	20410.4625
2897.36515	20469.1625
2899.85698	20400.4625
2902.34727	20507.1625
2904.83604	20473.2625
2907.32328	20531.8625
2909.809	20490.9625
2912.29319	20521.9625
2914.77587	20524.0625
2917.25702	20514.4625
2919.73665	20504.8625
2922.21476	20529.1625
2924.69136	20490.2625
2927.16644	20493.8625
2929.64	20484.5625
2932.11205	20473.2625
2934.58258	20413.2625
2937.05161	20481.8625
2939.51912	20475.5625
2941.98513	20500.3625
2944.44962	20468.3625
2946.91261	20399.6625
2949.37409	20428.0625
2951.83407	20417.8625
2954.29254	20417.9625
2956.74951	20375.4625
2959.20498	20365.5625
2961.65895	20363.2625
2964.11142	20356.6625
2966.56239	20311.7625
2969.01186	20319.8625
2971.45984	20277.5625
2973.90632	20270.8625
2976.35131	20221.8625
2978.7948	20193.9625
2981.23681	20148.0625
2983.67732	20136.2625
2986.11635	20103.1625
2988.55388	20052.4625
2990.98993	20038.5625
2993.4245	20005.8625
2995.85758	19956.3625
2998.28917	19944.1625
3000.71928	19884.4625
3003.14791	19915.2625
3005.57506	19875.5625
3008.00073	19871.6625
3010.42493	19866.8625
3012.84764	19799.0625
3015.26888	19820.8625
3017.68865	19779.0625
3020.10694	19779.1625
3022.52376	19703.1625
3024.9391	19696.8625
3027.35298	19667.1625
3029.76539	19684.0625
3032.17632	19686.2625
3034.5858	19664.5625
3036.9938	19643.9625
3039.40034	19621.8625
3041.80542	19581.2625
3044.20903	19574.9625
3046.61118	19556.2625
3049.01187	19513.4625
3051.4111	19516.0625
3053.80888	19462.5625
3056.20519	19451.2625
3058.60005	19421.0625
3060.99345	19366.7625
3063.3854	19355.1625
3065.7759	19302.8625
3068.16494	19335.8625
3070.55254	19262.1625
3072.93868	19251.2625
3075.32338	19212.8625
3077.70662	19174.7625
3080.08842	19127.8625
3082.46878	19128.8625
3084.84769	19134.4625
3087.22515	19133.3625
3089.60118	19154.8625
3091.97576	19164.8625
3094.3489	19162.9625
3096.72061	19167.4625
3099.09087	19169.4625
3101.4597	19112.4625
3103.82709	19097.3625
3106.19305	19078.3625
3108.55757	19077.5625
3110.92066	18994.3625
3113.28232	19001.3625
3115.64255	18940.3625
3118.00134	18935.5625
3120.35871	18931.9625
3122.71466	18908.5625
3125.06917	18847.7625
3127.42226	18817.2625
3129.77393	18864.1625
3132.12417	18834.3625
3134.47299	18848.6625
3136.82039	18865.4625
3139.16636	18874.3625
3141.51092	18848.3625
3143.85406	18868.2625
3146.19579	18868.4625
3148.53609	18873.2625
3150.87499	18842.7625
3153.21246	18877.1625
3155.54853	18882.1625
3157.88318	18843.6625
3160.21642	18866.5625
3162.54826	18856.0625
3164.87868	18890.9625
3167.2077	18829.4625
3169.5353	18850.9625
3171.86151	18863.0625
3174.18631	18829.3625
3176.5097	18814.6625
3178.83169	18765.8625
3181.15228	18801.4625
3183.47147	18750.2625
3185.78926	18809.1625
3188.10565	18723.5625
3190.42065	18750.9625
3192.73424	18753.3625
3195.04645	18722.9625
3197.35725	18761.7625
3199.66667	18713.9625
3201.97469	18727.5625
3204.28132	18728.6625
3206.58656	18741.6625
3208.8904	18762.5625
3211.19287	18759.3625
3213.49394	18735.1625
3215.79363	18746.7625
3218.09193	18773.3625
3220.38884	18755.3625
3222.68438	18815.2625
3224.97853	18774.9625
3227.2713	18754.7625
3229.56269	18708.0625
3231.8527	18715.2625
3234.14133	18716.9625
3236.42858	18652.4625
3238.71446	18640.7625
3240.99896	18577.4625
3243.28209	18589.4625
3245.56384	18615.0625
3247.84423	18655.0625
3250.12324	18633.2625
3252.40088	18606.8625
3254.67715	18616.6625
3256.95205	18582.8625
3259.22558	18587.0625
3261.49775	18585.4625
3263.76855	18510.0625
3266.03799	18505.9625
3268.30606	18471.5625
3270.57277	18439.7625
3272.83812	18381.9625
3275.10211	18382.1625
3277.36474	18365.9625
3279.62601	18393.8625
3281.88593	18358.9625
3284.14448	18397.1625
3286.40168	18386.0625
3288.65753	18353.6625
3290.91202	18320.4625
3293.16516	18260.5625
3295.41695	18208.1625
3297.66738	18118.5625
3299.91647	18066.7625
3302.16421	17942.0625
3304.4106	17928.0625
3306.65564	17796.3625
3308.89933	17703.0625
3311.14169	17619.9625
3313.38269	17496.2625
3315.62236	17419.4625
3317.86068	17254.1625
3320.09766	17098.6625
3322.3333	16988.1625
3324.5676	17011.8625
3326.80056	16738.9625
3329.03219	16629.2625
3331.26248	4.9625
3333.49143	-0.8375
3335.71905	1.3625
