Data from AgNP_FTO_APTES_CRN_10uM_R6G_10uM_NaF_0.1M_Addition_RamanShift__37__16-58-08-000.txt Node

Date: Wed Dec 15 16:58:08 GMT 2021
User: TCL
Spectrometer: QEP01345
Trigger mode: 4
Integration Time (sec): 7.000000E0
Scans to average: 10
Electric dark correction enabled: true
Nonlinearity correction enabled: false
Boxcar width: 0
XAxis mode: Raman Shifts
Number of Pixels in Spectrum: 1044
>>>>>Begin Spectral Data<<<<<
46.04893	0.3625
50.45542	-0.7375
54.85868	-0.2375
59.25871	-0.7375
63.6555	47.5625
68.04907	53.2625
72.43941	56.0625
76.82654	59.6625
81.21044	64.4625
85.59113	68.7625
89.96862	71.1625
94.34289	70.3625
98.71396	73.8625
103.08183	81.6625
107.4465	79.6625
111.80798	78.4625
116.16626	84.4625
120.52136	81.0625
124.87327	85.1625
129.222	87.5625
133.56755	86.9625
137.90993	91.1625
142.24913	95.7625
146.58517	104.0625
150.91804	116.6625
155.24774	130.2625
159.57429	159.8625
163.89768	197.2625
168.21792	251.0625
172.53501	332.6625
176.84895	452.8625
181.15975	623.4625
185.46741	854.2625
189.77193	1180.1625
194.07331	1573.4625
198.37157	2030.8625
202.6667	2496.6625
206.9587	2983.6625
211.24758	3472.8625
215.53334	3984.3625
219.81599	4548.7625
224.09553	5258.9625
228.37195	5970.6625
232.64527	6758.1625
236.91549	7490.0625
241.18261	8134.2625
245.44663	8613.2625
249.70755	8924.1625
253.96539	9194.7625
258.22014	9466.1625
262.4718	9764.7625
266.72039	9995.0625
270.96589	10141.9625
275.20832	10119.4625
279.44768	10007.3625
283.68397	9833.9625
287.91719	9759.7625
292.14735	9877.2625
296.37445	10214.1625
300.59849	10765.2625
304.81948	11466.8625
309.03742	12026.1625
313.25231	12072.7625
317.46415	11416.4625
321.67296	10270.1625
325.87872	9283.8625
330.08145	8790.4625
334.28114	8704.8625
338.47781	8871.9625
342.67145	9203.9625
346.86207	9707.6625
351.04966	10508.5625
355.23424	11437.4625
359.4158	12086.0625
363.59435	12367.7625
367.76989	12312.3625
371.94243	12176.4625
376.11196	11986.1625
380.27849	11804.0625
384.44203	11572.5625
388.60257	11312.8625
392.76012	11163.7625
396.91468	11249.3625
401.06626	11625.4625
405.21485	11833.1625
409.36047	11555.4625
413.50311	10685.4625
417.64277	9886.9625
421.77947	9400.7625
425.9132	9176.4625
430.04396	9160.5625
434.17176	9155.4625
438.2966	9299.7625
442.41849	9531.5625
446.53742	9852.4625
450.6534	10157.7625
454.76644	10297.0625
458.87653	10289.1625
462.98368	10159.9625
467.08789	9954.3625
471.18916	9677.8625
475.2875	9362.8625
479.38291	9106.2625
483.4754	8905.7625
487.56496	8780.9625
491.6516	8705.9625
495.73531	8668.3625
499.81612	8711.8625
503.89401	8873.6625
507.96899	9074.4625
512.04106	9319.8625
516.11023	9622.7625
520.1765	9824.5625
524.23987	9833.8625
528.30034	9616.3625
532.35792	9264.2625
536.41261	8924.3625
540.46441	8583.6625
544.51333	8399.9625
548.55936	8433.2625
552.60252	8718.0625
556.64279	9005.5625
560.6802	9190.8625
564.71473	9438.9625
568.7464	9977.1625
572.7752	10331.7625
576.80114	9840.8625
580.82422	9226.2625
584.84444	8943.2625
588.86181	8873.0625
592.87633	8898.0625
596.888	9085.7625
600.89682	9563.1625
604.9028	11201.7625
608.90594	15540.4625
612.90624	21469.5625
616.90371	20874.3625
620.89834	13231.3625
624.89015	9454.8625
628.87913	8693.0625
632.86528	8777.2625
636.84862	9041.6625
640.82913	8911.5625
644.80683	8406.1625
648.78172	8037.1625
652.75379	8111.9625
656.72306	8660.1625
660.68952	9299.7625
664.65319	9154.0625
668.61405	8458.8625
672.57211	8110.8625
676.52738	8049.3625
680.47986	8028.2625
684.42955	7952.3625
688.37646	7891.2625
692.32058	7933.5625
696.26192	7991.0625
700.20048	8176.0625
704.13626	8291.9625
708.06928	8280.4625
711.99952	8190.4625
715.927	8145.4625
719.85171	8169.5625
723.77365	8145.3625
727.69284	8053.3625
731.60928	7953.8625
735.52295	7915.8625
739.43388	7950.0625
743.34206	7992.0625
747.24749	8022.9625
751.15017	8070.5625
755.05012	8302.7625
758.94733	8867.1625
762.8418	10298.3625
766.73354	12751.7625
770.62254	15381.6625
774.50882	16716.8625
778.39237	15925.2625
782.27321	13355.3625
786.15132	10659.8625
790.02671	9113.2625
793.89938	8396.2625
797.76935	8118.6625
801.6366	7978.7625
805.50115	7891.7625
809.36299	7851.3625
813.22213	7790.4625
817.07857	7785.7625
820.93231	7785.2625
824.78336	7822.2625
828.63172	7882.5625
832.47738	7929.4625
836.32036	7909.0625
840.16066	7847.5625
843.99827	7758.5625
847.8332	7711.1625
851.66546	7675.5625
855.49504	7654.5625
859.32195	7618.4625
863.1462	7567.1625
866.96777	7519.4625
870.78668	7513.3625
874.60293	7510.7625
878.41652	7536.1625
882.22745	7617.4625
886.03573	7640.1625
889.84136	7610.7625
893.64433	7575.9625
897.44466	7553.3625
901.24235	7543.4625
905.0374	7532.6625
908.8298	7492.3625
912.61957	7481.3625
916.40671	7517.9625
920.19121	7578.0625
923.97308	7666.1625
927.75233	7794.2625
931.52895	7942.7625
935.30295	7861.8625
939.07433	7512.6625
942.84309	7234.5625
946.60924	7051.8625
950.37278	6936.5625
954.13371	6912.3625
957.89203	6869.5625
961.64774	6846.3625
965.40086	6805.0625
969.15137	6780.8625
972.89929	6779.4625
976.64461	6759.1625
980.38733	6729.2625
984.12747	6756.4625
987.86502	6771.8625
991.59999	6809.7625
995.33237	6863.2625
999.06217	7002.2625
1002.78939	7208.7625
1006.51404	7363.0625
1010.23611	7605.7625
1013.95561	7759.9625
1017.67255	7703.1625
1021.38692	7550.7625
1025.09872	7391.0625
1028.80796	7284.3625
1032.51465	7295.3625
1036.21877	7413.7625
1039.92035	7562.5625
1043.61937	7656.1625
1047.31584	7660.4625
1051.00976	7671.8625
1054.70114	7657.6625
1058.38998	7636.5625
1062.07627	7699.7625
1065.76003	7819.1625
1069.44126	8003.8625
1073.11995	8280.3625
1076.79611	8538.5625
1080.46974	8806.1625
1084.14085	9036.6625
1087.80943	9232.1625
1091.47549	9200.7625
1095.13903	8832.1625
1098.80005	8312.6625
1102.45857	7915.1625
1106.11456	7762.4625
1109.76805	7819.4625
1113.41903	8068.4625
1117.06751	8439.9625
1120.71348	8993.4625
1124.35696	9596.9625
1127.99793	10142.4625
1131.63641	10114.9625
1135.2724	9408.7625
1138.90589	8744.7625
1142.5369	8333.1625
1146.16542	8073.1625
1149.79145	7886.7625
1153.415	7895.3625
1157.03607	7977.7625
1160.65467	8180.5625
1164.27079	8586.7625
1167.88443	9207.6625
1171.49561	10307.4625
1175.10432	12161.0625
1178.71056	14552.1625
1182.31434	16134.9625
1185.91565	16137.3625
1189.51451	15255.4625
1193.11091	13888.2625
1196.70485	12402.0625
1200.29634	11366.8625
1203.88538	10658.2625
1207.47197	9826.5625
1211.05612	9081.1625
1214.63782	8690.8625
1218.21708	8521.0625
1221.79391	8531.6625
1225.36829	8574.4625
1228.94024	8642.6625
1232.50976	8692.0625
1236.07685	8738.6625
1239.6415	8785.4625
1243.20374	8812.7625
1246.76355	8875.7625
1250.32093	9008.7625
1253.8759	9234.5625
1257.42845	9561.8625
1260.97859	9949.4625
1264.52631	10378.0625
1268.07163	10830.6625
1271.61453	11231.4625
1275.15503	11468.9625
1278.69312	11446.9625
1282.22882	11421.7625
1285.76211	11633.2625
1289.29301	12095.8625
1292.82151	12582.7625
1296.34761	13054.0625
1299.87133	13783.0625
1303.39266	15148.3625
1306.9116	17442.3625
1310.42815	20179.9625
1313.94233	21997.7625
1317.45412	21532.6625
1320.96354	19507.7625
1324.47058	17228.0625
1327.97525	15323.4625
1331.47754	14117.4625
1334.97747	13614.7625
1338.47502	13619.3625
1341.97022	13925.8625
1345.46305	14728.6625
1348.95352	16202.4625
1352.44163	18251.7625
1355.92738	20945.8625
1359.41078	25080.8625
1362.89183	29383.6625
1366.37053	28908.1625
1369.84688	23733.5625
1373.32088	18358.7625
1376.79254	14979.3625
1380.26186	13295.6625
1383.72883	12483.2625
1387.19347	11783.5625
1390.65578	11074.8625
1394.11575	10454.5625
1397.57339	10103.5625
1401.0287	9981.8625
1404.48168	9993.5625
1407.93234	10029.6625
1411.38068	10067.7625
1414.82669	10074.2625
1418.27039	9954.6625
1421.71177	9881.6625
1425.15083	9724.5625
1428.58758	9570.1625
1432.02203	9600.1625
1435.45416	9722.3625
1438.88399	9825.0625
1442.31151	9794.9625
1445.73673	9859.4625
1449.15965	9908.6625
1452.58027	9864.6625
1455.9986	9736.3625
1459.41463	9656.9625
1462.82837	9757.5625
1466.23982	10020.8625
1469.64898	10287.5625
1473.05586	10509.6625
1476.46045	10727.2625
1479.86276	10945.5625
1483.26279	11320.4625
1486.66054	11734.4625
1490.05602	12267.5625
1493.44922	13090.8625
1496.84016	14353.7625
1500.22882	16381.2625
1503.61521	19196.6625
1506.99934	22396.6625
1510.38121	25562.0625
1513.76081	27401.7625
1517.13816	26218.2625
1520.51324	22469.6625
1523.88607	18314.5625
1527.25665	15368.2625
1530.62498	13695.3625
1533.99105	12703.4625
1537.35488	12057.8625
1540.71647	11663.1625
1544.07581	11454.3625
1547.4329	11352.3625
1550.78776	11325.9625
1554.14038	11348.4625
1557.49077	11544.5625
1560.83892	11928.5625
1564.18484	12517.5625
1567.52853	13235.3625
1570.86999	13907.9625
1574.20922	14457.5625
1577.54624	14607.6625
1580.88103	13856.1625
1584.2136	12517.7625
1587.54395	11458.0625
1590.87208	11075.3625
1594.19801	11425.2625
1597.52172	12228.7625
1600.84321	12584.3625
1604.16251	12058.7625
1607.47959	11190.5625
1610.79447	10339.6625
1614.10715	9474.6625
1617.41763	8765.0625
1620.7259	8310.8625
1624.03199	8131.9625
1627.33587	8142.0625
1630.63757	8328.4625
1633.93707	8739.3625
1637.23439	9439.6625
1640.52951	10580.7625
1643.82246	12299.2625
1647.11321	14647.5625
1650.40179	16743.1625
1653.68819	16807.8625
1656.97241	14461.9625
1660.25446	11508.1625
1663.53433	9343.3625
1666.81203	8094.5625
1670.08756	7383.1625
1673.36092	6942.1625
1676.63211	6702.6625
1679.90115	6510.3625
1683.16801	6388.3625
1686.43272	6302.2625
1689.69527	6243.6625
1692.95567	6220.9625
1696.2139	6188.6625
1699.46999	6195.5625
1702.72392	6187.8625
1705.97571	6141.6625
1709.22535	6111.0625
1712.47284	6076.5625
1715.71819	6092.9625
1718.96139	6091.5625
1722.20246	6078.4625
1725.44139	6062.6625
1728.67818	5988.3625
1731.91284	5908.6625
1735.14537	5850.1625
1738.37576	5797.1625
1741.60403	5764.7625
1744.83017	5740.7625
1748.05418	5724.4625
1751.27607	5709.9625
1754.49584	5702.7625
1757.71349	5705.7625
1760.92903	5717.1625
1764.14244	5699.8625
1767.35375	5672.4625
1770.56294	5640.7625
1773.77002	5624.9625
1776.97499	5572.5625
1780.17785	5532.1625
1783.37861	5514.6625
1786.57727	5474.4625
1789.77382	5445.6625
1792.96828	5443.5625
1796.16064	5440.4625
1799.3509	5423.1625
1802.53907	5411.1625
1805.72514	5398.6625
1808.90913	5357.3625
1812.09102	5330.0625
1815.27083	5316.0625
1818.44856	5296.9625
1821.6242	5297.8625
1824.79776	5295.1625
1827.96924	5246.8625
1831.13864	5276.4625
1834.30597	5260.7625
1837.47122	5243.9625
1840.6344	5247.6625
1843.7955	5237.5625
1846.95454	5237.6625
1850.11151	5228.1625
1853.26642	5212.1625
1856.41926	5210.2625
1859.57004	5222.8625
1862.71876	5237.6625
1865.86542	5219.6625
1869.01003	5221.4625
1872.15258	5222.9625
1875.29308	5212.3625
1878.43152	5198.5625
1881.56792	5216.3625
1884.70227	5204.6625
1887.83457	5191.8625
1890.96482	5191.1625
1894.09304	5198.4625
1897.21921	5178.5625
1900.34335	5181.0625
1903.46544	5174.9625
1906.58551	5188.2625
1909.70353	5167.4625
1912.81953	5152.8625
1915.93349	5178.1625
1919.04543	5156.0625
1922.15534	5136.0625
1925.26322	5121.8625
1928.36908	5104.7625
1931.47292	5095.9625
1934.57473	5062.2625
1937.67453	5044.4625
1940.77232	5034.6625
1943.86808	4993.4625
1946.96184	4980.4625
1950.05358	4948.1625
1953.14331	4947.9625
1956.23103	4922.0625
1959.31675	4919.2625
1962.40046	4890.0625
1965.48217	4883.2625
1968.56188	4880.2625
1971.63959	4861.2625
1974.7153	4851.2625
1977.78901	4839.8625
1980.86073	4814.6625
1983.93046	4784.7625
1986.99819	4772.9625
1990.06394	4748.8625
1993.1277	4724.4625
1996.18947	4697.1625
1999.24925	4680.6625
2002.30706	4676.0625
2005.36288	4663.1625
2008.41672	4658.6625
2011.46859	4619.0625
2014.51848	4618.2625
2017.56639	4614.7625
2020.61233	4585.4625
2023.6563	4566.5625
2026.6983	4545.8625
2029.73833	4552.6625
2032.7764	4533.6625
2035.8125	4504.5625
2038.84664	4493.8625
2041.87881	4501.4625
2044.90903	4489.7625
2047.93729	4478.7625
2050.96359	4482.8625
2053.98794	4465.0625
2057.01034	4458.8625
2060.03078	4444.8625
2063.04927	4466.0625
2066.06582	4435.6625
2069.08042	4433.5625
2072.09307	4419.1625
2075.10378	4398.9625
2078.11255	4405.5625
2081.11938	4414.8625
2084.12426	4412.1625
2087.12722	4403.2625
2090.12824	4405.0625
2093.12732	4411.4625
2096.12447	4411.6625
2099.11969	4402.3625
2102.11299	4393.6625
2105.10435	4398.1625
2108.09379	4394.0625
2111.08131	4400.7625
2114.0669	4416.8625
2117.05057	4416.6625
2120.03233	4426.9625
2123.01216	4412.8625
2125.99008	4414.1625
2128.96609	4427.7625
2131.94018	4417.0625
2134.91236	4423.7625
2137.88263	4422.0625
2140.851	4434.5625
2143.81746	4414.9625
2146.78201	4406.6625
2149.74466	4407.4625
2152.7054	4405.0625
2155.66425	4409.9625
2158.6212	4377.8625
2161.57625	4383.8625
2164.52941	4394.0625
2167.48067	4383.9625
2170.43004	4368.0625
2173.37752	4381.7625
2176.32311	4375.7625
2179.26681	4368.7625
2182.20863	4381.6625
2185.14856	4360.8625
2188.08661	4365.9625
2191.02278	4352.6625
2193.95707	4341.3625
2196.88948	4340.5625
2199.82001	4346.8625
2202.74867	4338.1625
2205.67545	4335.3625
2208.60037	4331.1625
2211.52341	4327.4625
2214.44458	4315.1625
2217.36388	4306.1625
2220.28132	4296.0625
2223.1969	4282.3625
2226.11061	4261.7625
2229.02246	4262.1625
2231.93245	4257.7625
2234.84058	4238.4625
2237.74686	4214.3625
2240.65128	4225.4625
2243.55385	4221.1625
2246.45456	4210.3625
2249.35343	4210.9625
2252.25044	4214.8625
2255.14561	4201.7625
2258.03893	4203.3625
2260.93041	4223.8625
2263.82004	4213.9625
2266.70783	4203.5625
2269.59378	4179.1625
2272.4779	4177.2625
2275.36017	4166.3625
2278.24061	4143.5625
2281.11922	4136.3625
2283.996	4125.7625
2286.87094	4118.8625
2289.74405	4102.7625
2292.61534	4081.9625
2295.4848	4076.5625
2298.35243	4077.9625
2301.21824	4060.0625
2304.08223	4067.1625
2306.94439	4049.3625
2309.80474	4056.7625
2312.66327	4054.7625
2315.51999	4048.4625
2318.37489	4037.4625
2321.22797	4047.2625
2324.07925	4043.7625
2326.92871	4036.0625
2329.77637	4039.5625
2332.62222	4030.2625
2335.46626	4020.6625
2338.3085	4023.5625
2341.14893	4025.7625
2343.98756	4024.3625
2346.8244	4024.7625
2349.65943	4027.5625
2352.49267	4031.9625
2355.32411	4038.7625
2358.15376	4051.3625
2360.98161	4057.6625
2363.80768	4070.1625
2366.63195	4077.6625
2369.45444	4085.3625
2372.27514	4077.4625
2375.09405	4085.8625
2377.91118	4053.4625
2380.72652	4035.7625
2383.54009	4010.3625
2386.35187	3986.4625
2389.16188	3958.8625
2391.97011	3946.5625
2394.77657	3941.7625
2397.58125	3934.6625
2400.38416	3896.3625
2403.18529	3896.2625
2405.98466	3883.9625
2408.78226	3880.5625
2411.57809	3864.1625
2414.37216	3867.7625
2417.16446	3861.2625
2419.955	3857.6625
2422.74378	3854.6625
2425.5308	3850.5625
2428.31606	3859.7625
2431.09956	3852.8625
2433.88131	3843.8625
2436.6613	3844.3625
2439.43954	3855.2625
2442.21603	3840.2625
2444.99077	3846.0625
2447.76377	3861.6625
2450.53501	3857.2625
2453.30451	3862.5625
2456.07226	3855.8625
2458.83827	3849.8625
2461.60254	3853.2625
2464.36507	3841.1625
2467.12586	3838.9625
2469.88492	3844.3625
2472.64224	3834.4625
2475.39782	3843.0625
2478.15167	3860.1625
2480.90379	3853.8625
2483.65417	3876.9625
2486.40283	3882.3625
2489.14976	3905.3625
2491.89497	3913.7625
2494.63845	3906.5625
2497.3802	3916.0625
2500.12024	3889.3625
2502.85855	3875.9625
2505.59514	3857.8625
2508.33002	3835.5625
2511.06318	3818.2625
2513.79462	3789.8625
2516.52435	3771.4625
2519.25237	3752.0625
2521.97867	3741.6625
2524.70327	3727.6625
2527.42616	3715.7625
2530.14734	3719.8625
2532.86681	3709.9625
2535.58458	3703.4625
2538.30065	3685.9625
2541.01501	3707.0625
2543.72768	3699.1625
2546.43864	3706.9625
2549.14791	3706.6625
2551.85548	3694.4625
2554.56136	3685.8625
2557.26554	3685.0625
2559.96803	3682.7625
2562.66883	3678.2625
2565.36794	3672.3625
2568.06536	3685.7625
2570.7611	3657.9625
2573.45514	3662.1625
2576.14751	3640.6625
2578.83819	3633.9625
2581.52719	3631.3625
2584.21451	3627.5625
2586.90015	3612.0625
2589.58411	3617.2625
2592.2664	3601.6625
2594.94701	3600.1625
2597.62594	3585.1625
2600.30321	3595.5625
2602.9788	3594.2625
2605.65273	3574.8625
2608.32498	3566.9625
2610.99557	3573.9625
2613.66449	3576.4625
2616.33175	3576.6625
2618.99734	3577.0625
2621.66128	3554.9625
2624.32355	3556.2625
2626.98416	3558.7625
2629.64311	3556.3625
2632.30041	3541.0625
2634.95605	3533.8625
2637.61004	3526.5625
2640.26238	3504.7625
2642.91306	3502.2625
2645.56209	3508.6625
2648.20948	3505.0625
2650.85521	3489.1625
2653.4993	3492.5625
2656.14175	3497.4625
2658.78255	3500.4625
2661.42171	3511.7625
2664.05923	3512.1625
2666.6951	3511.4625
2669.32934	3513.1625
2671.96194	3517.1625
2674.59291	3527.3625
2677.22224	3519.0625
2679.84993	3536.4625
2682.476	3518.9625
2685.10043	3527.0625
2687.72324	3527.6625
2690.34441	3521.7625
2692.96396	3528.6625
2695.58188	3536.6625
2698.19818	3521.8625
2700.81285	3530.9625
2703.4259	3556.6625
2706.03733	3594.6625
2708.64714	3576.9625
2711.25533	3562.6625
2713.86191	3548.4625
2716.46687	3557.2625
2719.07021	3557.4625
2721.67194	3552.2625
2724.27206	3548.2625
2726.87057	3538.4625
2729.46747	3531.1625
2732.06276	3540.2625
2734.65644	3528.8625
2737.24852	3519.4625
2739.83899	3532.5625
2742.42786	3514.5625
2745.01513	3493.4625
2747.60079	3490.3625
2750.18486	3478.0625
2752.76733	3475.1625
2755.3482	3483.8625
2757.92747	3483.8625
2760.50515	3481.5625
2763.08123	3456.0625
2765.65573	3443.2625
2768.22863	3442.4625
2770.79994	3449.2625
2773.36967	3448.5625
2775.9378	3436.4625
2778.50435	3426.4625
2781.06932	3428.4625
2783.6327	3416.3625
2786.1945	3437.7625
2788.75471	3430.4625
2791.31335	3427.9625
2793.87041	3425.3625
2796.42589	3410.6625
2798.97979	3415.8625
2801.53212	3420.4625
2804.08288	3420.7625
2806.63206	3421.9625
2809.17967	3426.1625
2811.72571	3418.4625
2814.27018	3433.3625
2816.81308	3432.7625
2819.35442	3432.5625
2821.89419	3448.8625
2824.43239	3461.4625
2826.96904	3461.5625
2829.50412	3471.4625
2832.03763	3464.2625
2834.56959	3477.4625
2837.1	3487.6625
2839.62884	3499.9625
2842.15613	3540.7625
2844.68186	3600.9625
2847.20604	3641.0625
2849.72867	3702.6625
2852.24974	3718.5625
2854.76927	3734.4625
2857.28724	3730.8625
2859.80367	3712.4625
2862.31855	3697.9625
2864.83189	3676.1625
2867.34368	3674.2625
2869.85393	3664.8625
2872.36264	3675.1625
2874.8698	3679.4625
2877.37543	3672.2625
2879.87952	3659.4625
2882.38207	3647.6625
2884.88308	3652.6625
2887.38256	3656.0625
2889.88051	3655.7625
2892.37692	3656.5625
2894.8718	3639.7625
2897.36515	3646.5625
2899.85698	3650.4625
2902.34727	3658.9625
2904.83604	3663.1625
2907.32328	3666.2625
2909.809	3670.3625
2912.29319	3659.7625
2914.77587	3652.8625
2917.25702	3650.3625
2919.73665	3647.3625
2922.21476	3650.5625
2924.69136	3622.1625
2927.16644	3637.3625
2929.64	3626.0625
2932.11205	3611.2625
2934.58258	3602.3625
2937.05161	3597.0625
2939.51912	3579.6625
2941.98513	3533.4625
2944.44962	3490.4625
2946.91261	3440.8625
2949.37409	3438.5625
2951.83407	3413.0625
2954.29254	3402.2625
2956.74951	3368.0625
2959.20498	3358.9625
2961.65895	3367.0625
2964.11142	3364.6625
2966.56239	3356.8625
2969.01186	3339.7625
2971.45984	3311.2625
2973.90632	3291.9625
2976.35131	3272.0625
2978.7948	3282.9625
2981.23681	3264.1625
2983.67732	3268.7625
2986.11635	3239.0625
2988.55388	3228.4625
2990.98993	3223.2625
2993.4245	3217.5625
2995.85758	3219.8625
2998.28917	3200.2625
3000.71928	3190.5625
3003.14791	3203.3625
3005.57506	3193.1625
3008.00073	3194.6625
3010.42493	3199.8625
3012.84764	3185.3625
3015.26888	3170.4625
3017.68865	3176.6625
3020.10694	3172.3625
3022.52376	3173.5625
3024.9391	3166.6625
3027.35298	3171.0625
3029.76539	3173.1625
3032.17632	3151.2625
3034.5858	3159.1625
3036.9938	3142.3625
3039.40034	3148.9625
3041.80542	3135.2625
3044.20903	3130.5625
3046.61118	3125.0625
3049.01187	3119.8625
3051.4111	3130.4625
3053.80888	3113.1625
3056.20519	3123.5625
3058.60005	3121.1625
3060.99345	3093.0625
3063.3854	3120.8625
3065.7759	3108.3625
3068.16494	3115.3625
3070.55254	3107.4625
3072.93868	3109.5625
3075.32338	3093.1625
3077.70662	3079.1625
3080.08842	3076.0625
3082.46878	3077.3625
3084.84769	3065.2625
3087.22515	3049.0625
3089.60118	3060.1625
3091.97576	3046.3625
3094.3489	3052.0625
3096.72061	3041.9625
3099.09087	3048.4625
3101.4597	3041.0625
3103.82709	3042.7625
3106.19305	3038.4625
3108.55757	3031.9625
3110.92066	3049.1625
3113.28232	3024.4625
3115.64255	3038.5625
3118.00134	3022.9625
3120.35871	3029.4625
3122.71466	3034.3625
3125.06917	3035.9625
3127.42226	3032.8625
3129.77393	3047.2625
3132.12417	3050.0625
3134.47299	3064.1625
3136.82039	3067.1625
3139.16636	3066.9625
3141.51092	3087.3625
3143.85406	3070.8625
3146.19579	3085.9625
3148.53609	3101.9625
3150.87499	3092.5625
3153.21246	3112.6625
3155.54853	3129.3625
3157.88318	3137.7625
3160.21642	3127.1625
3162.54826	3123.8625
3164.87868	3134.2625
3167.2077	3138.2625
3169.5353	3143.8625
3171.86151	3146.4625
3174.18631	3138.7625
3176.5097	3156.8625
3178.83169	3140.4625
3181.15228	3152.7625
3183.47147	3155.0625
3185.78926	3159.2625
3188.10565	3162.6625
3190.42065	3173.0625
3192.73424	3171.6625
3195.04645	3167.8625
3197.35725	3178.8625
3199.66667	3176.0625
3201.97469	3203.3625
3204.28132	3192.4625
3206.58656	3212.9625
3208.8904	3218.6625
3211.19287	3221.3625
3213.49394	3216.6625
3215.79363	3225.2625
3218.09193	3235.9625
3220.38884	3242.9625
3222.68438	3262.6625
3224.97853	3246.7625
3227.2713	3245.6625
3229.56269	3251.6625
3231.8527	3237.8625
3234.14133	3223.4625
3236.42858	3217.3625
3238.71446	3228.8625
3240.99896	3214.2625
3243.28209	3220.4625
3245.56384	3213.8625
3247.84423	3228.4625
3250.12324	3212.6625
3252.40088	3225.8625
3254.67715	3214.5625
3256.95205	3221.3625
3259.22558	3212.1625
3261.49775	3217.1625
3263.76855	3215.9625
3266.03799	3209.3625
3268.30606	3195.4625
3270.57277	3188.2625
3272.83812	3183.5625
3275.10211	3179.9625
3277.36474	3167.0625
3279.62601	3196.0625
3281.88593	3171.0625
3284.14448	3192.4625
3286.40168	3184.1625
3288.65753	3190.7625
3290.91202	3170.6625
3293.16516	3176.1625
3295.41695	3160.7625
3297.66738	3150.8625
3299.91647	3137.6625
3302.16421	3104.1625
3304.4106	3108.6625
3306.65564	3091.9625
3308.89933	3065.0625
3311.14169	3036.0625
3313.38269	3052.4625
3315.62236	3014.3625
3317.86068	2979.3625
3320.09766	2958.9625
3322.3333	2932.0625
3324.5676	2937.8625
3326.80056	2900.6625
3329.03219	2879.5625
3331.26248	2.1625
3333.49143	0.0625
3335.71905	-0.3375
