Data from AgNP_FTO_APTES_CRN_0uM_R6G_10uM_NaF_0.1M_Addition_RamanShift__12__11-43-42-908.txt Node

Date: Wed Dec 15 11:43:42 GMT 2021
User: TCL
Spectrometer: QEP01345
Trigger mode: 4
Integration Time (sec): 7.000000E0
Scans to average: 10
Electric dark correction enabled: true
Nonlinearity correction enabled: false
Boxcar width: 0
XAxis mode: Raman Shifts
Number of Pixels in Spectrum: 1044
>>>>>Begin Spectral Data<<<<<
46.04893	1.9625
50.45542	-1.8375
54.85868	-0.7375
59.25871	0.3625
63.6555	74.5625
68.04907	83.8625
72.43941	89.0625
76.82654	96.8625
81.21044	102.2625
85.59113	108.9625
89.96862	115.0625
94.34289	117.1625
98.71396	120.0625
103.08183	129.3625
107.4465	125.4625
111.80798	126.4625
116.16626	129.8625
120.52136	128.1625
124.87327	124.1625
129.222	128.6625
133.56755	122.3625
137.90993	127.8625
142.24913	128.6625
146.58517	129.1625
150.91804	140.6625
155.24774	148.4625
159.57429	160.5625
163.89768	186.0625
168.21792	217.3625
172.53501	263.2625
176.84895	337.1625
181.15975	436.7625
185.46741	594.4625
189.77193	813.5625
194.07331	1099.8625
198.37157	1421.4625
202.6667	1793.1625
206.9587	2171.9625
211.24758	2553.8625
215.53334	2938.2625
219.81599	3348.5625
224.09553	3780.2625
228.37195	4269.0625
232.64527	4817.1625
236.91549	5367.4625
241.18261	5942.0625
245.44663	6478.9625
249.70755	6995.4625
253.96539	7373.1625
258.22014	7612.3625
262.4718	7724.0625
266.72039	7700.1625
270.96589	7535.7625
275.20832	7268.4625
279.44768	6943.1625
283.68397	6551.3625
287.91719	6233.9625
292.14735	5894.6625
296.37445	5639.7625
300.59849	5414.6625
304.81948	5253.9625
309.03742	5128.6625
313.25231	5006.9625
317.46415	4909.6625
321.67296	4807.2625
325.87872	4723.9625
330.08145	4687.6625
334.28114	4648.9625
338.47781	4621.6625
342.67145	4593.6625
346.86207	4561.4625
351.04966	4530.3625
355.23424	4495.7625
359.4158	4446.1625
363.59435	4414.3625
367.76989	4351.6625
371.94243	4275.8625
376.11196	4234.1625
380.27849	4179.6625
384.44203	4119.6625
388.60257	4099.0625
392.76012	4082.4625
396.91468	4079.5625
401.06626	4110.7625
405.21485	4112.1625
409.36047	4104.8625
413.50311	4083.9625
417.64277	4076.2625
421.77947	4052.8625
425.9132	4062.6625
430.04396	4091.4625
434.17176	4104.2625
438.2966	4128.8625
442.41849	4149.9625
446.53742	4175.6625
450.6534	4172.8625
454.76644	4192.3625
458.87653	4168.9625
462.98368	4156.7625
467.08789	4111.1625
471.18916	4089.1625
475.2875	4061.8625
479.38291	4031.2625
483.4754	3989.3625
487.56496	3964.8625
491.6516	3957.8625
495.73531	3949.5625
499.81612	3913.4625
503.89401	3921.7625
507.96899	3936.1625
512.04106	3971.1625
516.11023	4017.5625
520.1765	4077.5625
524.23987	4171.1625
528.30034	4250.7625
532.35792	4336.7625
536.41261	4460.2625
540.46441	4552.1625
544.51333	4619.3625
548.55936	4721.2625
552.60252	4804.7625
556.64279	4892.1625
560.6802	4953.1625
564.71473	4978.1625
568.7464	4951.6625
572.7752	4876.3625
576.80114	4781.7625
580.82422	4695.8625
584.84444	4651.9625
588.86181	4637.3625
592.87633	4685.4625
596.888	4822.8625
600.89682	5021.1625
604.9028	5407.0625
608.90594	5965.7625
612.90624	6583.1625
616.90371	6909.3625
620.89834	6794.2625
624.89015	6548.8625
628.87913	6150.7625
632.86528	5527.6625
636.84862	4897.0625
640.82913	4430.2625
644.80683	4107.1625
648.78172	3941.2625
652.75379	3862.3625
656.72306	3842.3625
660.68952	3847.8625
664.65319	3858.1625
668.61405	3823.4625
672.57211	3815.6625
676.52738	3826.0625
680.47986	3845.3625
684.42955	3864.3625
688.37646	3869.1625
692.32058	3874.0625
696.26192	3856.9625
700.20048	3864.1625
704.13626	3869.4625
708.06928	3880.7625
711.99952	3868.1625
715.927	3878.8625
719.85171	3881.7625
723.77365	3898.8625
727.69284	3889.6625
731.60928	3879.7625
735.52295	3887.6625
739.43388	3882.5625
743.34206	3898.3625
747.24749	3917.1625
751.15017	3917.9625
755.05012	3947.3625
758.94733	3975.1625
762.8418	4036.3625
766.73354	4141.0625
770.62254	4288.7625
774.50882	4364.6625
778.39237	4320.5625
782.27321	4194.9625
786.15132	4077.4625
790.02671	4030.0625
793.89938	4004.5625
797.76935	3991.3625
801.6366	3994.2625
805.50115	3999.8625
809.36299	3974.4625
813.22213	3975.8625
817.07857	3984.5625
820.93231	3991.5625
824.78336	3995.6625
828.63172	4028.0625
832.47738	4034.2625
836.32036	4059.3625
840.16066	4085.9625
843.99827	4130.8625
847.8332	4168.7625
851.66546	4190.3625
855.49504	4215.1625
859.32195	4276.8625
863.1462	4334.0625
866.96777	4382.5625
870.78668	4467.2625
874.60293	4569.3625
878.41652	4656.7625
882.22745	4782.3625
886.03573	4955.6625
889.84136	5153.2625
893.64433	5369.6625
897.44466	5633.3625
901.24235	5974.9625
905.0374	6342.6625
908.8298	6723.8625
912.61957	7079.9625
916.40671	7403.9625
920.19121	7638.7625
923.97308	7732.5625
927.75233	7762.9625
931.52895	7660.7625
935.30295	7436.4625
939.07433	7143.4625
942.84309	6805.4625
946.60924	6500.4625
950.37278	6222.2625
954.13371	5972.7625
957.89203	5766.7625
961.64774	5585.3625
965.40086	5423.2625
969.15137	5274.7625
972.89929	5174.2625
976.64461	5069.1625
980.38733	4973.2625
984.12747	4914.8625
987.86502	4856.1625
991.59999	4852.6625
995.33237	4836.2625
999.06217	4830.2625
1002.78939	4827.4625
1006.51404	4849.6625
1010.23611	4860.8625
1013.95561	4867.3625
1017.67255	4865.7625
1021.38692	4864.4625
1025.09872	4858.7625
1028.80796	4882.4625
1032.51465	4910.2625
1036.21877	4945.1625
1039.92035	5003.0625
1043.61937	5072.0625
1047.31584	5117.9625
1051.00976	5147.0625
1054.70114	5166.0625
1058.38998	5153.2625
1062.07627	5132.7625
1065.76003	5096.6625
1069.44126	5022.8625
1073.11995	4965.5625
1076.79611	4911.1625
1080.46974	4854.5625
1084.14085	4747.4625
1087.80943	4637.4625
1091.47549	4563.5625
1095.13903	4444.0625
1098.80005	4351.6625
1102.45857	4239.6625
1106.11456	4152.4625
1109.76805	4098.0625
1113.41903	4041.0625
1117.06751	4023.7625
1120.71348	3992.9625
1124.35696	3992.9625
1127.99793	3980.2625
1131.63641	3970.4625
1135.2724	3910.7625
1138.90589	3827.7625
1142.5369	3791.6625
1146.16542	3745.0625
1149.79145	3706.9625
1153.415	3648.1625
1157.03607	3646.2625
1160.65467	3647.7625
1164.27079	3654.5625
1167.88443	3696.5625
1171.49561	3796.1625
1175.10432	3894.6625
1178.71056	4045.4625
1182.31434	4212.4625
1185.91565	4338.9625
1189.51451	4396.9625
1193.11091	4371.5625
1196.70485	4287.5625
1200.29634	4167.9625
1203.88538	4056.2625
1207.47197	3947.3625
1211.05612	3826.0625
1214.63782	3780.7625
1218.21708	3740.0625
1221.79391	3723.2625
1225.36829	3738.5625
1228.94024	3764.6625
1232.50976	3755.0625
1236.07685	3731.4625
1239.6415	3715.8625
1243.20374	3682.6625
1246.76355	3651.1625
1250.32093	3647.5625
1253.8759	3641.8625
1257.42845	3657.5625
1260.97859	3677.8625
1264.52631	3724.3625
1268.07163	3762.7625
1271.61453	3794.3625
1275.15503	3818.9625
1278.69312	3847.0625
1282.22882	3851.9625
1285.76211	3901.0625
1289.29301	3948.8625
1292.82151	4000.9625
1296.34761	4053.6625
1299.87133	4138.9625
1303.39266	4191.3625
1306.9116	4278.2625
1310.42815	4376.1625
1313.94233	4401.9625
1317.45412	4380.2625
1320.96354	4278.5625
1324.47058	4169.4625
1327.97525	4083.6625
1331.47754	4042.3625
1334.97747	4015.2625
1338.47502	4010.5625
1341.97022	4036.4625
1345.46305	4092.6625
1348.95352	4194.3625
1352.44163	4315.6625
1355.92738	4455.8625
1359.41078	4658.4625
1362.89183	4848.4625
1366.37053	4892.4625
1369.84688	4678.3625
1373.32088	4418.6625
1376.79254	4219.0625
1380.26186	4108.2625
1383.72883	4066.2625
1387.19347	4039.3625
1390.65578	4015.7625
1394.11575	3975.0625
1397.57339	3945.2625
1401.0287	3902.9625
1404.48168	3896.2625
1407.93234	3871.2625
1411.38068	3852.5625
1414.82669	3826.5625
1418.27039	3777.0625
1421.71177	3743.9625
1425.15083	3692.5625
1428.58758	3631.7625
1432.02203	3599.3625
1435.45416	3569.5625
1438.88399	3582.8625
1442.31151	3592.3625
1445.73673	3586.3625
1449.15965	3577.0625
1452.58027	3569.1625
1455.9986	3555.2625
1459.41463	3513.1625
1462.82837	3506.1625
1466.23982	3522.6625
1469.64898	3519.8625
1473.05586	3535.0625
1476.46045	3545.3625
1479.86276	3537.2625
1483.26279	3565.4625
1486.66054	3560.6625
1490.05602	3599.6625
1493.44922	3611.9625
1496.84016	3699.4625
1500.22882	3789.0625
1503.61521	3907.5625
1506.99934	4061.7625
1510.38121	4194.6625
1513.76081	4216.1625
1517.13816	4132.7625
1520.51324	3985.2625
1523.88607	3841.1625
1527.25665	3728.1625
1530.62498	3666.0625
1533.99105	3639.6625
1537.35488	3599.2625
1540.71647	3597.2625
1544.07581	3570.7625
1547.4329	3559.7625
1550.78776	3565.6625
1554.14038	3542.1625
1557.49077	3537.7625
1560.83892	3552.3625
1564.18484	3547.6625
1567.52853	3567.6625
1570.86999	3588.7625
1574.20922	3607.6625
1577.54624	3624.5625
1580.88103	3599.0625
1584.2136	3542.2625
1587.54395	3497.5625
1590.87208	3436.8625
1594.19801	3441.2625
1597.52172	3460.6625
1600.84321	3476.0625
1604.16251	3445.9625
1607.47959	3407.5625
1610.79447	3381.4625
1614.10715	3338.1625
1617.41763	3284.5625
1620.7259	3263.9625
1624.03199	3241.4625
1627.33587	3233.0625
1630.63757	3249.1625
1633.93707	3253.8625
1637.23439	3287.6625
1640.52951	3349.6625
1643.82246	3429.6625
1647.11321	3525.0625
1650.40179	3583.3625
1653.68819	3524.4625
1656.97241	3381.7625
1660.25446	3214.4625
1663.53433	3079.9625
1666.81203	2990.4625
1670.08756	2925.5625
1673.36092	2886.7625
1676.63211	2845.7625
1679.90115	2829.4625
1683.16801	2812.7625
1686.43272	2787.9625
1689.69527	2785.7625
1692.95567	2750.8625
1696.2139	2732.2625
1699.46999	2721.0625
1702.72392	2704.2625
1705.97571	2716.6625
1709.22535	2713.8625
1712.47284	2706.5625
1715.71819	2713.6625
1718.96139	2709.4625
1722.20246	2689.9625
1725.44139	2694.7625
1728.67818	2688.5625
1731.91284	2669.0625
1735.14537	2667.4625
1738.37576	2655.3625
1741.60403	2652.0625
1744.83017	2642.2625
1748.05418	2645.8625
1751.27607	2630.7625
1754.49584	2634.9625
1757.71349	2608.9625
1760.92903	2606.9625
1764.14244	2604.7625
1767.35375	2614.6625
1770.56294	2611.3625
1773.77002	2593.2625
1776.97499	2609.0625
1780.17785	2596.7625
1783.37861	2606.7625
1786.57727	2585.2625
1789.77382	2593.6625
1792.96828	2584.0625
1796.16064	2589.4625
1799.3509	2574.4625
1802.53907	2570.3625
1805.72514	2565.9625
1808.90913	2565.4625
1812.09102	2550.9625
1815.27083	2553.0625
1818.44856	2539.2625
1821.6242	2558.8625
1824.79776	2548.0625
1827.96924	2552.2625
1831.13864	2552.6625
1834.30597	2549.6625
1837.47122	2545.0625
1840.6344	2543.1625
1843.7955	2546.2625
1846.95454	2542.5625
1850.11151	2531.4625
1853.26642	2527.1625
1856.41926	2523.7625
1859.57004	2525.8625
1862.71876	2511.1625
1865.86542	2520.5625
1869.01003	2504.7625
1872.15258	2507.0625
1875.29308	2488.1625
1878.43152	2481.2625
1881.56792	2493.9625
1884.70227	2472.1625
1887.83457	2471.1625
1890.96482	2469.7625
1894.09304	2474.1625
1897.21921	2458.7625
1900.34335	2442.4625
1903.46544	2453.8625
1906.58551	2440.8625
1909.70353	2443.2625
1912.81953	2445.9625
1915.93349	2427.0625
1919.04543	2430.3625
1922.15534	2420.4625
1925.26322	2417.9625
1928.36908	2406.3625
1931.47292	2395.2625
1934.57473	2401.4625
1937.67453	2384.2625
1940.77232	2381.6625
1943.86808	2374.8625
1946.96184	2375.2625
1950.05358	2373.1625
1953.14331	2361.9625
1956.23103	2349.9625
1959.31675	2361.4625
1962.40046	2342.5625
1965.48217	2326.1625
1968.56188	2332.4625
1971.63959	2318.7625
1974.7153	2310.8625
1977.78901	2312.8625
1980.86073	2292.6625
1983.93046	2289.1625
1986.99819	2284.8625
1990.06394	2267.9625
1993.1277	2265.4625
1996.18947	2267.5625
1999.24925	2252.7625
2002.30706	2249.3625
2005.36288	2247.8625
2008.41672	2248.0625
2011.46859	2237.5625
2014.51848	2246.1625
2017.56639	2228.5625
2020.61233	2226.1625
2023.6563	2217.1625
2026.6983	2224.2625
2029.73833	2237.9625
2032.7764	2231.4625
2035.8125	2231.8625
2038.84664	2216.0625
2041.87881	2230.1625
2044.90903	2238.4625
2047.93729	2240.3625
2050.96359	2250.9625
2053.98794	2244.5625
2057.01034	2257.8625
2060.03078	2259.5625
2063.04927	2259.5625
2066.06582	2260.2625
2069.08042	2276.1625
2072.09307	2276.1625
2075.10378	2252.0625
2078.11255	2264.2625
2081.11938	2260.7625
2084.12426	2262.0625
2087.12722	2241.9625
2090.12824	2241.9625
2093.12732	2237.0625
2096.12447	2232.1625
2099.11969	2213.4625
2102.11299	2205.2625
2105.10435	2196.1625
2108.09379	2197.7625
2111.08131	2187.5625
2114.0669	2172.8625
2117.05057	2164.0625
2120.03233	2158.2625
2123.01216	2162.9625
2125.99008	2154.0625
2128.96609	2160.1625
2131.94018	2147.7625
2134.91236	2134.7625
2137.88263	2138.9625
2140.851	2149.1625
2143.81746	2134.9625
2146.78201	2135.1625
2149.74466	2126.8625
2152.7054	2129.5625
2155.66425	2141.3625
2158.6212	2142.0625
2161.57625	2132.5625
2164.52941	2130.6625
2167.48067	2134.3625
2170.43004	2124.9625
2173.37752	2126.1625
2176.32311	2121.3625
2179.26681	2108.7625
2182.20863	2122.3625
2185.14856	2124.5625
2188.08661	2107.4625
2191.02278	2116.0625
2193.95707	2116.6625
2196.88948	2110.9625
2199.82001	2113.9625
2202.74867	2105.6625
2205.67545	2113.3625
2208.60037	2106.1625
2211.52341	2102.6625
2214.44458	2099.2625
2217.36388	2097.3625
2220.28132	2099.6625
2223.1969	2078.9625
2226.11061	2083.3625
2229.02246	2078.2625
2231.93245	2060.6625
2234.84058	2067.9625
2237.74686	2059.6625
2240.65128	2065.6625
2243.55385	2065.9625
2246.45456	2063.9625
2249.35343	2052.4625
2252.25044	2047.8625
2255.14561	2040.0625
2258.03893	2055.0625
2260.93041	2048.5625
2263.82004	2037.2625
2266.70783	2046.9625
2269.59378	2024.3625
2272.4779	2023.6625
2275.36017	2016.6625
2278.24061	2007.1625
2281.11922	1996.7625
2283.996	1992.3625
2286.87094	1994.4625
2289.74405	1988.9625
2292.61534	1977.5625
2295.4848	1968.5625
2298.35243	1979.4625
2301.21824	1972.0625
2304.08223	1964.4625
2306.94439	1965.7625
2309.80474	1964.7625
2312.66327	1957.2625
2315.51999	1949.2625
2318.37489	1956.5625
2321.22797	1944.9625
2324.07925	1937.2625
2326.92871	1944.2625
2329.77637	1961.4625
2332.62222	1941.8625
2335.46626	1938.9625
2338.3085	1936.3625
2341.14893	1936.3625
2343.98756	1926.0625
2346.8244	1916.8625
2349.65943	1918.4625
2352.49267	1916.3625
2355.32411	1924.9625
2358.15376	1916.0625
2360.98161	1906.7625
2363.80768	1904.5625
2366.63195	1906.3625
2369.45444	1915.7625
2372.27514	1903.8625
2375.09405	1908.5625
2377.91118	1900.1625
2380.72652	1900.2625
2383.54009	1899.3625
2386.35187	1890.4625
2389.16188	1879.1625
2391.97011	1887.0625
2394.77657	1871.9625
2397.58125	1871.6625
2400.38416	1870.7625
2403.18529	1863.3625
2405.98466	1858.0625
2408.78226	1861.5625
2411.57809	1856.3625
2414.37216	1848.9625
2417.16446	1848.8625
2419.955	1840.0625
2422.74378	1845.2625
2425.5308	1832.0625
2428.31606	1836.6625
2431.09956	1840.6625
2433.88131	1824.3625
2436.6613	1842.3625
2439.43954	1829.4625
2442.21603	1820.3625
2444.99077	1828.3625
2447.76377	1817.9625
2450.53501	1818.2625
2453.30451	1813.0625
2456.07226	1802.5625
2458.83827	1796.5625
2461.60254	1803.8625
2464.36507	1805.6625
2467.12586	1806.2625
2469.88492	1793.5625
2472.64224	1797.6625
2475.39782	1796.1625
2478.15167	1784.6625
2480.90379	1795.6625
2483.65417	1790.9625
2486.40283	1785.6625
2489.14976	1793.8625
2491.89497	1781.3625
2494.63845	1772.8625
2497.3802	1776.4625
2500.12024	1771.5625
2502.85855	1787.2625
2505.59514	1772.7625
2508.33002	1781.5625
2511.06318	1758.2625
2513.79462	1760.1625
2516.52435	1752.3625
2519.25237	1759.9625
2521.97867	1741.3625
2524.70327	1754.8625
2527.42616	1748.6625
2530.14734	1748.3625
2532.86681	1747.2625
2535.58458	1734.0625
2538.30065	1728.9625
2541.01501	1743.8625
2543.72768	1734.6625
2546.43864	1730.9625
2549.14791	1729.2625
2551.85548	1723.3625
2554.56136	1726.3625
2557.26554	1718.9625
2559.96803	1705.5625
2562.66883	1716.7625
2565.36794	1718.2625
2568.06536	1706.1625
2570.7611	1707.3625
2573.45514	1699.5625
2576.14751	1701.6625
2578.83819	1705.3625
2581.52719	1691.3625
2584.21451	1683.8625
2586.90015	1688.2625
2589.58411	1677.4625
2592.2664	1679.1625
2594.94701	1675.7625
2597.62594	1669.0625
2600.30321	1672.3625
2602.9788	1669.9625
2605.65273	1664.6625
2608.32498	1651.4625
2610.99557	1651.3625
2613.66449	1655.2625
2616.33175	1660.8625
2618.99734	1648.5625
2621.66128	1643.5625
2624.32355	1645.9625
2626.98416	1635.4625
2629.64311	1643.8625
2632.30041	1642.6625
2634.95605	1641.0625
2637.61004	1634.2625
2640.26238	1629.7625
2642.91306	1634.3625
2645.56209	1634.1625
2648.20948	1623.1625
2650.85521	1628.1625
2653.4993	1630.5625
2656.14175	1622.5625
2658.78255	1620.3625
2661.42171	1625.6625
2664.05923	1630.5625
2666.6951	1623.4625
2669.32934	1629.2625
2671.96194	1625.3625
2674.59291	1626.5625
2677.22224	1627.8625
2679.84993	1628.7625
2682.476	1622.1625
2685.10043	1623.2625
2687.72324	1627.3625
2690.34441	1629.7625
2692.96396	1624.7625
2695.58188	1635.1625
2698.19818	1627.2625
2700.81285	1630.0625
2703.4259	1629.9625
2706.03733	1613.4625
2708.64714	1610.3625
2711.25533	1622.0625
2713.86191	1628.1625
2716.46687	1625.3625
2719.07021	1625.7625
2721.67194	1628.5625
2724.27206	1631.5625
2726.87057	1628.7625
2729.46747	1631.3625
2732.06276	1631.3625
2734.65644	1626.1625
2737.24852	1632.3625
2739.83899	1634.0625
2742.42786	1634.1625
2745.01513	1628.9625
2747.60079	1629.3625
2750.18486	1620.3625
2752.76733	1635.0625
2755.3482	1621.9625
2757.92747	1634.1625
2760.50515	1626.2625
2763.08123	1624.1625
2765.65573	1635.9625
2768.22863	1637.5625
2770.79994	1635.3625
2773.36967	1631.9625
2775.9378	1631.2625
2778.50435	1625.3625
2781.06932	1624.4625
2783.6327	1620.0625
2786.1945	1630.0625
2788.75471	1611.9625
2791.31335	1613.0625
2793.87041	1617.8625
2796.42589	1601.2625
2798.97979	1613.6625
2801.53212	1616.3625
2804.08288	1618.3625
2806.63206	1617.6625
2809.17967	1608.5625
2811.72571	1605.1625
2814.27018	1610.9625
2816.81308	1605.0625
2819.35442	1600.4625
2821.89419	1599.5625
2824.43239	1604.4625
2826.96904	1603.4625
2829.50412	1603.7625
2832.03763	1595.4625
2834.56959	1602.9625
2837.1	1609.3625
2839.62884	1608.1625
2842.15613	1607.0625
2844.68186	1620.3625
2847.20604	1631.6625
2849.72867	1644.9625
2852.24974	1648.1625
2854.76927	1659.9625
2857.28724	1675.0625
2859.80367	1683.6625
2862.31855	1710.1625
2864.83189	1729.4625
2867.34368	1751.7625
2869.85393	1772.9625
2872.36264	1792.0625
2874.8698	1812.9625
2877.37543	1839.1625
2879.87952	1859.8625
2882.38207	1875.4625
2884.88308	1895.8625
2887.38256	1916.1625
2889.88051	1940.7625
2892.37692	1963.7625
2894.8718	1977.8625
2897.36515	1993.0625
2899.85698	1989.6625
2902.34727	2001.6625
2904.83604	2015.5625
2907.32328	2026.7625
2909.809	2021.9625
2912.29319	2024.2625
2914.77587	2011.5625
2917.25702	2021.7625
2919.73665	2007.8625
2922.21476	2019.3625
2924.69136	2011.7625
2927.16644	1997.6625
2929.64	1996.0625
2932.11205	1982.7625
2934.58258	1977.4625
2937.05161	1966.7625
2939.51912	1957.9625
2941.98513	1947.3625
2944.44962	1921.5625
2946.91261	1906.6625
2949.37409	1896.0625
2951.83407	1866.6625
2954.29254	1859.5625
2956.74951	1835.0625
2959.20498	1828.1625
2961.65895	1820.5625
2964.11142	1817.6625
2966.56239	1787.3625
2969.01186	1788.3625
2971.45984	1773.9625
2973.90632	1773.3625
2976.35131	1757.8625
2978.7948	1728.9625
2981.23681	1720.6625
2983.67732	1703.2625
2986.11635	1690.7625
2988.55388	1673.6625
2990.98993	1665.8625
2993.4245	1662.2625
2995.85758	1641.1625
2998.28917	1644.0625
3000.71928	1623.7625
3003.14791	1617.2625
3005.57506	1609.8625
3008.00073	1617.7625
3010.42493	1611.8625
3012.84764	1608.9625
3015.26888	1603.0625
3017.68865	1601.9625
3020.10694	1593.7625
3022.52376	1598.6625
3024.9391	1593.3625
3027.35298	1591.0625
3029.76539	1582.5625
3032.17632	1579.8625
3034.5858	1575.5625
3036.9938	1581.1625
3039.40034	1580.1625
3041.80542	1573.9625
3044.20903	1573.4625
3046.61118	1579.6625
3049.01187	1576.8625
3051.4111	1577.0625
3053.80888	1573.0625
3056.20519	1580.4625
3058.60005	1586.1625
3060.99345	1587.7625
3063.3854	1581.0625
3065.7759	1584.0625
3068.16494	1589.1625
3070.55254	1595.6625
3072.93868	1599.4625
3075.32338	1594.1625
3077.70662	1595.1625
3080.08842	1588.3625
3082.46878	1604.0625
3084.84769	1599.8625
3087.22515	1605.2625
3089.60118	1618.7625
3091.97576	1625.0625
3094.3489	1628.8625
3096.72061	1637.8625
3099.09087	1638.6625
3101.4597	1650.1625
3103.82709	1650.4625
3106.19305	1646.9625
3108.55757	1660.1625
3110.92066	1665.5625
3113.28232	1671.6625
3115.64255	1676.3625
3118.00134	1674.2625
3120.35871	1686.7625
3122.71466	1681.6625
3125.06917	1696.6625
3127.42226	1693.6625
3129.77393	1711.1625
3132.12417	1712.5625
3134.47299	1715.3625
3136.82039	1733.6625
3139.16636	1733.9625
3141.51092	1732.6625
3143.85406	1752.2625
3146.19579	1767.7625
3148.53609	1774.5625
3150.87499	1779.3625
3153.21246	1789.9625
3155.54853	1803.0625
3157.88318	1810.6625
3160.21642	1820.6625
3162.54826	1818.8625
3164.87868	1830.0625
3167.2077	1836.4625
3169.5353	1839.1625
3171.86151	1859.3625
3174.18631	1855.2625
3176.5097	1866.1625
3178.83169	1859.6625
3181.15228	1877.8625
3183.47147	1873.3625
3185.78926	1880.4625
3188.10565	1892.2625
3190.42065	1896.5625
3192.73424	1904.9625
3195.04645	1916.6625
3197.35725	1917.5625
3199.66667	1922.0625
3201.97469	1932.7625
3204.28132	1933.2625
3206.58656	1943.2625
3208.8904	1940.0625
3211.19287	1963.3625
3213.49394	1956.8625
3215.79363	1973.2625
3218.09193	1969.3625
3220.38884	1969.2625
3222.68438	1969.2625
3224.97853	1975.2625
3227.2713	1971.9625
3229.56269	1977.5625
3231.8527	1987.9625
3234.14133	1989.3625
3236.42858	1981.7625
3238.71446	1986.7625
3240.99896	1982.0625
3243.28209	1987.2625
3245.56384	1995.7625
3247.84423	1995.7625
3250.12324	1994.6625
3252.40088	2004.3625
3254.67715	2010.4625
3256.95205	1990.9625
3259.22558	2015.0625
3261.49775	2007.5625
3263.76855	2002.7625
3266.03799	2002.8625
3268.30606	1993.3625
3270.57277	2004.5625
3272.83812	1999.4625
3275.10211	1992.3625
3277.36474	1981.4625
3279.62601	1992.0625
3281.88593	1990.8625
3284.14448	1994.0625
3286.40168	1990.6625
3288.65753	1983.9625
3290.91202	1972.0625
3293.16516	1975.4625
3295.41695	1975.1625
3297.66738	1953.3625
3299.91647	1952.3625
3302.16421	1929.3625
3304.4106	1932.8625
3306.65564	1932.5625
3308.89933	1909.6625
3311.14169	1904.5625
3313.38269	1890.0625
3315.62236	1874.9625
3317.86068	1864.0625
3320.09766	1846.3625
3322.3333	1835.5625
3324.5676	1831.9625
3326.80056	1797.5625
3329.03219	1800.4625
3331.26248	1.2625
3333.49143	-1.4375
3335.71905	0.5625
