Data from AgNP_FTO_APTES_UA_10uM_CRN_10uM_R6G_10uM_NaF_0.1M_Addition_RamanShift__21__15-48-50-712.txt Node

Date: Thu Feb 10 15:48:50 GMT 2022
User: TCL
Spectrometer: QEP01345
Trigger mode: 4
Integration Time (sec): 7.000000E0
Scans to average: 10
Electric dark correction enabled: true
Nonlinearity correction enabled: false
Boxcar width: 0
XAxis mode: Raman Shifts
Number of Pixels in Spectrum: 1044
>>>>>Begin Spectral Data<<<<<
46.04893	-0.4375
50.45542	0.2625
54.85868	-2.4375
59.25871	-0.6375
63.6555	74.6625
68.04907	77.2625
72.43941	82.7625
76.82654	81.3625
81.21044	86.6625
85.59113	88.3625
89.96862	93.9625
94.34289	94.1625
98.71396	99.8625
103.08183	102.5625
107.4465	106.7625
111.80798	104.9625
116.16626	113.6625
120.52136	116.3625
124.87327	122.3625
129.222	125.4625
133.56755	135.6625
137.90993	146.3625
142.24913	156.1625
146.58517	176.6625
150.91804	212.0625
155.24774	249.1625
159.57429	306.0625
163.89768	399.1625
168.21792	523.0625
172.53501	721.9625
176.84895	1005.4625
181.15975	1400.6625
185.46741	1963.9625
189.77193	2719.2625
194.07331	3625.6625
198.37157	4662.3625
202.6667	5763.9625
206.9587	6841.3625
211.24758	7892.3625
215.53334	8971.7625
219.81599	10098.0625
224.09553	11353.7625
228.37195	12730.1625
232.64527	14276.4625
236.91549	15904.9625
241.18261	17475.0625
245.44663	18958.1625
249.70755	20318.7625
253.96539	21535.8625
258.22014	22568.4625
262.4718	23432.7625
266.72039	24107.6625
270.96589	24500.9625
275.20832	24626.2625
279.44768	24650.3625
283.68397	24559.0625
287.91719	24387.7625
292.14735	24334.4625
296.37445	24379.8625
300.59849	24452.1625
304.81948	24483.7625
309.03742	24350.9625
313.25231	23978.6625
317.46415	23298.6625
321.67296	22554.7625
325.87872	21964.9625
330.08145	21725.7625
334.28114	21684.4625
338.47781	21891.0625
342.67145	22170.5625
346.86207	22608.3625
351.04966	23123.2625
355.23424	23672.4625
359.4158	24063.2625
363.59435	24388.9625
367.76989	24608.4625
371.94243	24767.1625
376.11196	24847.2625
380.27849	24957.9625
384.44203	25080.9625
388.60257	25189.4625
392.76012	25423.9625
396.91468	25715.2625
401.06626	26061.8625
405.21485	26400.4625
409.36047	26218.3625
413.50311	25848.4625
417.64277	25473.4625
421.77947	25416.2625
425.9132	25550.5625
430.04396	25770.8625
434.17176	25958.7625
438.2966	26186.5625
442.41849	26673.3625
446.53742	27315.8625
450.6534	28093.5625
454.76644	28759.7625
458.87653	28978.7625
462.98368	28994.8625
467.08789	28641.5625
471.18916	28223.1625
475.2875	27869.9625
479.38291	27646.4625
483.4754	27443.9625
487.56496	27050.5625
491.6516	26600.7625
495.73531	26184.4625
499.81612	26018.3625
503.89401	26083.7625
507.96899	26184.5625
512.04106	26116.5625
516.11023	25983.5625
520.1765	25745.6625
524.23987	25574.0625
528.30034	25323.9625
532.35792	25054.9625
536.41261	24753.0625
540.46441	24532.6625
544.51333	24566.4625
548.55936	24976.9625
552.60252	25544.0625
556.64279	26138.6625
560.6802	26521.2625
564.71473	26722.0625
568.7464	27078.3625
572.7752	27729.9625
576.80114	27999.1625
580.82422	28250.9625
584.84444	28397.8625
588.86181	28576.4625
592.87633	28877.7625
596.888	29108.5625
600.89682	29349.0625
604.9028	30384.1625
608.90594	33285.4625
612.90624	36143.1625
616.90371	33787.8625
620.89834	28239.8625
624.89015	25991.5625
628.87913	25765.2625
632.86528	25745.2625
636.84862	25568.5625
640.82913	25103.0625
644.80683	24465.6625
648.78172	23933.9625
652.75379	23846.8625
656.72306	24190.1625
660.68952	24685.4625
664.65319	24540.9625
668.61405	24113.6625
672.57211	23980.7625
676.52738	24026.0625
680.47986	23974.2625
684.42955	23897.0625
688.37646	23878.1625
692.32058	24017.7625
696.26192	24276.2625
700.20048	24544.1625
704.13626	24700.4625
708.06928	24658.1625
711.99952	24412.6625
715.927	24323.8625
719.85171	24348.8625
723.77365	24262.0625
727.69284	24089.8625
731.60928	23788.4625
735.52295	23694.8625
739.43388	23718.8625
743.34206	23831.8625
747.24749	23959.9625
751.15017	24236.6625
755.05012	24692.3625
758.94733	25494.4625
762.8418	26891.4625
766.73354	28992.2625
770.62254	30922.3625
774.50882	31262.0625
778.39237	29707.2625
782.27321	27354.4625
786.15132	25535.3625
790.02671	24454.7625
793.89938	23948.2625
797.76935	23801.3625
801.6366	23670.5625
805.50115	23621.8625
809.36299	23483.0625
813.22213	23337.1625
817.07857	23289.4625
820.93231	23231.3625
824.78336	23157.6625
828.63172	23110.1625
832.47738	23120.2625
836.32036	23154.1625
840.16066	23262.6625
843.99827	23367.9625
847.8332	23295.8625
851.66546	23155.2625
855.49504	23134.0625
859.32195	23107.8625
863.1462	22970.8625
866.96777	22876.2625
870.78668	22761.0625
874.60293	22796.0625
878.41652	22770.8625
882.22745	22878.5625
886.03573	22921.7625
889.84136	22865.8625
893.64433	22765.4625
897.44466	22703.4625
901.24235	22646.6625
905.0374	22546.6625
908.8298	22528.5625
912.61957	22652.8625
916.40671	22827.8625
920.19121	23193.5625
923.97308	23438.2625
927.75233	23492.2625
931.52895	23408.9625
935.30295	23088.1625
939.07433	22679.2625
942.84309	22302.6625
946.60924	22201.7625
950.37278	22160.7625
954.13371	22012.7625
957.89203	21913.7625
961.64774	21847.6625
965.40086	21816.4625
969.15137	21707.9625
972.89929	21629.3625
976.64461	21560.2625
980.38733	21557.8625
984.12747	21673.4625
987.86502	21910.1625
991.59999	22204.8625
995.33237	22722.7625
999.06217	23511.6625
1002.78939	24422.9625
1006.51404	24907.3625
1010.23611	25182.1625
1013.95561	25369.1625
1017.67255	25339.0625
1021.38692	25020.9625
1025.09872	24836.8625
1028.80796	25120.5625
1032.51465	25934.9625
1036.21877	26707.2625
1039.92035	26844.0625
1043.61937	26326.5625
1047.31584	25567.8625
1051.00976	24745.6625
1054.70114	24373.6625
1058.38998	24347.4625
1062.07627	24470.8625
1065.76003	24550.0625
1069.44126	24672.4625
1073.11995	24885.7625
1076.79611	25136.4625
1080.46974	25285.2625
1084.14085	25522.9625
1087.80943	25873.6625
1091.47549	26016.6625
1095.13903	25876.1625
1098.80005	25547.5625
1102.45857	25033.4625
1106.11456	24698.1625
1109.76805	24643.8625
1113.41903	24840.3625
1117.06751	25071.9625
1120.71348	25356.3625
1124.35696	25589.3625
1127.99793	25883.5625
1131.63641	25998.7625
1135.2724	25844.0625
1138.90589	25601.5625
1142.5369	25508.1625
1146.16542	25435.5625
1149.79145	25532.3625
1153.415	25780.4625
1157.03607	26184.9625
1160.65467	26877.7625
1164.27079	27955.7625
1167.88443	29381.6625
1171.49561	31352.5625
1175.10432	33834.1625
1178.71056	36998.9625
1182.31434	39863.3625
1185.91565	41553.8625
1189.51451	41753.8625
1193.11091	40516.0625
1196.70485	38624.5625
1200.29634	36812.4625
1203.88538	35318.4625
1207.47197	34145.8625
1211.05612	33244.6625
1214.63782	32535.2625
1218.21708	32170.0625
1221.79391	32026.1625
1225.36829	31970.7625
1228.94024	31666.8625
1232.50976	31176.8625
1236.07685	30789.6625
1239.6415	30572.1625
1243.20374	30515.8625
1246.76355	30674.3625
1250.32093	31139.1625
1253.8759	31890.4625
1257.42845	32856.1625
1260.97859	33816.8625
1264.52631	34635.9625
1268.07163	35557.2625
1271.61453	36583.9625
1275.15503	37746.8625
1278.69312	38923.4625
1282.22882	39860.3625
1285.76211	40672.2625
1289.29301	41527.1625
1292.82151	42665.7625
1296.34761	44388.9625
1299.87133	46619.5625
1303.39266	49474.1625
1306.9116	52838.9625
1310.42815	56032.5625
1313.94233	58274.3625
1317.45412	58518.9625
1320.96354	57632.4625
1324.47058	56404.8625
1327.97525	55298.6625
1331.47754	54573.6625
1334.97747	54512.0625
1338.47502	54873.7625
1341.97022	55174.1625
1345.46305	54812.5625
1348.95352	53724.7625
1352.44163	52602.2625
1355.92738	52595.5625
1359.41078	54349.7625
1362.89183	55968.4625
1366.37053	54475.1625
1369.84688	49866.0625
1373.32088	44941.6625
1376.79254	41603.8625
1380.26186	40253.4625
1383.72883	40046.0625
1387.19347	39897.5625
1390.65578	39671.8625
1394.11575	39839.2625
1397.57339	40473.9625
1401.0287	41389.0625
1404.48168	42382.7625
1407.93234	43003.2625
1411.38068	42950.6625
1414.82669	41985.8625
1418.27039	40240.9625
1421.71177	38418.7625
1425.15083	36800.5625
1428.58758	35847.1625
1432.02203	35786.4625
1435.45416	36278.6625
1438.88399	37105.9625
1442.31151	37832.5625
1445.73673	38477.2625
1449.15965	39172.4625
1452.58027	39600.5625
1455.9986	39957.4625
1459.41463	40334.2625
1462.82837	40947.8625
1466.23982	41761.1625
1469.64898	42486.4625
1473.05586	42881.0625
1476.46045	42808.0625
1479.86276	42533.6625
1483.26279	42209.1625
1486.66054	42049.9625
1490.05602	42091.5625
1493.44922	42156.8625
1496.84016	42391.1625
1500.22882	42845.1625
1503.61521	43771.6625
1506.99934	45156.6625
1510.38121	46541.2625
1513.76081	47118.8625
1517.13816	46398.2625
1520.51324	44637.0625
1523.88607	42948.1625
1527.25665	41804.2625
1530.62498	41232.6625
1533.99105	41065.4625
1537.35488	40858.1625
1540.71647	40531.4625
1544.07581	39988.7625
1547.4329	39403.5625
1550.78776	38810.5625
1554.14038	38366.4625
1557.49077	38154.4625
1560.83892	38053.1625
1564.18484	37953.0625
1567.52853	37891.9625
1570.86999	37832.4625
1574.20922	38096.1625
1577.54624	38430.1625
1580.88103	38521.0625
1584.2136	38766.3625
1587.54395	39865.8625
1590.87208	41833.8625
1594.19801	44506.4625
1597.52172	47171.1625
1600.84321	47982.7625
1604.16251	46138.3625
1607.47959	42709.8625
1610.79447	38967.7625
1614.10715	35585.9625
1617.41763	32787.8625
1620.7259	30821.7625
1624.03199	29789.9625
1627.33587	29704.8625
1630.63757	30592.4625
1633.93707	32541.6625
1637.23439	35424.6625
1640.52951	39164.1625
1643.82246	43083.5625
1647.11321	45666.0625
1650.40179	45863.8625
1653.68819	42781.6625
1656.97241	37647.7625
1660.25446	32521.7625
1663.53433	28645.1625
1666.81203	26088.4625
1670.08756	24483.3625
1673.36092	23447.7625
1676.63211	22787.1625
1679.90115	22282.3625
1683.16801	21925.4625
1686.43272	21639.2625
1689.69527	21432.3625
1692.95567	21281.0625
1696.2139	21208.1625
1699.46999	21168.5625
1702.72392	21041.0625
1705.97571	20949.2625
1709.22535	20888.8625
1712.47284	20877.1625
1715.71819	20857.2625
1718.96139	20758.8625
1722.20246	20692.4625
1725.44139	20592.0625
1728.67818	20450.7625
1731.91284	20352.9625
1735.14537	20241.7625
1738.37576	20142.7625
1741.60403	20075.8625
1744.83017	20019.2625
1748.05418	19961.8625
1751.27607	19940.2625
1754.49584	19908.3625
1757.71349	19879.6625
1760.92903	19854.9625
1764.14244	19839.2625
1767.35375	19834.8625
1770.56294	19803.2625
1773.77002	19759.1625
1776.97499	19775.6625
1780.17785	19667.4625
1783.37861	19605.7625
1786.57727	19622.8625
1789.77382	19581.8625
1792.96828	19547.6625
1796.16064	19517.8625
1799.3509	19518.2625
1802.53907	19471.4625
1805.72514	19389.8625
1808.90913	19341.7625
1812.09102	19346.7625
1815.27083	19282.3625
1818.44856	19262.5625
1821.6242	19224.2625
1824.79776	19197.6625
1827.96924	19193.6625
1831.13864	19197.0625
1834.30597	19213.4625
1837.47122	19206.9625
1840.6344	19227.5625
1843.7955	19227.8625
1846.95454	19209.8625
1850.11151	19208.6625
1853.26642	19226.5625
1856.41926	19224.9625
1859.57004	19233.7625
1862.71876	19231.9625
1865.86542	19232.5625
1869.01003	19204.7625
1872.15258	19209.8625
1875.29308	19199.3625
1878.43152	19211.2625
1881.56792	19207.0625
1884.70227	19218.7625
1887.83457	19251.4625
1890.96482	19245.6625
1894.09304	19194.4625
1897.21921	19157.4625
1900.34335	19196.1625
1903.46544	19183.1625
1906.58551	19201.0625
1909.70353	19189.0625
1912.81953	19145.8625
1915.93349	19164.6625
1919.04543	19097.8625
1922.15534	19077.0625
1925.26322	18974.0625
1928.36908	18914.6625
1931.47292	18886.6625
1934.57473	18827.0625
1937.67453	18760.1625
1940.77232	18721.1625
1943.86808	18616.6625
1946.96184	18564.6625
1950.05358	18459.5625
1953.14331	18365.9625
1956.23103	18304.8625
1959.31675	18261.5625
1962.40046	18208.1625
1965.48217	18121.4625
1968.56188	18105.4625
1971.63959	18043.0625
1974.7153	17973.7625
1977.78901	17927.5625
1980.86073	17888.0625
1983.93046	17830.5625
1986.99819	17781.2625
1990.06394	17718.9625
1993.1277	17639.7625
1996.18947	17609.1625
1999.24925	17566.3625
2002.30706	17510.0625
2005.36288	17437.9625
2008.41672	17403.8625
2011.46859	17349.9625
2014.51848	17330.5625
2017.56639	17262.0625
2020.61233	17231.7625
2023.6563	17200.5625
2026.6983	17148.7625
2029.73833	17123.4625
2032.7764	17105.7625
2035.8125	17097.4625
2038.84664	17035.5625
2041.87881	16994.4625
2044.90903	16997.9625
2047.93729	16943.0625
2050.96359	16942.7625
2053.98794	16909.9625
2057.01034	16913.8625
2060.03078	16882.6625
2063.04927	16881.1625
2066.06582	16884.3625
2069.08042	16867.8625
2072.09307	16849.4625
2075.10378	16798.5625
2078.11255	16808.6625
2081.11938	16809.5625
2084.12426	16785.1625
2087.12722	16763.2625
2090.12824	16763.7625
2093.12732	16745.9625
2096.12447	16736.5625
2099.11969	16697.8625
2102.11299	16707.9625
2105.10435	16721.2625
2108.09379	16718.9625
2111.08131	16756.9625
2114.0669	16734.1625
2117.05057	16728.4625
2120.03233	16728.4625
2123.01216	16785.1625
2125.99008	16772.7625
2128.96609	16789.7625
2131.94018	16839.1625
2134.91236	16828.4625
2137.88263	16832.7625
2140.851	16855.2625
2143.81746	16827.4625
2146.78201	16819.4625
2149.74466	16866.8625
2152.7054	16840.7625
2155.66425	16855.3625
2158.6212	16861.1625
2161.57625	16831.6625
2164.52941	16860.8625
2167.48067	16818.9625
2170.43004	16792.1625
2173.37752	16783.2625
2176.32311	16819.5625
2179.26681	16839.0625
2182.20863	16822.3625
2185.14856	16824.6625
2188.08661	16826.2625
2191.02278	16810.8625
2193.95707	16833.2625
2196.88948	16826.4625
2199.82001	16810.6625
2202.74867	16816.4625
2205.67545	16831.7625
2208.60037	16783.6625
2211.52341	16805.1625
2214.44458	16774.3625
2217.36388	16753.9625
2220.28132	16739.4625
2223.1969	16686.1625
2226.11061	16719.6625
2229.02246	16636.8625
2231.93245	16584.8625
2234.84058	16541.7625
2237.74686	16517.8625
2240.65128	16509.8625
2243.55385	16470.1625
2246.45456	16454.0625
2249.35343	16430.5625
2252.25044	16405.8625
2255.14561	16401.9625
2258.03893	16379.1625
2260.93041	16330.2625
2263.82004	16294.1625
2266.70783	16253.9625
2269.59378	16205.5625
2272.4779	16121.6625
2275.36017	16126.2625
2278.24061	16079.8625
2281.11922	16066.8625
2283.996	16050.9625
2286.87094	16034.1625
2289.74405	16027.2625
2292.61534	16034.1625
2295.4848	16019.9625
2298.35243	16008.6625
2301.21824	16016.0625
2304.08223	16052.2625
2306.94439	16054.5625
2309.80474	16067.2625
2312.66327	16111.7625
2315.51999	16071.9625
2318.37489	16028.3625
2321.22797	16076.2625
2324.07925	16019.1625
2326.92871	16009.2625
2329.77637	16003.7625
2332.62222	15992.8625
2335.46626	15984.6625
2338.3085	15968.7625
2341.14893	16034.8625
2343.98756	16017.0625
2346.8244	16061.7625
2349.65943	16065.3625
2352.49267	16032.8625
2355.32411	16043.2625
2358.15376	16017.7625
2360.98161	16018.4625
2363.80768	16024.6625
2366.63195	15967.7625
2369.45444	15932.7625
2372.27514	15892.5625
2375.09405	15859.5625
2377.91118	15828.6625
2380.72652	15795.6625
2383.54009	15743.1625
2386.35187	15733.4625
2389.16188	15673.9625
2391.97011	15659.3625
2394.77657	15654.5625
2397.58125	15597.0625
2400.38416	15619.9625
2403.18529	15599.6625
2405.98466	15542.1625
2408.78226	15482.0625
2411.57809	15470.3625
2414.37216	15452.7625
2417.16446	15427.1625
2419.955	15374.8625
2422.74378	15393.8625
2425.5308	15365.4625
2428.31606	15394.4625
2431.09956	15394.7625
2433.88131	15348.2625
2436.6613	15372.0625
2439.43954	15375.5625
2442.21603	15374.9625
2444.99077	15352.0625
2447.76377	15328.7625
2450.53501	15330.9625
2453.30451	15339.7625
2456.07226	15335.2625
2458.83827	15317.3625
2461.60254	15357.3625
2464.36507	15301.0625
2467.12586	15268.2625
2469.88492	15299.2625
2472.64224	15294.1625
2475.39782	15331.0625
2478.15167	15331.3625
2480.90379	15348.7625
2483.65417	15381.5625
2486.40283	15416.7625
2489.14976	15417.3625
2491.89497	15434.5625
2494.63845	15426.7625
2497.3802	15438.1625
2500.12024	15440.7625
2502.85855	15427.8625
2505.59514	15441.1625
2508.33002	15389.1625
2511.06318	15357.5625
2513.79462	15347.5625
2516.52435	15341.7625
2519.25237	15319.1625
2521.97867	15302.7625
2524.70327	15279.1625
2527.42616	15290.5625
2530.14734	15301.3625
2532.86681	15316.9625
2535.58458	15283.8625
2538.30065	15255.5625
2541.01501	15274.1625
2543.72768	15302.7625
2546.43864	15280.7625
2549.14791	15251.3625
2551.85548	15255.7625
2554.56136	15247.8625
2557.26554	15242.5625
2559.96803	15196.1625
2562.66883	15174.9625
2565.36794	15142.9625
2568.06536	15143.3625
2570.7611	15160.4625
2573.45514	15144.9625
2576.14751	15118.4625
2578.83819	15124.1625
2581.52719	15104.4625
2584.21451	15121.9625
2586.90015	15132.3625
2589.58411	15109.4625
2592.2664	15131.9625
2594.94701	15156.6625
2597.62594	15109.3625
2600.30321	15079.0625
2602.9788	15117.6625
2605.65273	15095.5625
2608.32498	15119.6625
2610.99557	15118.5625
2613.66449	15127.3625
2616.33175	15128.9625
2618.99734	15152.2625
2621.66128	15129.6625
2624.32355	15140.0625
2626.98416	15150.4625
2629.64311	15152.0625
2632.30041	15158.9625
2634.95605	15125.3625
2637.61004	15115.5625
2640.26238	15094.1625
2642.91306	15076.7625
2645.56209	15045.8625
2648.20948	15041.5625
2650.85521	15023.5625
2653.4993	15025.0625
2656.14175	15035.7625
2658.78255	15046.6625
2661.42171	15047.9625
2664.05923	15051.4625
2666.6951	15097.0625
2669.32934	15141.4625
2671.96194	15114.3625
2674.59291	15121.4625
2677.22224	15119.5625
2679.84993	15137.7625
2682.476	15105.8625
2685.10043	15120.7625
2687.72324	15090.1625
2690.34441	15048.1625
2692.96396	15067.9625
2695.58188	15068.3625
2698.19818	15046.9625
2700.81285	15039.7625
2703.4259	15048.3625
2706.03733	15061.9625
2708.64714	15007.9625
2711.25533	15049.2625
2713.86191	15053.1625
2716.46687	15072.6625
2719.07021	15052.6625
2721.67194	15124.3625
2724.27206	15073.5625
2726.87057	15097.1625
2729.46747	15112.2625
2732.06276	15150.6625
2734.65644	15127.5625
2737.24852	15128.1625
2739.83899	15126.5625
2742.42786	15168.1625
2745.01513	15126.1625
2747.60079	15119.9625
2750.18486	15107.9625
2752.76733	15089.3625
2755.3482	15077.1625
2757.92747	15052.2625
2760.50515	15061.0625
2763.08123	15049.9625
2765.65573	15060.7625
2768.22863	15036.8625
2770.79994	15039.0625
2773.36967	15054.6625
2775.9378	15069.2625
2778.50435	15067.8625
2781.06932	15062.4625
2783.6327	15064.4625
2786.1945	15076.9625
2788.75471	15067.3625
2791.31335	15021.5625
2793.87041	15024.0625
2796.42589	14998.5625
2798.97979	14969.7625
2801.53212	14946.6625
2804.08288	14968.2625
2806.63206	14905.5625
2809.17967	14890.4625
2811.72571	14885.2625
2814.27018	14843.9625
2816.81308	14814.3625
2819.35442	14805.2625
2821.89419	14763.4625
2824.43239	14797.3625
2826.96904	14741.2625
2829.50412	14741.3625
2832.03763	14740.3625
2834.56959	14741.2625
2837.1	14672.7625
2839.62884	14710.7625
2842.15613	14706.5625
2844.68186	14713.1625
2847.20604	14696.0625
2849.72867	14700.9625
2852.24974	14680.8625
2854.76927	14669.2625
2857.28724	14660.8625
2859.80367	14649.1625
2862.31855	14644.7625
2864.83189	14601.6625
2867.34368	14592.8625
2869.85393	14608.6625
2872.36264	14596.6625
2874.8698	14567.0625
2877.37543	14569.8625
2879.87952	14588.8625
2882.38207	14575.0625
2884.88308	14587.4625
2887.38256	14608.3625
2889.88051	14617.6625
2892.37692	14625.6625
2894.8718	14624.1625
2897.36515	14622.6625
2899.85698	14632.7625
2902.34727	14688.8625
2904.83604	14676.8625
2907.32328	14719.9625
2909.809	14729.0625
2912.29319	14724.6625
2914.77587	14693.4625
2917.25702	14703.6625
2919.73665	14654.3625
2922.21476	14692.9625
2924.69136	14659.8625
2927.16644	14650.2625
2929.64	14643.0625
2932.11205	14617.1625
2934.58258	14540.7625
2937.05161	14527.2625
2939.51912	14556.6625
2941.98513	14553.9625
2944.44962	14527.2625
2946.91261	14460.5625
2949.37409	14523.2625
2951.83407	14483.6625
2954.29254	14482.6625
2956.74951	14480.6625
2959.20498	14501.6625
2961.65895	14414.5625
2964.11142	14474.5625
2966.56239	14420.0625
2969.01186	14410.7625
2971.45984	14365.8625
2973.90632	14351.5625
2976.35131	14290.3625
2978.7948	14288.5625
2981.23681	14281.1625
2983.67732	14239.5625
2986.11635	14193.6625
2988.55388	14135.5625
2990.98993	14154.3625
2993.4245	14124.4625
2995.85758	14084.5625
2998.28917	14025.1625
3000.71928	14021.7625
3003.14791	13975.7625
3005.57506	13974.7625
3008.00073	13928.7625
3010.42493	13755.4625
3012.84764	13865.6625
3015.26888	13814.2625
3017.68865	13805.3625
3020.10694	13783.3625
3022.52376	13771.8625
3024.9391	13761.5625
3027.35298	13728.3625
3029.76539	13757.7625
3032.17632	13737.8625
3034.5858	13717.2625
3036.9938	13734.7625
3039.40034	13704.9625
3041.80542	13732.0625
3044.20903	13689.7625
3046.61118	13705.8625
3049.01187	13653.5625
3051.4111	13644.4625
3053.80888	13599.9625
3056.20519	13590.5625
3058.60005	13523.2625
3060.99345	13522.2625
3063.3854	13457.3625
3065.7759	13417.0625
3068.16494	13409.5625
3070.55254	13367.4625
3072.93868	13318.7625
3075.32338	13272.0625
3077.70662	13263.9625
3080.08842	13233.9625
3082.46878	13219.4625
3084.84769	13195.7625
3087.22515	13218.2625
3089.60118	13175.1625
3091.97576	13176.5625
3094.3489	13153.4625
3096.72061	13180.5625
3099.09087	13166.5625
3101.4597	13142.0625
3103.82709	13163.8625
3106.19305	13120.8625
3108.55757	13111.2625
3110.92066	13059.6625
3113.28232	13072.2625
3115.64255	13045.0625
3118.00134	12991.5625
3120.35871	12992.8625
3122.71466	12969.6625
3125.06917	12928.3625
3127.42226	12921.7625
3129.77393	12923.1625
3132.12417	12861.3625
3134.47299	12870.7625
3136.82039	12846.8625
3139.16636	12862.0625
3141.51092	12857.9625
3143.85406	12846.6625
3146.19579	12838.3625
3148.53609	12812.1625
3150.87499	12853.1625
3153.21246	12845.2625
3155.54853	12863.1625
3157.88318	12838.3625
3160.21642	12873.5625
3162.54826	12862.2625
3164.87868	12852.1625
3167.2077	12867.6625
3169.5353	12887.0625
3171.86151	12883.4625
3174.18631	12866.1625
3176.5097	12824.6625
3178.83169	12815.0625
3181.15228	12820.3625
3183.47147	12821.7625
3185.78926	12779.2625
3188.10565	12747.9625
3190.42065	12778.1625
3192.73424	12774.4625
3195.04645	12769.9625
3197.35725	12741.2625
3199.66667	12755.0625
3201.97469	12777.2625
3204.28132	12765.4625
3206.58656	12766.5625
3208.8904	12788.9625
3211.19287	12754.1625
3213.49394	12754.9625
3215.79363	12804.1625
3218.09193	12794.1625
3220.38884	12807.6625
3222.68438	12785.1625
3224.97853	12740.9625
3227.2713	12777.0625
3229.56269	12731.5625
3231.8527	12731.0625
3234.14133	12690.2625
3236.42858	12692.7625
3238.71446	12680.4625
3240.99896	12662.4625
3243.28209	12623.0625
3245.56384	12620.0625
3247.84423	12623.9625
3250.12324	12610.1625
3252.40088	12598.2625
3254.67715	12577.3625
3256.95205	12550.4625
3259.22558	12565.3625
3261.49775	12550.7625
3263.76855	12556.9625
3266.03799	12501.4625
3268.30606	12482.6625
3270.57277	12515.6625
3272.83812	12469.4625
3275.10211	12421.0625
3277.36474	12419.8625
3279.62601	12404.4625
3281.88593	12358.1625
3284.14448	12367.1625
3286.40168	12375.0625
3288.65753	12397.3625
3290.91202	12383.9625
3293.16516	12337.0625
3295.41695	12292.6625
3297.66738	12266.5625
3299.91647	12201.7625
3302.16421	12132.8625
3304.4106	12085.9625
3306.65564	11980.8625
3308.89933	11915.9625
3311.14169	11787.9625
3313.38269	11712.9625
3315.62236	11650.2625
3317.86068	11538.2625
3320.09766	11453.7625
3322.3333	11384.4625
3324.5676	11321.9625
3326.80056	11173.1625
3329.03219	11080.6625
3331.26248	4.4625
3333.49143	0.6625
3335.71905	-1.2375
