Data from AgNP_FTO_APTES_UA_10uM_CRN_0uM_R6G_10uM_NaF_0.1M_Addition_RamanShift__10__12-20-00-446.txt Node

Date: Thu Feb 10 12:20:00 GMT 2022
User: TCL
Spectrometer: QEP01345
Trigger mode: 4
Integration Time (sec): 7.000000E0
Scans to average: 10
Electric dark correction enabled: true
Nonlinearity correction enabled: false
Boxcar width: 0
XAxis mode: Raman Shifts
Number of Pixels in Spectrum: 1044
>>>>>Begin Spectral Data<<<<<
46.04893	-0.6375
50.45542	0.2625
54.85868	-1.2375
59.25871	-1.4375
63.6555	56.8625
68.04907	57.8625
72.43941	63.5625
76.82654	65.4625
81.21044	67.9625
85.59113	67.8625
89.96862	73.1625
94.34289	73.3625
98.71396	72.8625
103.08183	78.7625
107.4465	79.4625
111.80798	81.6625
116.16626	84.4625
120.52136	85.2625
124.87327	91.9625
129.222	93.3625
133.56755	102.6625
137.90993	110.3625
142.24913	115.6625
146.58517	133.8625
150.91804	163.1625
155.24774	191.7625
159.57429	238.7625
163.89768	304.6625
168.21792	404.7625
172.53501	556.4625
176.84895	780.4625
181.15975	1094.0625
185.46741	1533.2625
189.77193	2130.1625
194.07331	2853.1625
198.37157	3690.7625
202.6667	4585.5625
206.9587	5452.9625
211.24758	6309.1625
215.53334	7187.8625
219.81599	8121.6625
224.09553	9128.6625
228.37195	10270.0625
232.64527	11489.8625
236.91549	12810.4625
241.18261	14085.9625
245.44663	15267.9625
249.70755	16374.0625
253.96539	17232.4625
258.22014	18003.6625
262.4718	18608.2625
266.72039	18995.3625
270.96589	19154.7625
275.20832	19107.7625
279.44768	18882.8625
283.68397	18543.8625
287.91719	18299.0625
292.14735	18153.0625
296.37445	18101.1625
300.59849	18149.7625
304.81948	18249.9625
309.03742	18376.2625
313.25231	18276.2625
317.46415	18029.3625
321.67296	17569.9625
325.87872	17149.1625
330.08145	16945.6625
334.28114	16914.0625
338.47781	17007.6625
342.67145	17215.0625
346.86207	17532.6625
351.04966	17951.0625
355.23424	18364.1625
359.4158	18710.2625
363.59435	18984.0625
367.76989	19130.5625
371.94243	19145.0625
376.11196	19112.8625
380.27849	19096.8625
384.44203	19100.0625
388.60257	19191.1625
392.76012	19376.4625
396.91468	19636.5625
401.06626	19971.1625
405.21485	20186.2625
409.36047	20048.5625
413.50311	19649.2625
417.64277	19314.0625
421.77947	19332.1625
425.9132	19433.7625
430.04396	19550.9625
434.17176	19569.4625
438.2966	19626.5625
442.41849	19792.5625
446.53742	20117.6625
450.6534	20490.5625
454.76644	20697.5625
458.87653	20761.1625
462.98368	20648.4625
467.08789	20528.5625
471.18916	20275.2625
475.2875	20018.6625
479.38291	19812.9625
483.4754	19707.1625
487.56496	19618.6625
491.6516	19457.7625
495.73531	19381.5625
499.81612	19246.5625
503.89401	19335.6625
507.96899	19468.4625
512.04106	19532.6625
516.11023	19550.3625
520.1765	19420.6625
524.23987	19294.8625
528.30034	19110.0625
532.35792	18958.9625
536.41261	18746.8625
540.46441	18539.3625
544.51333	18457.1625
548.55936	18588.8625
552.60252	18953.9625
556.64279	19317.7625
560.6802	19572.3625
564.71473	19678.2625
568.7464	20030.3625
572.7752	20505.6625
576.80114	21065.6625
580.82422	21649.7625
584.84444	22375.7625
588.86181	23367.3625
592.87633	24355.4625
596.888	24481.5625
600.89682	23493.8625
604.9028	23116.4625
608.90594	24782.1625
612.90624	27153.0625
616.90371	25827.6625
620.89834	21536.3625
624.89015	19458.6625
628.87913	19206.3625
632.86528	19403.9625
636.84862	19521.5625
640.82913	19174.9625
644.80683	18618.8625
648.78172	18273.4625
652.75379	18193.3625
656.72306	18457.6625
660.68952	18822.3625
664.65319	18748.4625
668.61405	18350.7625
672.57211	18225.4625
676.52738	18223.3625
680.47986	18177.7625
684.42955	18059.1625
688.37646	17966.0625
692.32058	18045.8625
696.26192	18223.1625
700.20048	18424.3625
704.13626	18628.7625
708.06928	18701.5625
711.99952	18650.7625
715.927	18601.2625
719.85171	18563.3625
723.77365	18433.5625
727.69284	18205.1625
731.60928	17962.9625
735.52295	17852.8625
739.43388	17873.0625
743.34206	17925.5625
747.24749	18023.3625
751.15017	18194.6625
755.05012	18494.0625
758.94733	18968.7625
762.8418	19983.5625
766.73354	21541.7625
770.62254	23031.0625
774.50882	23404.3625
778.39237	22460.6625
782.27321	21026.0625
786.15132	19747.9625
790.02671	18799.1625
793.89938	18315.1625
797.76935	18053.0625
801.6366	17941.1625
805.50115	17873.9625
809.36299	17776.0625
813.22213	17670.6625
817.07857	17549.5625
820.93231	17492.7625
824.78336	17441.2625
828.63172	17442.7625
832.47738	17371.0625
836.32036	17316.7625
840.16066	17307.5625
843.99827	17301.3625
847.8332	17311.8625
851.66546	17345.3625
855.49504	17378.4625
859.32195	17392.1625
863.1462	17369.4625
866.96777	17310.1625
870.78668	17326.6625
874.60293	17339.7625
878.41652	17347.8625
882.22745	17422.3625
886.03573	17499.4625
889.84136	17538.0625
893.64433	17549.8625
897.44466	17576.8625
901.24235	17638.8625
905.0374	17592.3625
908.8298	17529.3625
912.61957	17543.7625
916.40671	17595.7625
920.19121	17794.4625
923.97308	18009.0625
927.75233	18123.7625
931.52895	18048.0625
935.30295	17737.7625
939.07433	17319.9625
942.84309	16988.6625
946.60924	16842.7625
950.37278	16790.4625
954.13371	16718.0625
957.89203	16706.8625
961.64774	16651.8625
965.40086	16663.9625
969.15137	16571.9625
972.89929	16522.7625
976.64461	16425.5625
980.38733	16385.7625
984.12747	16386.7625
987.86502	16416.7625
991.59999	16501.9625
995.33237	16608.6625
999.06217	16797.3625
1002.78939	17080.3625
1006.51404	17459.6625
1010.23611	17852.7625
1013.95561	18049.7625
1017.67255	18121.7625
1021.38692	17953.9625
1025.09872	17653.4625
1028.80796	17352.2625
1032.51465	17207.0625
1036.21877	17175.5625
1039.92035	17219.3625
1043.61937	17289.8625
1047.31584	17366.3625
1051.00976	17422.2625
1054.70114	17512.7625
1058.38998	17572.0625
1062.07627	17667.2625
1065.76003	17831.5625
1069.44126	18097.0625
1073.11995	18425.6625
1076.79611	18834.6625
1080.46974	19039.0625
1084.14085	19186.9625
1087.80943	19462.5625
1091.47549	19631.5625
1095.13903	19608.9625
1098.80005	19333.9625
1102.45857	18879.1625
1106.11456	18462.8625
1109.76805	18233.4625
1113.41903	18169.8625
1117.06751	18241.2625
1120.71348	18452.4625
1124.35696	18737.6625
1127.99793	19060.5625
1131.63641	19244.7625
1135.2724	19099.4625
1138.90589	18921.0625
1142.5369	18847.1625
1146.16542	18842.8625
1149.79145	18887.0625
1153.415	18965.4625
1157.03607	19140.0625
1160.65467	19580.9625
1164.27079	20387.7625
1167.88443	21375.0625
1171.49561	22616.8625
1175.10432	24172.1625
1178.71056	26187.8625
1182.31434	28019.2625
1185.91565	29044.2625
1189.51451	29144.8625
1193.11091	28499.6625
1196.70485	27315.3625
1200.29634	25965.1625
1203.88538	24762.7625
1207.47197	24029.1625
1211.05612	23539.6625
1214.63782	23040.2625
1218.21708	22455.5625
1221.79391	21933.6625
1225.36829	21617.4625
1228.94024	21469.0625
1232.50976	21379.6625
1236.07685	21265.1625
1239.6415	21066.5625
1243.20374	21002.5625
1246.76355	21010.1625
1250.32093	21153.0625
1253.8759	21525.1625
1257.42845	22105.9625
1260.97859	22879.2625
1264.52631	23670.7625
1268.07163	24424.3625
1271.61453	25157.9625
1275.15503	25747.1625
1278.69312	26354.3625
1282.22882	27027.6625
1285.76211	27850.1625
1289.29301	28706.0625
1292.82151	29734.9625
1296.34761	30870.7625
1299.87133	32342.3625
1303.39266	33943.4625
1306.9116	35640.8625
1310.42815	37101.6625
1313.94233	37924.1625
1317.45412	37632.6625
1320.96354	36749.8625
1324.47058	36008.9625
1327.97525	35523.7625
1331.47754	35186.8625
1334.97747	34798.8625
1338.47502	34551.6625
1341.97022	34491.3625
1345.46305	34609.7625
1348.95352	34938.5625
1352.44163	35300.7625
1355.92738	35924.3625
1359.41078	37251.4625
1362.89183	38710.9625
1366.37053	38353.2625
1369.84688	35444.2625
1373.32088	31456.6625
1376.79254	28437.6625
1380.26186	27105.3625
1383.72883	26539.5625
1387.19347	26038.6625
1390.65578	25560.0625
1394.11575	25303.0625
1397.57339	25475.2625
1401.0287	25719.2625
1404.48168	25881.6625
1407.93234	25773.2625
1411.38068	25279.6625
1414.82669	24637.8625
1418.27039	23935.0625
1421.71177	23335.9625
1425.15083	22797.9625
1428.58758	22517.8625
1432.02203	22767.6625
1435.45416	23209.7625
1438.88399	23639.1625
1442.31151	23923.8625
1445.73673	24110.4625
1449.15965	24299.3625
1452.58027	24424.7625
1455.9986	24534.4625
1459.41463	24730.9625
1462.82837	25166.3625
1466.23982	25665.9625
1469.64898	26018.4625
1473.05586	26188.7625
1476.46045	26239.0625
1479.86276	26185.9625
1483.26279	26269.7625
1486.66054	26431.5625
1490.05602	26900.0625
1493.44922	27675.3625
1496.84016	28711.0625
1500.22882	30001.5625
1503.61521	31459.9625
1506.99934	32966.2625
1510.38121	34102.2625
1513.76081	34193.1625
1517.13816	33105.6625
1520.51324	31361.1625
1523.88607	29847.1625
1527.25665	28853.0625
1530.62498	28209.7625
1533.99105	27648.8625
1537.35488	27005.0625
1540.71647	26291.0625
1544.07581	25522.5625
1547.4329	24901.4625
1550.78776	24398.7625
1554.14038	24080.1625
1557.49077	24040.5625
1560.83892	24125.5625
1564.18484	24361.4625
1567.52853	24591.3625
1570.86999	24921.5625
1574.20922	25247.9625
1577.54624	25474.7625
1580.88103	25242.8625
1584.2136	24977.7625
1587.54395	25209.0625
1590.87208	25995.5625
1594.19801	27258.1625
1597.52172	28482.2625
1600.84321	28719.0625
1604.16251	27512.9625
1607.47959	25769.7625
1610.79447	23981.9625
1614.10715	22140.8625
1617.41763	20626.5625
1620.7259	19543.2625
1624.03199	19007.0625
1627.33587	19003.9625
1630.63757	19510.4625
1633.93707	20770.4625
1637.23439	22889.2625
1640.52951	26001.2625
1643.82246	29771.5625
1647.11321	32913.6625
1650.40179	33836.6625
1653.68819	31559.9625
1656.97241	27350.2625
1660.25446	23103.3625
1663.53433	20077.5625
1666.81203	18138.5625
1670.08756	17017.6625
1673.36092	16311.2625
1676.63211	15865.1625
1679.90115	15566.8625
1683.16801	15336.7625
1686.43272	15163.1625
1689.69527	15020.9625
1692.95567	14900.8625
1696.2139	14831.2625
1699.46999	14780.8625
1702.72392	14728.6625
1705.97571	14688.6625
1709.22535	14663.0625
1712.47284	14643.1625
1715.71819	14631.2625
1718.96139	14561.0625
1722.20246	14507.6625
1725.44139	14424.8625
1728.67818	14318.4625
1731.91284	14253.0625
1735.14537	14145.7625
1738.37576	14098.1625
1741.60403	14064.8625
1744.83017	14008.5625
1748.05418	13952.5625
1751.27607	13947.8625
1754.49584	13878.1625
1757.71349	13849.4625
1760.92903	13827.9625
1764.14244	13840.8625
1767.35375	13842.9625
1770.56294	13803.2625
1773.77002	13770.5625
1776.97499	13719.6625
1780.17785	13685.7625
1783.37861	13681.9625
1786.57727	13628.7625
1789.77382	13577.4625
1792.96828	13604.4625
1796.16064	13549.7625
1799.3509	13503.0625
1802.53907	13513.8625
1805.72514	13450.7625
1808.90913	13393.0625
1812.09102	13393.0625
1815.27083	13386.2625
1818.44856	13351.6625
1821.6242	13329.2625
1824.79776	13319.7625
1827.96924	13320.7625
1831.13864	13342.1625
1834.30597	13352.1625
1837.47122	13335.0625
1840.6344	13380.9625
1843.7955	13381.4625
1846.95454	13355.2625
1850.11151	13349.6625
1853.26642	13352.3625
1856.41926	13343.2625
1859.57004	13355.4625
1862.71876	13321.9625
1865.86542	13284.0625
1869.01003	13250.7625
1872.15258	13216.7625
1875.29308	13188.7625
1878.43152	13161.4625
1881.56792	13158.5625
1884.70227	13107.8625
1887.83457	13067.1625
1890.96482	13034.3625
1894.09304	12995.0625
1897.21921	12967.1625
1900.34335	12942.3625
1903.46544	12906.1625
1906.58551	12876.2625
1909.70353	12890.1625
1912.81953	12854.1625
1915.93349	12831.2625
1919.04543	12775.3625
1922.15534	12731.8625
1925.26322	12706.0625
1928.36908	12666.0625
1931.47292	12613.3625
1934.57473	12581.4625
1937.67453	12524.4625
1940.77232	12503.4625
1943.86808	12458.2625
1946.96184	12405.1625
1950.05358	12377.3625
1953.14331	12333.4625
1956.23103	12291.8625
1959.31675	12253.9625
1962.40046	12216.9625
1965.48217	12168.2625
1968.56188	12144.1625
1971.63959	12070.1625
1974.7153	12048.1625
1977.78901	12002.0625
1980.86073	11953.6625
1983.93046	11910.5625
1986.99819	11846.7625
1990.06394	11862.9625
1993.1277	11826.7625
1996.18947	11777.0625
1999.24925	11737.7625
2002.30706	11695.6625
2005.36288	11634.4625
2008.41672	11620.7625
2011.46859	11558.0625
2014.51848	11572.1625
2017.56639	11533.1625
2020.61233	11481.5625
2023.6563	11434.3625
2026.6983	11403.4625
2029.73833	11360.7625
2032.7764	11329.8625
2035.8125	11317.3625
2038.84664	11301.0625
2041.87881	11267.9625
2044.90903	11234.2625
2047.93729	11230.4625
2050.96359	11193.1625
2053.98794	11181.3625
2057.01034	11177.3625
2060.03078	11158.3625
2063.04927	11168.4625
2066.06582	11170.8625
2069.08042	11143.4625
2072.09307	11128.0625
2075.10378	11152.6625
2078.11255	11140.5625
2081.11938	11123.3625
2084.12426	11116.8625
2087.12722	11108.5625
2090.12824	11092.0625
2093.12732	11096.9625
2096.12447	11119.0625
2099.11969	11109.4625
2102.11299	11119.1625
2105.10435	11096.7625
2108.09379	11092.5625
2111.08131	11113.0625
2114.0669	11100.2625
2117.05057	11068.1625
2120.03233	11111.5625
2123.01216	11095.4625
2125.99008	11119.9625
2128.96609	11119.0625
2131.94018	11117.2625
2134.91236	11121.0625
2137.88263	11105.4625
2140.851	11079.3625
2143.81746	11095.7625
2146.78201	11047.0625
2149.74466	11070.1625
2152.7054	11058.6625
2155.66425	11032.1625
2158.6212	11044.4625
2161.57625	11036.6625
2164.52941	11029.4625
2167.48067	10998.7625
2170.43004	11024.5625
2173.37752	11005.9625
2176.32311	10998.9625
2179.26681	11002.6625
2182.20863	10988.4625
2185.14856	10982.0625
2188.08661	10956.5625
2191.02278	10974.0625
2193.95707	10954.5625
2196.88948	10961.9625
2199.82001	10912.9625
2202.74867	10904.4625
2205.67545	10874.1625
2208.60037	10873.0625
2211.52341	10853.8625
2214.44458	10843.4625
2217.36388	10838.3625
2220.28132	10785.0625
2223.1969	10747.3625
2226.11061	10721.7625
2229.02246	10722.7625
2231.93245	10714.4625
2234.84058	10684.7625
2237.74686	10680.8625
2240.65128	10676.7625
2243.55385	10625.3625
2246.45456	10627.0625
2249.35343	10615.8625
2252.25044	10582.1625
2255.14561	10562.9625
2258.03893	10558.4625
2260.93041	10521.8625
2263.82004	10484.9625
2266.70783	10465.4625
2269.59378	10441.5625
2272.4779	10418.3625
2275.36017	10368.5625
2278.24061	10366.1625
2281.11922	10349.8625
2283.996	10326.4625
2286.87094	10303.2625
2289.74405	10290.9625
2292.61534	10273.7625
2295.4848	10264.8625
2298.35243	10243.8625
2301.21824	10229.8625
2304.08223	10239.9625
2306.94439	10198.3625
2309.80474	10207.6625
2312.66327	10197.9625
2315.51999	10171.7625
2318.37489	10152.3625
2321.22797	10115.6625
2324.07925	10130.7625
2326.92871	10102.0625
2329.77637	10103.3625
2332.62222	10087.2625
2335.46626	10043.0625
2338.3085	10060.5625
2341.14893	10033.1625
2343.98756	10045.7625
2346.8244	10052.7625
2349.65943	10046.5625
2352.49267	10026.6625
2355.32411	10022.7625
2358.15376	10033.2625
2360.98161	10055.0625
2363.80768	10036.8625
2366.63195	10042.1625
2369.45444	10006.8625
2372.27514	9986.9625
2375.09405	9954.6625
2377.91118	9958.4625
2380.72652	9942.9625
2383.54009	9912.2625
2386.35187	9901.2625
2389.16188	9848.4625
2391.97011	9819.0625
2394.77657	9773.1625
2397.58125	9767.1625
2400.38416	9747.8625
2403.18529	9746.1625
2405.98466	9741.7625
2408.78226	9722.9625
2411.57809	9686.5625
2414.37216	9682.1625
2417.16446	9651.5625
2419.955	9640.5625
2422.74378	9671.3625
2425.5308	9658.8625
2428.31606	9645.2625
2431.09956	9651.3625
2433.88131	9659.9625
2436.6613	9630.4625
2439.43954	9635.6625
2442.21603	9597.4625
2444.99077	9602.8625
2447.76377	9608.9625
2450.53501	9608.6625
2453.30451	9595.7625
2456.07226	9569.9625
2458.83827	9576.1625
2461.60254	9561.7625
2464.36507	9554.4625
2467.12586	9544.2625
2469.88492	9535.9625
2472.64224	9562.0625
2475.39782	9535.7625
2478.15167	9538.4625
2480.90379	9539.6625
2483.65417	9546.2625
2486.40283	9548.5625
2489.14976	9531.5625
2491.89497	9510.3625
2494.63845	9494.2625
2497.3802	9486.3625
2500.12024	9484.7625
2502.85855	9497.3625
2505.59514	9491.6625
2508.33002	9470.8625
2511.06318	9458.0625
2513.79462	9419.2625
2516.52435	9409.0625
2519.25237	9413.4625
2521.97867	9392.2625
2524.70327	9406.7625
2527.42616	9358.9625
2530.14734	9360.9625
2532.86681	9345.0625
2535.58458	9355.6625
2538.30065	9330.6625
2541.01501	9345.9625
2543.72768	9322.1625
2546.43864	9312.8625
2549.14791	9310.9625
2551.85548	9266.1625
2554.56136	9271.7625
2557.26554	9247.2625
2559.96803	9213.8625
2562.66883	9234.1625
2565.36794	9209.4625
2568.06536	9178.3625
2570.7611	9184.6625
2573.45514	9154.3625
2576.14751	9107.6625
2578.83819	9094.8625
2581.52719	9100.6625
2584.21451	9073.8625
2586.90015	9090.2625
2589.58411	9072.4625
2592.2664	9062.3625
2594.94701	9022.0625
2597.62594	9028.4625
2600.30321	9018.8625
2602.9788	9005.8625
2605.65273	8996.1625
2608.32498	8984.5625
2610.99557	8981.9625
2613.66449	8984.2625
2616.33175	8963.2625
2618.99734	8943.8625
2621.66128	8937.7625
2624.32355	8944.1625
2626.98416	8913.5625
2629.64311	8900.2625
2632.30041	8886.3625
2634.95605	8870.2625
2637.61004	8860.3625
2640.26238	8858.5625
2642.91306	8875.0625
2645.56209	8858.5625
2648.20948	8848.9625
2650.85521	8846.4625
2653.4993	8832.0625
2656.14175	8852.9625
2658.78255	8873.9625
2661.42171	8865.9625
2664.05923	8842.8625
2666.6951	8882.4625
2669.32934	8882.8625
2671.96194	8848.4625
2674.59291	8875.5625
2677.22224	8870.9625
2679.84993	8858.6625
2682.476	8840.0625
2685.10043	8856.1625
2687.72324	8839.7625
2690.34441	8840.8625
2692.96396	8831.6625
2695.58188	8830.5625
2698.19818	8805.1625
2700.81285	8809.6625
2703.4259	8800.8625
2706.03733	8787.7625
2708.64714	8793.3625
2711.25533	8799.4625
2713.86191	8801.4625
2716.46687	8841.6625
2719.07021	8826.8625
2721.67194	8838.1625
2724.27206	8825.6625
2726.87057	8836.1625
2729.46747	8832.1625
2732.06276	8850.8625
2734.65644	8835.8625
2737.24852	8839.2625
2739.83899	8808.1625
2742.42786	8830.0625
2745.01513	8786.7625
2747.60079	8799.2625
2750.18486	8787.9625
2752.76733	8771.9625
2755.3482	8745.6625
2757.92747	8739.6625
2760.50515	8716.5625
2763.08123	8728.0625
2765.65573	8705.6625
2768.22863	8712.3625
2770.79994	8679.9625
2773.36967	8667.3625
2775.9378	8667.3625
2778.50435	8647.1625
2781.06932	8662.5625
2783.6327	8639.7625
2786.1945	8650.0625
2788.75471	8638.3625
2791.31335	8612.6625
2793.87041	8614.5625
2796.42589	8601.6625
2798.97979	8573.3625
2801.53212	8555.6625
2804.08288	8577.7625
2806.63206	8540.7625
2809.17967	8528.9625
2811.72571	8503.1625
2814.27018	8498.8625
2816.81308	8461.3625
2819.35442	8458.9625
2821.89419	8431.7625
2824.43239	8420.8625
2826.96904	8423.2625
2829.50412	8427.7625
2832.03763	8401.6625
2834.56959	8401.5625
2837.1	8378.9625
2839.62884	8391.7625
2842.15613	8412.1625
2844.68186	8415.2625
2847.20604	8436.5625
2849.72867	8434.8625
2852.24974	8407.4625
2854.76927	8377.8625
2857.28724	8380.5625
2859.80367	8360.7625
2862.31855	8356.6625
2864.83189	8352.2625
2867.34368	8344.6625
2869.85393	8340.5625
2872.36264	8339.1625
2874.8698	8318.3625
2877.37543	8318.4625
2879.87952	8341.0625
2882.38207	8312.8625
2884.88308	8326.8625
2887.38256	8317.8625
2889.88051	8300.6625
2892.37692	8307.8625
2894.8718	8309.9625
2897.36515	8335.9625
2899.85698	8307.6625
2902.34727	8331.0625
2904.83604	8316.6625
2907.32328	8348.5625
2909.809	8338.9625
2912.29319	8314.9625
2914.77587	8321.2625
2917.25702	8297.8625
2919.73665	8283.6625
2922.21476	8324.9625
2924.69136	8327.6625
2927.16644	8316.7625
2929.64	8284.5625
2932.11205	8261.9625
2934.58258	8219.6625
2937.05161	8226.5625
2939.51912	8236.3625
2941.98513	8240.8625
2944.44962	8189.2625
2946.91261	8183.8625
2949.37409	8165.1625
2951.83407	8165.4625
2954.29254	8177.1625
2956.74951	8149.4625
2959.20498	8135.2625
2961.65895	8142.4625
2964.11142	8133.9625
2966.56239	8127.4625
2969.01186	8102.6625
2971.45984	8075.4625
2973.90632	8081.1625
2976.35131	8050.8625
2978.7948	8049.7625
2981.23681	8001.3625
2983.67732	7991.9625
2986.11635	7971.4625
2988.55388	7944.0625
2990.98993	7920.9625
2993.4245	7916.1625
2995.85758	7899.3625
2998.28917	7887.9625
3000.71928	7877.3625
3003.14791	7844.3625
3005.57506	7850.0625
3008.00073	7829.4625
3010.42493	7808.4625
3012.84764	7786.1625
3015.26888	7761.5625
3017.68865	7738.3625
3020.10694	7745.8625
3022.52376	7730.7625
3024.9391	7717.4625
3027.35298	7695.9625
3029.76539	7669.0625
3032.17632	7680.7625
3034.5858	7674.6625
3036.9938	7655.4625
3039.40034	7671.1625
3041.80542	7658.2625
3044.20903	7636.0625
3046.61118	7635.5625
3049.01187	7612.0625
3051.4111	7596.1625
3053.80888	7593.5625
3056.20519	7559.3625
3058.60005	7559.0625
3060.99345	7538.5625
3063.3854	7534.1625
3065.7759	7506.0625
3068.16494	7465.3625
3070.55254	7456.5625
3072.93868	7443.6625
3075.32338	7434.9625
3077.70662	7426.0625
3080.08842	7390.0625
3082.46878	7401.6625
3084.84769	7357.5625
3087.22515	7360.1625
3089.60118	7376.3625
3091.97576	7364.0625
3094.3489	7346.6625
3096.72061	7361.9625
3099.09087	7361.2625
3101.4597	7354.6625
3103.82709	7343.2625
3106.19305	7341.2625
3108.55757	7323.2625
3110.92066	7318.8625
3113.28232	7316.7625
3115.64255	7267.0625
3118.00134	7265.3625
3120.35871	7249.1625
3122.71466	7235.5625
3125.06917	7222.9625
3127.42226	7219.9625
3129.77393	7222.9625
3132.12417	7198.2625
3134.47299	7207.0625
3136.82039	7210.2625
3139.16636	7212.6625
3141.51092	7202.9625
3143.85406	7200.7625
3146.19579	7179.1625
3148.53609	7185.8625
3150.87499	7184.4625
3153.21246	7201.8625
3155.54853	7217.2625
3157.88318	7200.7625
3160.21642	7218.7625
3162.54826	7192.3625
3164.87868	7199.2625
3167.2077	7210.9625
3169.5353	7219.1625
3171.86151	7206.9625
3174.18631	7176.6625
3176.5097	7197.2625
3178.83169	7176.0625
3181.15228	7180.4625
3183.47147	7165.1625
3185.78926	7175.6625
3188.10565	7138.0625
3190.42065	7163.7625
3192.73424	7146.3625
3195.04645	7134.0625
3197.35725	7128.1625
3199.66667	7112.3625
3201.97469	7129.9625
3204.28132	7099.0625
3206.58656	7118.2625
3208.8904	7129.4625
3211.19287	7122.9625
3213.49394	7139.5625
3215.79363	7118.9625
3218.09193	7133.5625
3220.38884	7124.3625
3222.68438	7110.4625
3224.97853	7122.2625
3227.2713	7127.4625
3229.56269	7127.0625
3231.8527	7099.5625
3234.14133	7072.9625
3236.42858	7058.4625
3238.71446	7071.1625
3240.99896	7053.0625
3243.28209	7034.2625
3245.56384	7029.8625
3247.84423	7032.6625
3250.12324	7026.1625
3252.40088	7020.7625
3254.67715	6994.2625
3256.95205	6986.9625
3259.22558	6971.8625
3261.49775	6962.8625
3263.76855	6980.2625
3266.03799	6939.7625
3268.30606	6919.8625
3270.57277	6913.2625
3272.83812	6917.9625
3275.10211	6871.3625
3277.36474	6875.5625
3279.62601	6885.8625
3281.88593	6860.3625
3284.14448	6862.5625
3286.40168	6863.8625
3288.65753	6860.1625
3290.91202	6857.7625
3293.16516	6861.2625
3295.41695	6835.0625
3297.66738	6784.5625
3299.91647	6774.5625
3302.16421	6693.5625
3304.4106	6671.5625
3306.65564	6616.3625
3308.89933	6594.2625
3311.14169	6523.6625
3313.38269	6460.9625
3315.62236	6419.1625
3317.86068	6355.9625
3320.09766	6315.2625
3322.3333	6285.5625
3324.5676	6247.6625
3326.80056	6124.3625
3329.03219	6095.0625
3331.26248	3.7625
3333.49143	-0.3375
3335.71905	-0.5375
