Data from AgNP_FTO_APTES_UA_10uM_CRN_100uM_R6G_10uM_NaF_0.1M_Addition_RamanShift__7__17-32-40-840.txt Node

Date: Thu Feb 10 17:32:40 GMT 2022
User: TCL
Spectrometer: QEP01345
Trigger mode: 4
Integration Time (sec): 7.000000E0
Scans to average: 10
Electric dark correction enabled: true
Nonlinearity correction enabled: false
Boxcar width: 0
XAxis mode: Raman Shifts
Number of Pixels in Spectrum: 1044
>>>>>Begin Spectral Data<<<<<
46.04893	1.1625
50.45542	-1.5375
54.85868	-0.4375
59.25871	-2.8375
63.6555	57.2625
68.04907	58.4625
72.43941	63.6625
76.82654	62.2625
81.21044	70.2625
85.59113	66.8625
89.96862	73.2625
94.34289	75.2625
98.71396	79.0625
103.08183	79.2625
107.4465	82.6625
111.80798	81.7625
116.16626	86.0625
120.52136	91.0625
124.87327	98.0625
129.222	95.4625
133.56755	107.1625
137.90993	108.7625
142.24913	115.1625
146.58517	127.0625
150.91804	146.6625
155.24774	174.5625
159.57429	216.5625
163.89768	268.0625
168.21792	359.1625
172.53501	487.5625
176.84895	675.9625
181.15975	949.3625
185.46741	1334.4625
189.77193	1847.6625
194.07331	2460.7625
198.37157	3187.0625
202.6667	3929.6625
206.9587	4682.7625
211.24758	5393.3625
215.53334	6114.2625
219.81599	6876.0625
224.09553	7706.3625
228.37195	8581.6625
232.64527	9603.4625
236.91549	10651.2625
241.18261	11748.4625
245.44663	12820.2625
249.70755	13772.4625
253.96539	14633.4625
258.22014	15397.5625
262.4718	15993.5625
266.72039	16422.5625
270.96589	16639.4625
275.20832	16679.5625
279.44768	16663.4625
283.68397	16527.3625
287.91719	16381.4625
292.14735	16287.2625
296.37445	16288.7625
300.59849	16303.3625
304.81948	16321.5625
309.03742	16239.4625
313.25231	16123.1625
317.46415	15865.7625
321.67296	15541.9625
325.87872	15304.1625
330.08145	15162.0625
334.28114	15180.5625
338.47781	15337.4625
342.67145	15478.8625
346.86207	15669.9625
351.04966	15846.4625
355.23424	16083.3625
359.4158	16267.1625
363.59435	16404.9625
367.76989	16540.5625
371.94243	16635.0625
376.11196	16727.5625
380.27849	16804.8625
384.44203	16923.2625
388.60257	17039.8625
392.76012	17208.4625
396.91468	17407.7625
401.06626	17656.7625
405.21485	17771.2625
409.36047	17786.6625
413.50311	17644.2625
417.64277	17563.8625
421.77947	17596.1625
425.9132	17657.1625
430.04396	17774.1625
434.17176	17828.2625
438.2966	17924.7625
442.41849	18085.9625
446.53742	18396.3625
450.6534	18724.2625
454.76644	18993.7625
458.87653	19120.9625
462.98368	19127.5625
467.08789	19062.3625
471.18916	18980.0625
475.2875	18895.6625
479.38291	18887.1625
483.4754	18756.5625
487.56496	18607.3625
491.6516	18348.1625
495.73531	18123.6625
499.81612	18021.8625
503.89401	18066.8625
507.96899	18141.3625
512.04106	18162.7625
516.11023	18133.4625
520.1765	18030.1625
524.23987	17867.2625
528.30034	17734.2625
532.35792	17607.9625
536.41261	17510.9625
540.46441	17454.1625
544.51333	17523.2625
548.55936	17675.3625
552.60252	17958.9625
556.64279	18233.4625
560.6802	18398.1625
564.71473	18558.1625
568.7464	18763.9625
572.7752	19187.6625
576.80114	19653.5625
580.82422	20025.2625
584.84444	20417.9625
588.86181	20794.0625
592.87633	21055.5625
596.888	20867.8625
600.89682	20415.6625
604.9028	20361.7625
608.90594	21099.5625
612.90624	21926.0625
616.90371	20925.5625
620.89834	18827.2625
624.89015	17890.4625
628.87913	17859.1625
632.86528	17997.3625
636.84862	18066.6625
640.82913	17875.2625
644.80683	17635.1625
648.78172	17465.5625
652.75379	17443.7625
656.72306	17528.5625
660.68952	17685.0625
664.65319	17659.5625
668.61405	17472.6625
672.57211	17471.6625
676.52738	17509.9625
680.47986	17532.1625
684.42955	17502.7625
688.37646	17447.5625
692.32058	17507.4625
696.26192	17651.9625
700.20048	17811.7625
704.13626	17941.4625
708.06928	17973.1625
711.99952	17915.8625
715.927	17916.2625
719.85171	17876.7625
723.77365	17797.7625
727.69284	17671.0625
731.60928	17518.5625
735.52295	17395.0625
739.43388	17401.5625
743.34206	17436.0625
747.24749	17525.7625
751.15017	17664.3625
755.05012	17829.7625
758.94733	18210.0625
762.8418	18793.2625
766.73354	19617.1625
770.62254	20346.7625
774.50882	20477.8625
778.39237	19855.5625
782.27321	18945.2625
786.15132	18196.2625
790.02671	17730.9625
793.89938	17495.9625
797.76935	17377.7625
801.6366	17323.7625
805.50115	17302.8625
809.36299	17223.2625
813.22213	17182.6625
817.07857	17175.3625
820.93231	17130.3625
824.78336	17099.6625
828.63172	17061.5625
832.47738	17015.4625
836.32036	17011.0625
840.16066	16972.2625
843.99827	16968.5625
847.8332	16971.7625
851.66546	16995.0625
855.49504	17017.4625
859.32195	17031.0625
863.1462	16987.2625
866.96777	16957.7625
870.78668	16989.2625
874.60293	16983.2625
878.41652	16971.5625
882.22745	17039.2625
886.03573	17019.6625
889.84136	17018.6625
893.64433	16995.4625
897.44466	16987.6625
901.24235	16938.7625
905.0374	16930.4625
908.8298	16931.8625
912.61957	16944.0625
916.40671	17085.8625
920.19121	17203.9625
923.97308	17308.6625
927.75233	17212.4625
931.52895	17096.9625
935.30295	16881.6625
939.07433	16720.6625
942.84309	16567.5625
946.60924	16507.8625
950.37278	16430.2625
954.13371	16419.4625
957.89203	16409.8625
961.64774	16411.3625
965.40086	16396.8625
969.15137	16361.7625
972.89929	16298.6625
976.64461	16235.4625
980.38733	16207.1625
984.12747	16219.9625
987.86502	16263.7625
991.59999	16288.7625
995.33237	16362.5625
999.06217	16507.6625
1002.78939	16638.1625
1006.51404	16828.9625
1010.23611	16980.6625
1013.95561	17131.8625
1017.67255	17181.3625
1021.38692	17103.4625
1025.09872	16976.8625
1028.80796	16809.1625
1032.51465	16815.9625
1036.21877	16800.3625
1039.92035	16901.3625
1043.61937	16903.9625
1047.31584	16965.9625
1051.00976	17012.2625
1054.70114	17079.8625
1058.38998	17164.2625
1062.07627	17318.8625
1065.76003	17474.9625
1069.44126	17599.8625
1073.11995	17748.9625
1076.79611	17924.5625
1080.46974	18004.2625
1084.14085	18007.8625
1087.80943	18096.4625
1091.47549	18194.6625
1095.13903	18227.5625
1098.80005	18123.0625
1102.45857	17861.9625
1106.11456	17618.9625
1109.76805	17478.7625
1113.41903	17443.0625
1117.06751	17466.0625
1120.71348	17596.1625
1124.35696	17720.3625
1127.99793	17866.4625
1131.63641	17957.3625
1135.2724	17923.3625
1138.90589	17886.4625
1142.5369	17908.3625
1146.16542	17973.4625
1149.79145	18081.5625
1153.415	18199.6625
1157.03607	18376.5625
1160.65467	18749.4625
1164.27079	19352.8625
1167.88443	20031.0625
1171.49561	20725.4625
1175.10432	21571.7625
1178.71056	22558.2625
1182.31434	23546.3625
1185.91565	24101.7625
1189.51451	24218.8625
1193.11091	23946.7625
1196.70485	23446.5625
1200.29634	22831.8625
1203.88538	22415.7625
1207.47197	22194.3625
1211.05612	21952.1625
1214.63782	21644.6625
1218.21708	21109.0625
1221.79391	20532.4625
1225.36829	20111.5625
1228.94024	19854.6625
1232.50976	19742.8625
1236.07685	19651.7625
1239.6415	19619.1625
1243.20374	19692.0625
1246.76355	19795.7625
1250.32093	20005.4625
1253.8759	20247.1625
1257.42845	20627.2625
1260.97859	21003.0625
1264.52631	21370.7625
1268.07163	21779.0625
1271.61453	22210.8625
1275.15503	22524.5625
1278.69312	22945.6625
1282.22882	23423.3625
1285.76211	23976.3625
1289.29301	24684.4625
1292.82151	25586.1625
1296.34761	26600.7625
1299.87133	27752.5625
1303.39266	28807.4625
1306.9116	29721.2625
1310.42815	30324.9625
1313.94233	30616.4625
1317.45412	30503.7625
1320.96354	30301.7625
1324.47058	30284.1625
1327.97525	30202.5625
1331.47754	30140.2625
1334.97747	30140.4625
1338.47502	30130.9625
1341.97022	30052.9625
1345.46305	29903.3625
1348.95352	29728.1625
1352.44163	29554.9625
1355.92738	29604.7625
1359.41078	29992.8625
1362.89183	30260.5625
1366.37053	29699.7625
1369.84688	28023.1625
1373.32088	25923.8625
1376.79254	24471.9625
1380.26186	23975.3625
1383.72883	24023.8625
1387.19347	24097.2625
1390.65578	23937.2625
1394.11575	23820.5625
1397.57339	23896.1625
1401.0287	24077.6625
1404.48168	24147.9625
1407.93234	23982.8625
1411.38068	23482.7625
1414.82669	22838.4625
1418.27039	22061.5625
1421.71177	21350.2625
1425.15083	20754.8625
1428.58758	20499.7625
1432.02203	20584.5625
1435.45416	20966.4625
1438.88399	21401.0625
1442.31151	21771.7625
1445.73673	22000.5625
1449.15965	22206.4625
1452.58027	22337.8625
1455.9986	22414.4625
1459.41463	22574.8625
1462.82837	22772.8625
1466.23982	23031.1625
1469.64898	23301.3625
1473.05586	23487.3625
1476.46045	23454.9625
1479.86276	23332.6625
1483.26279	23129.4625
1486.66054	23063.8625
1490.05602	23115.5625
1493.44922	23298.3625
1496.84016	23606.1625
1500.22882	24120.2625
1503.61521	24827.5625
1506.99934	25525.6625
1510.38121	26100.3625
1513.76081	26234.1625
1517.13816	25910.8625
1520.51324	25418.9625
1523.88607	25121.4625
1527.25665	25021.5625
1530.62498	24976.4625
1533.99105	24857.9625
1537.35488	24552.7625
1540.71647	24073.9625
1544.07581	23497.1625
1547.4329	23005.4625
1550.78776	22474.5625
1554.14038	22114.3625
1557.49077	21991.5625
1560.83892	21864.4625
1564.18484	21877.1625
1567.52853	21951.8625
1570.86999	22114.3625
1574.20922	22452.9625
1577.54624	22820.1625
1580.88103	22978.8625
1584.2136	23091.8625
1587.54395	23435.5625
1590.87208	24052.5625
1594.19801	24868.3625
1597.52172	25574.6625
1600.84321	25623.2625
1604.16251	24762.9625
1607.47959	23448.7625
1610.79447	22158.5625
1614.10715	20859.9625
1617.41763	19812.8625
1620.7259	19001.7625
1624.03199	18520.3625
1627.33587	18489.6625
1630.63757	18834.6625
1633.93707	19641.8625
1637.23439	20950.7625
1640.52951	22873.5625
1643.82246	25114.1625
1647.11321	26870.7625
1650.40179	27199.0625
1653.68819	25811.4625
1656.97241	23282.9625
1660.25446	20763.5625
1663.53433	18800.5625
1666.81203	17467.5625
1670.08756	16610.6625
1673.36092	16069.5625
1676.63211	15733.0625
1679.90115	15439.7625
1683.16801	15269.6625
1686.43272	15117.8625
1689.69527	15019.3625
1692.95567	14920.6625
1696.2139	14862.0625
1699.46999	14837.0625
1702.72392	14792.3625
1705.97571	14746.0625
1709.22535	14717.4625
1712.47284	14641.2625
1715.71819	14639.0625
1718.96139	14591.0625
1722.20246	14581.2625
1725.44139	14527.9625
1728.67818	14464.8625
1731.91284	14406.0625
1735.14537	14323.4625
1738.37576	14275.3625
1741.60403	14255.6625
1744.83017	14209.5625
1748.05418	14152.4625
1751.27607	14135.4625
1754.49584	14128.2625
1757.71349	14154.0625
1760.92903	14087.5625
1764.14244	14078.6625
1767.35375	14059.0625
1770.56294	14045.2625
1773.77002	14042.0625
1776.97499	14003.1625
1780.17785	13980.9625
1783.37861	13930.9625
1786.57727	13888.3625
1789.77382	13870.5625
1792.96828	13854.6625
1796.16064	13793.5625
1799.3509	13775.3625
1802.53907	13773.7625
1805.72514	13735.9625
1808.90913	13725.1625
1812.09102	13660.4625
1815.27083	13634.5625
1818.44856	13618.2625
1821.6242	13619.7625
1824.79776	13597.1625
1827.96924	13560.3625
1831.13864	13566.2625
1834.30597	13552.3625
1837.47122	13551.3625
1840.6344	13542.3625
1843.7955	13531.3625
1846.95454	13505.7625
1850.11151	13477.2625
1853.26642	13483.7625
1856.41926	13495.1625
1859.57004	13476.7625
1862.71876	13448.9625
1865.86542	13424.9625
1869.01003	13409.1625
1872.15258	13365.0625
1875.29308	13370.3625
1878.43152	13353.4625
1881.56792	13345.2625
1884.70227	13332.8625
1887.83457	13300.0625
1890.96482	13257.8625
1894.09304	13237.0625
1897.21921	13199.1625
1900.34335	13185.9625
1903.46544	13184.7625
1906.58551	13163.8625
1909.70353	13156.0625
1912.81953	13105.1625
1915.93349	13097.3625
1919.04543	13053.9625
1922.15534	13024.2625
1925.26322	12983.0625
1928.36908	12986.6625
1931.47292	12998.9625
1934.57473	12949.6625
1937.67453	12916.1625
1940.77232	12915.0625
1943.86808	12868.1625
1946.96184	12799.8625
1950.05358	12775.0625
1953.14331	12751.4625
1956.23103	12688.9625
1959.31675	12657.0625
1962.40046	12622.3625
1965.48217	12576.9625
1968.56188	12545.9625
1971.63959	12528.9625
1974.7153	12434.4625
1977.78901	12421.4625
1980.86073	12374.3625
1983.93046	12349.1625
1986.99819	12311.6625
1990.06394	12291.6625
1993.1277	12254.6625
1996.18947	12212.1625
1999.24925	12197.0625
2002.30706	12144.3625
2005.36288	12111.9625
2008.41672	12070.9625
2011.46859	12038.0625
2014.51848	11996.5625
2017.56639	11999.4625
2020.61233	11952.3625
2023.6563	11894.1625
2026.6983	11899.3625
2029.73833	11840.4625
2032.7764	11808.2625
2035.8125	11793.1625
2038.84664	11743.6625
2041.87881	11713.5625
2044.90903	11691.6625
2047.93729	11670.1625
2050.96359	11688.3625
2053.98794	11642.4625
2057.01034	11648.4625
2060.03078	11631.7625
2063.04927	11632.5625
2066.06582	11624.2625
2069.08042	11597.4625
2072.09307	11596.2625
2075.10378	11555.0625
2078.11255	11580.2625
2081.11938	11572.7625
2084.12426	11548.5625
2087.12722	11525.8625
2090.12824	11544.2625
2093.12732	11517.3625
2096.12447	11524.7625
2099.11969	11497.4625
2102.11299	11492.3625
2105.10435	11518.3625
2108.09379	11538.7625
2111.08131	11537.2625
2114.0669	11552.4625
2117.05057	11567.5625
2120.03233	11548.5625
2123.01216	11533.3625
2125.99008	11584.0625
2128.96609	11586.2625
2131.94018	11583.3625
2134.91236	11557.2625
2137.88263	11607.2625
2140.851	11601.6625
2143.81746	11580.4625
2146.78201	11606.4625
2149.74466	11616.8625
2152.7054	11601.8625
2155.66425	11593.6625
2158.6212	11612.7625
2161.57625	11577.0625
2164.52941	11558.0625
2167.48067	11549.4625
2170.43004	11569.5625
2173.37752	11545.1625
2176.32311	11518.8625
2179.26681	11524.6625
2182.20863	11520.7625
2185.14856	11527.5625
2188.08661	11513.7625
2191.02278	11515.9625
2193.95707	11507.2625
2196.88948	11528.2625
2199.82001	11502.2625
2202.74867	11473.4625
2205.67545	11457.2625
2208.60037	11446.2625
2211.52341	11447.8625
2214.44458	11407.6625
2217.36388	11372.5625
2220.28132	11360.2625
2223.1969	11321.0625
2226.11061	11322.0625
2229.02246	11283.8625
2231.93245	11260.5625
2234.84058	11252.6625
2237.74686	11233.3625
2240.65128	11231.4625
2243.55385	11198.0625
2246.45456	11191.9625
2249.35343	11180.5625
2252.25044	11135.4625
2255.14561	11134.7625
2258.03893	11120.2625
2260.93041	11082.9625
2263.82004	11058.2625
2266.70783	11017.8625
2269.59378	10977.9625
2272.4779	10937.0625
2275.36017	10939.0625
2278.24061	10899.0625
2281.11922	10914.6625
2283.996	10893.9625
2286.87094	10887.0625
2289.74405	10834.1625
2292.61534	10847.2625
2295.4848	10836.3625
2298.35243	10806.5625
2301.21824	10790.0625
2304.08223	10775.5625
2306.94439	10777.3625
2309.80474	10778.0625
2312.66327	10768.4625
2315.51999	10769.9625
2318.37489	10752.0625
2321.22797	10704.8625
2324.07925	10719.4625
2326.92871	10702.3625
2329.77637	10663.1625
2332.62222	10648.9625
2335.46626	10643.8625
2338.3085	10635.5625
2341.14893	10609.6625
2343.98756	10596.5625
2346.8244	10601.4625
2349.65943	10561.3625
2352.49267	10567.1625
2355.32411	10605.8625
2358.15376	10576.5625
2360.98161	10573.9625
2363.80768	10567.3625
2366.63195	10573.6625
2369.45444	10530.0625
2372.27514	10508.6625
2375.09405	10497.4625
2377.91118	10485.5625
2380.72652	10446.1625
2383.54009	10432.7625
2386.35187	10404.8625
2389.16188	10377.7625
2391.97011	10358.2625
2394.77657	10339.8625
2397.58125	10299.5625
2400.38416	10280.2625
2403.18529	10294.3625
2405.98466	10247.5625
2408.78226	10260.7625
2411.57809	10249.7625
2414.37216	10257.9625
2417.16446	10237.5625
2419.955	10204.0625
2422.74378	10213.2625
2425.5308	10212.7625
2428.31606	10198.0625
2431.09956	10204.5625
2433.88131	10167.6625
2436.6613	10178.9625
2439.43954	10135.7625
2442.21603	10143.1625
2444.99077	10131.4625
2447.76377	10121.6625
2450.53501	10113.5625
2453.30451	10082.7625
2456.07226	10079.2625
2458.83827	10078.8625
2461.60254	10050.4625
2464.36507	10051.9625
2467.12586	10055.1625
2469.88492	10043.5625
2472.64224	10038.9625
2475.39782	10026.8625
2478.15167	10045.4625
2480.90379	10023.1625
2483.65417	10046.3625
2486.40283	10022.9625
2489.14976	10020.1625
2491.89497	10005.2625
2494.63845	10030.7625
2497.3802	9987.1625
2500.12024	10001.8625
2502.85855	9982.0625
2505.59514	9946.7625
2508.33002	9947.0625
2511.06318	9937.9625
2513.79462	9949.3625
2516.52435	9944.2625
2519.25237	9915.7625
2521.97867	9887.9625
2524.70327	9917.1625
2527.42616	9866.6625
2530.14734	9865.3625
2532.86681	9851.9625
2535.58458	9872.8625
2538.30065	9863.5625
2541.01501	9852.1625
2543.72768	9838.5625
2546.43864	9844.9625
2549.14791	9817.5625
2551.85548	9779.5625
2554.56136	9783.9625
2557.26554	9761.9625
2559.96803	9730.7625
2562.66883	9735.6625
2565.36794	9678.7625
2568.06536	9685.1625
2570.7611	9669.2625
2573.45514	9635.4625
2576.14751	9616.7625
2578.83819	9616.3625
2581.52719	9586.7625
2584.21451	9604.8625
2586.90015	9596.3625
2589.58411	9540.9625
2592.2664	9556.3625
2594.94701	9540.7625
2597.62594	9538.1625
2600.30321	9520.9625
2602.9788	9509.8625
2605.65273	9471.8625
2608.32498	9482.2625
2610.99557	9451.3625
2613.66449	9450.1625
2616.33175	9440.8625
2618.99734	9431.5625
2621.66128	9434.7625
2624.32355	9419.4625
2626.98416	9423.7625
2629.64311	9400.6625
2632.30041	9385.0625
2634.95605	9354.7625
2637.61004	9354.9625
2640.26238	9334.0625
2642.91306	9341.9625
2645.56209	9342.3625
2648.20948	9318.3625
2650.85521	9322.6625
2653.4993	9331.1625
2656.14175	9317.1625
2658.78255	9320.7625
2661.42171	9322.6625
2664.05923	9331.8625
2666.6951	9346.1625
2669.32934	9328.7625
2671.96194	9341.0625
2674.59291	9354.4625
2677.22224	9331.5625
2679.84993	9318.0625
2682.476	9312.3625
2685.10043	9320.7625
2687.72324	9287.0625
2690.34441	9302.5625
2692.96396	9303.3625
2695.58188	9300.8625
2698.19818	9283.8625
2700.81285	9290.2625
2703.4259	9286.3625
2706.03733	9304.8625
2708.64714	9282.5625
2711.25533	9281.5625
2713.86191	9295.6625
2716.46687	9299.4625
2719.07021	9304.8625
2721.67194	9296.9625
2724.27206	9308.0625
2726.87057	9313.3625
2729.46747	9302.6625
2732.06276	9333.0625
2734.65644	9299.0625
2737.24852	9305.3625
2739.83899	9297.0625
2742.42786	9280.8625
2745.01513	9243.2625
2747.60079	9205.9625
2750.18486	9217.9625
2752.76733	9220.1625
2755.3482	9216.5625
2757.92747	9198.7625
2760.50515	9210.5625
2763.08123	9171.3625
2765.65573	9172.5625
2768.22863	9171.2625
2770.79994	9162.4625
2773.36967	9140.1625
2775.9378	9159.1625
2778.50435	9158.8625
2781.06932	9148.6625
2783.6327	9114.8625
2786.1945	9118.5625
2788.75471	9123.3625
2791.31335	9093.7625
2793.87041	9082.1625
2796.42589	9037.4625
2798.97979	9052.7625
2801.53212	9032.0625
2804.08288	9012.3625
2806.63206	8978.7625
2809.17967	8948.7625
2811.72571	8939.4625
2814.27018	8929.1625
2816.81308	8915.4625
2819.35442	8890.3625
2821.89419	8868.0625
2824.43239	8853.6625
2826.96904	8844.1625
2829.50412	8832.1625
2832.03763	8848.8625
2834.56959	8843.6625
2837.1	8793.3625
2839.62884	8811.8625
2842.15613	8806.0625
2844.68186	8819.7625
2847.20604	8837.0625
2849.72867	8835.7625
2852.24974	8833.2625
2854.76927	8819.7625
2857.28724	8797.9625
2859.80367	8773.3625
2862.31855	8781.3625
2864.83189	8731.9625
2867.34368	8714.2625
2869.85393	8713.9625
2872.36264	8692.8625
2874.8698	8721.3625
2877.37543	8706.0625
2879.87952	8697.5625
2882.38207	8673.9625
2884.88308	8679.6625
2887.38256	8698.8625
2889.88051	8680.2625
2892.37692	8674.7625
2894.8718	8678.8625
2897.36515	8676.8625
2899.85698	8665.7625
2902.34727	8719.7625
2904.83604	8693.5625
2907.32328	8713.0625
2909.809	8696.3625
2912.29319	8699.4625
2914.77587	8683.0625
2917.25702	8691.0625
2919.73665	8673.4625
2922.21476	8709.8625
2924.69136	8680.3625
2927.16644	8690.6625
2929.64	8663.6625
2932.11205	8655.9625
2934.58258	8647.8625
2937.05161	8642.5625
2939.51912	8668.4625
2941.98513	8649.3625
2944.44962	8605.6625
2946.91261	8584.8625
2949.37409	8577.7625
2951.83407	8566.6625
2954.29254	8559.8625
2956.74951	8540.2625
2959.20498	8540.0625
2961.65895	8537.2625
2964.11142	8568.4625
2966.56239	8507.8625
2969.01186	8534.6625
2971.45984	8503.3625
2973.90632	8524.1625
2976.35131	8473.8625
2978.7948	8491.1625
2981.23681	8445.3625
2983.67732	8438.9625
2986.11635	8417.6625
2988.55388	8394.0625
2990.98993	8382.4625
2993.4245	8351.9625
2995.85758	8340.9625
2998.28917	8316.1625
3000.71928	8311.1625
3003.14791	8283.5625
3005.57506	8292.6625
3008.00073	8263.3625
3010.42493	8231.7625
3012.84764	8233.9625
3015.26888	8212.1625
3017.68865	8181.9625
3020.10694	8185.6625
3022.52376	8188.6625
3024.9391	8156.8625
3027.35298	8154.3625
3029.76539	8132.1625
3032.17632	8155.9625
3034.5858	8116.8625
3036.9938	8107.2625
3039.40034	8111.8625
3041.80542	8129.2625
3044.20903	8093.0625
3046.61118	8081.1625
3049.01187	8076.5625
3051.4111	8058.1625
3053.80888	8058.4625
3056.20519	8005.1625
3058.60005	8008.4625
3060.99345	8002.1625
3063.3854	7988.0625
3065.7759	7965.9625
3068.16494	7959.0625
3070.55254	7926.6625
3072.93868	7922.6625
3075.32338	7907.1625
3077.70662	7863.7625
3080.08842	7859.5625
3082.46878	7859.9625
3084.84769	7847.6625
3087.22515	7833.0625
3089.60118	7838.2625
3091.97576	7834.5625
3094.3489	7821.5625
3096.72061	7825.3625
3099.09087	7799.8625
3101.4597	7817.8625
3103.82709	7800.8625
3106.19305	7790.2625
3108.55757	7814.9625
3110.92066	7791.6625
3113.28232	7794.4625
3115.64255	7766.9625
3118.00134	7749.9625
3120.35871	7743.4625
3122.71466	7702.0625
3125.06917	7702.1625
3127.42226	7675.5625
3129.77393	7682.6625
3132.12417	7676.5625
3134.47299	7659.8625
3136.82039	7655.1625
3139.16636	7661.3625
3141.51092	7655.9625
3143.85406	7677.2625
3146.19579	7651.7625
3148.53609	7660.8625
3150.87499	7679.9625
3153.21246	7686.6625
3155.54853	7679.3625
3157.88318	7686.6625
3160.21642	7682.6625
3162.54826	7667.9625
3164.87868	7685.8625
3167.2077	7704.4625
3169.5353	7702.3625
3171.86151	7706.4625
3174.18631	7682.6625
3176.5097	7685.6625
3178.83169	7673.1625
3181.15228	7667.8625
3183.47147	7661.1625
3185.78926	7650.2625
3188.10565	7635.5625
3190.42065	7629.3625
3192.73424	7591.2625
3195.04645	7600.5625
3197.35725	7590.0625
3199.66667	7596.9625
3201.97469	7606.7625
3204.28132	7608.4625
3206.58656	7589.6625
3208.8904	7578.0625
3211.19287	7597.8625
3213.49394	7607.7625
3215.79363	7613.3625
3218.09193	7619.6625
3220.38884	7620.5625
3222.68438	7632.4625
3224.97853	7612.2625
3227.2713	7606.2625
3229.56269	7602.9625
3231.8527	7556.2625
3234.14133	7561.4625
3236.42858	7541.1625
3238.71446	7539.8625
3240.99896	7522.1625
3243.28209	7511.7625
3245.56384	7495.9625
3247.84423	7505.1625
3250.12324	7511.7625
3252.40088	7492.9625
3254.67715	7472.0625
3256.95205	7460.3625
3259.22558	7457.2625
3261.49775	7441.6625
3263.76855	7446.6625
3266.03799	7424.0625
3268.30606	7408.2625
3270.57277	7404.0625
3272.83812	7376.8625
3275.10211	7347.8625
3277.36474	7338.2625
3279.62601	7359.5625
3281.88593	7321.7625
3284.14448	7332.7625
3286.40168	7343.2625
3288.65753	7335.4625
3290.91202	7336.5625
3293.16516	7302.7625
3295.41695	7295.6625
3297.66738	7251.5625
3299.91647	7217.2625
3302.16421	7178.6625
3304.4106	7146.3625
3306.65564	7093.8625
3308.89933	7049.2625
3311.14169	6990.8625
3313.38269	6916.6625
3315.62236	6889.2625
3317.86068	6823.4625
3320.09766	6759.8625
3322.3333	6708.8625
3324.5676	6677.0625
3326.80056	6563.2625
3329.03219	6534.5625
3331.26248	3.5625
3333.49143	0.3625
3335.71905	-0.6375
