Data from AgNP_FTO_APTES_UA_10uM_CRN_5uM_R6G_10uM_NaF_0.1M_Addition_RamanShift__11__14-55-10-646.txt Node

Date: Thu Feb 10 14:55:10 GMT 2022
User: TCL
Spectrometer: QEP01345
Trigger mode: 4
Integration Time (sec): 7.000000E0
Scans to average: 10
Electric dark correction enabled: true
Nonlinearity correction enabled: false
Boxcar width: 0
XAxis mode: Raman Shifts
Number of Pixels in Spectrum: 1044
>>>>>Begin Spectral Data<<<<<
46.04893	0.4625
50.45542	-0.7375
54.85868	-1.1375
59.25871	-1.2375
63.6555	74.3625
68.04907	77.1625
72.43941	81.5625
76.82654	81.5625
81.21044	89.8625
85.59113	88.6625
89.96862	92.7625
94.34289	97.2625
98.71396	100.3625
103.08183	104.5625
107.4465	109.0625
111.80798	103.4625
116.16626	111.8625
120.52136	113.5625
124.87327	123.6625
129.222	128.3625
133.56755	135.4625
137.90993	149.6625
142.24913	157.8625
146.58517	182.0625
150.91804	213.8625
155.24774	256.4625
159.57429	316.0625
163.89768	406.9625
168.21792	542.1625
172.53501	737.4625
176.84895	1026.7625
181.15975	1440.1625
185.46741	2009.8625
189.77193	2796.5625
194.07331	3723.4625
198.37157	4816.8625
202.6667	5952.3625
206.9587	7056.5625
211.24758	8133.3625
215.53334	9231.3625
219.81599	10375.1625
224.09553	11634.8625
228.37195	13010.5625
232.64527	14529.7625
236.91549	16154.6625
241.18261	17800.4625
245.44663	19331.4625
249.70755	20693.9625
253.96539	21969.3625
258.22014	22967.3625
262.4718	23752.8625
266.72039	24317.9625
270.96589	24592.6625
275.20832	24662.4625
279.44768	24554.2625
283.68397	24407.4625
287.91719	24210.8625
292.14735	24088.6625
296.37445	24071.9625
300.59849	24089.6625
304.81948	24146.8625
309.03742	24126.6625
313.25231	24034.4625
317.46415	23658.2625
321.67296	23240.3625
325.87872	22823.0625
330.08145	22628.6625
334.28114	22625.8625
338.47781	22790.7625
342.67145	23061.3625
346.86207	23388.0625
351.04966	23693.7625
355.23424	24031.2625
359.4158	24313.1625
363.59435	24516.0625
367.76989	24685.0625
371.94243	24753.7625
376.11196	24852.5625
380.27849	24901.9625
384.44203	24986.3625
388.60257	25162.8625
392.76012	25480.8625
396.91468	25898.7625
401.06626	26289.7625
405.21485	26554.5625
409.36047	26458.5625
413.50311	26224.8625
417.64277	26158.1625
421.77947	26288.4625
425.9132	26516.4625
430.04396	26710.4625
434.17176	26795.1625
438.2966	26804.6625
442.41849	27078.2625
446.53742	27600.8625
450.6534	28248.9625
454.76644	28666.0625
458.87653	28787.1625
462.98368	28764.1625
467.08789	28591.3625
471.18916	28273.2625
475.2875	27915.3625
479.38291	27706.2625
483.4754	27559.5625
487.56496	27361.9625
491.6516	26982.8625
495.73531	26572.4625
499.81612	26363.0625
503.89401	26463.0625
507.96899	26640.1625
512.04106	26722.6625
516.11023	26607.7625
520.1765	26317.6625
524.23987	26076.3625
528.30034	25812.5625
532.35792	25539.4625
536.41261	25287.1625
540.46441	25110.5625
544.51333	25111.5625
548.55936	25399.9625
552.60252	25845.4625
556.64279	26349.2625
560.6802	26787.1625
564.71473	27131.6625
568.7464	27618.2625
572.7752	28581.7625
576.80114	29796.6625
580.82422	31032.3625
584.84444	32128.7625
588.86181	33434.0625
592.87633	34472.6625
596.888	34213.5625
600.89682	32540.8625
604.9028	31583.9625
608.90594	32386.4625
612.90624	33230.9625
616.90371	31110.1625
620.89834	27601.7625
624.89015	26180.2625
628.87913	26194.6625
632.86528	26447.4625
636.84862	26415.3625
640.82913	25947.4625
644.80683	25341.3625
648.78172	24947.1625
652.75379	24855.4625
656.72306	25115.4625
660.68952	25369.2625
664.65319	25329.8625
668.61405	25002.7625
672.57211	24989.2625
676.52738	25053.4625
680.47986	25028.8625
684.42955	24883.8625
688.37646	24799.2625
692.32058	24943.3625
696.26192	25240.2625
700.20048	25566.0625
704.13626	25817.3625
708.06928	25933.8625
711.99952	25829.3625
715.927	25745.9625
719.85171	25675.4625
723.77365	25554.8625
727.69284	25190.4625
731.60928	24786.1625
735.52295	24625.9625
739.43388	24588.7625
743.34206	24635.1625
747.24749	24831.1625
751.15017	25113.0625
755.05012	25588.0625
758.94733	26272.8625
762.8418	27332.9625
766.73354	28877.4625
770.62254	30119.6625
774.50882	30098.3625
778.39237	28892.2625
782.27321	27351.8625
786.15132	26145.6625
790.02671	25406.6625
793.89938	24970.9625
797.76935	24753.1625
801.6366	24658.7625
805.50115	24605.6625
809.36299	24449.6625
813.22213	24293.4625
817.07857	24233.0625
820.93231	24164.0625
824.78336	24068.2625
828.63172	23951.7625
832.47738	23873.2625
836.32036	23828.0625
840.16066	23786.0625
843.99827	23786.8625
847.8332	23832.0625
851.66546	23903.8625
855.49504	23944.4625
859.32195	23985.4625
863.1462	23947.3625
866.96777	23870.0625
870.78668	23842.4625
874.60293	23833.4625
878.41652	23875.2625
882.22745	23954.4625
886.03573	23967.7625
889.84136	23907.0625
893.64433	23912.4625
897.44466	23821.7625
901.24235	23803.8625
905.0374	23769.6625
908.8298	23736.3625
912.61957	23813.6625
916.40671	24041.4625
920.19121	24329.9625
923.97308	24632.2625
927.75233	24601.2625
931.52895	24245.1625
935.30295	23846.6625
939.07433	23454.9625
942.84309	23173.2625
946.60924	23002.2625
950.37278	22958.1625
954.13371	22996.0625
957.89203	22960.8625
961.64774	22984.5625
965.40086	23007.0625
969.15137	22913.3625
972.89929	22855.2625
976.64461	22774.5625
980.38733	22728.0625
984.12747	22742.9625
987.86502	22817.2625
991.59999	22892.9625
995.33237	23028.5625
999.06217	23324.6625
1002.78939	23674.5625
1006.51404	24125.7625
1010.23611	24602.0625
1013.95561	24909.2625
1017.67255	24878.0625
1021.38692	24701.0625
1025.09872	24342.4625
1028.80796	23993.8625
1032.51465	23834.2625
1036.21877	23843.3625
1039.92035	23925.6625
1043.61937	24067.0625
1047.31584	24133.2625
1051.00976	24186.8625
1054.70114	24312.3625
1058.38998	24523.4625
1062.07627	24827.8625
1065.76003	25188.3625
1069.44126	25541.2625
1073.11995	25966.9625
1076.79611	26272.0625
1080.46974	26416.0625
1084.14085	26579.5625
1087.80943	26765.8625
1091.47549	27029.7625
1095.13903	27122.7625
1098.80005	26837.4625
1102.45857	26254.6625
1106.11456	25744.0625
1109.76805	25412.2625
1113.41903	25345.3625
1117.06751	25382.0625
1120.71348	25580.4625
1124.35696	25778.1625
1127.99793	26005.6625
1131.63641	26220.6625
1135.2724	26229.6625
1138.90589	26250.5625
1142.5369	26354.3625
1146.16542	26561.7625
1149.79145	26840.9625
1153.415	27105.2625
1157.03607	27459.7625
1160.65467	28117.9625
1164.27079	29224.4625
1167.88443	30523.3625
1171.49561	31937.7625
1175.10432	33554.8625
1178.71056	35585.8625
1182.31434	37484.9625
1185.91565	38580.3625
1189.51451	38756.2625
1193.11091	38345.2625
1196.70485	37429.8625
1200.29634	36260.7625
1203.88538	35375.1625
1207.47197	35031.2625
1211.05612	34944.8625
1214.63782	34483.6625
1218.21708	33507.4625
1221.79391	32397.6625
1225.36829	31545.0625
1228.94024	31074.5625
1232.50976	30778.9625
1236.07685	30498.3625
1239.6415	30294.0625
1243.20374	30199.0625
1246.76355	30396.9625
1250.32093	30767.0625
1253.8759	31340.1625
1257.42845	32069.3625
1260.97859	32949.6625
1264.52631	33933.3625
1268.07163	34847.9625
1271.61453	35797.9625
1275.15503	36646.0625
1278.69312	37554.3625
1282.22882	38514.5625
1285.76211	39729.5625
1289.29301	41151.2625
1292.82151	42817.9625
1296.34761	44768.0625
1299.87133	47143.6625
1303.39266	49418.5625
1306.9116	51287.5625
1310.42815	52589.1625
1313.94233	53110.0625
1317.45412	52721.6625
1320.96354	52032.2625
1324.47058	51765.6625
1327.97525	51856.3625
1331.47754	51950.2625
1334.97747	52166.9625
1338.47502	52219.7625
1341.97022	52243.5625
1345.46305	52079.1625
1348.95352	51526.0625
1352.44163	50732.9625
1355.92738	50350.8625
1359.41078	50723.0625
1362.89183	50975.1625
1366.37053	49855.9625
1369.84688	46918.8625
1373.32088	43077.3625
1376.79254	40230.8625
1380.26186	39271.9625
1383.72883	39401.0625
1387.19347	39562.6625
1390.65578	39515.6625
1394.11575	39387.9625
1397.57339	39664.5625
1401.0287	40205.8625
1404.48168	40518.4625
1407.93234	40329.5625
1411.38068	39471.0625
1414.82669	38125.7625
1418.27039	36605.3625
1421.71177	35242.9625
1425.15083	34108.0625
1428.58758	33794.1625
1432.02203	34139.0625
1435.45416	35095.4625
1438.88399	36138.7625
1442.31151	36916.6625
1445.73673	37261.0625
1449.15965	37551.3625
1452.58027	37698.3625
1455.9986	37820.4625
1459.41463	38214.0625
1462.82837	38825.5625
1466.23982	39372.1625
1469.64898	39731.7625
1473.05586	39916.4625
1476.46045	39786.9625
1479.86276	39476.6625
1483.26279	39096.4625
1486.66054	38939.0625
1490.05602	39008.5625
1493.44922	39419.3625
1496.84016	39960.8625
1500.22882	40699.5625
1503.61521	41646.6625
1506.99934	42570.5625
1510.38121	43097.7625
1513.76081	43094.5625
1517.13816	42596.9625
1520.51324	42039.5625
1523.88607	41833.1625
1527.25665	42004.9625
1530.62498	42146.6625
1533.99105	42003.0625
1537.35488	41316.7625
1540.71647	40293.8625
1544.07581	39078.7625
1547.4329	37901.9625
1550.78776	36939.9625
1554.14038	36287.8625
1557.49077	35900.5625
1560.83892	35647.9625
1564.18484	35504.2625
1567.52853	35481.2625
1570.86999	35732.0625
1574.20922	36354.9625
1577.54624	37004.7625
1580.88103	37335.8625
1584.2136	37806.6625
1587.54395	38935.5625
1590.87208	40562.7625
1594.19801	42580.6625
1597.52172	44374.8625
1600.84321	44531.4625
1604.16251	42657.7625
1607.47959	39712.3625
1610.79447	36707.4625
1614.10715	33839.1625
1617.41763	31460.5625
1620.7259	29716.7625
1624.03199	28878.6625
1627.33587	28787.1625
1630.63757	29617.3625
1633.93707	31491.2625
1637.23439	34752.8625
1640.52951	39327.9625
1643.82246	44593.1625
1647.11321	48507.6625
1650.40179	48755.8625
1653.68819	44975.6625
1656.97241	39132.5625
1660.25446	33554.4625
1663.53433	29420.0625
1666.81203	26762.2625
1670.08756	25079.2625
1673.36092	24016.6625
1676.63211	23342.1625
1679.90115	22836.0625
1683.16801	22448.7625
1686.43272	22172.4625
1689.69527	21944.3625
1692.95567	21784.6625
1696.2139	21705.3625
1699.46999	21597.0625
1702.72392	21526.0625
1705.97571	21449.9625
1709.22535	21353.5625
1712.47284	21304.0625
1715.71819	21267.5625
1718.96139	21205.2625
1722.20246	21109.9625
1725.44139	21001.9625
1728.67818	20889.4625
1731.91284	20752.8625
1735.14537	20656.5625
1738.37576	20567.6625
1741.60403	20466.8625
1744.83017	20351.0625
1748.05418	20322.2625
1751.27607	20306.6625
1754.49584	20258.6625
1757.71349	20240.8625
1760.92903	20235.9625
1764.14244	20210.1625
1767.35375	20192.1625
1770.56294	20150.1625
1773.77002	20093.7625
1776.97499	20033.4625
1780.17785	19996.0625
1783.37861	19918.6625
1786.57727	19927.8625
1789.77382	19860.2625
1792.96828	19824.1625
1796.16064	19734.5625
1799.3509	19738.9625
1802.53907	19677.4625
1805.72514	19622.4625
1808.90913	19549.0625
1812.09102	19581.7625
1815.27083	19497.0625
1818.44856	19482.7625
1821.6242	19447.8625
1824.79776	19418.8625
1827.96924	19394.0625
1831.13864	19385.2625
1834.30597	19396.4625
1837.47122	19399.2625
1840.6344	19393.8625
1843.7955	19419.5625
1846.95454	19385.6625
1850.11151	19345.7625
1853.26642	19333.0625
1856.41926	19347.9625
1859.57004	19335.3625
1862.71876	19263.3625
1865.86542	19265.0625
1869.01003	19209.1625
1872.15258	19175.6625
1875.29308	19180.8625
1878.43152	19088.7625
1881.56792	19061.7625
1884.70227	19035.0625
1887.83457	19033.0625
1890.96482	18988.0625
1894.09304	18976.1625
1897.21921	18952.2625
1900.34335	18908.5625
1903.46544	18899.7625
1906.58551	18828.6625
1909.70353	18818.6625
1912.81953	18787.4625
1915.93349	18732.0625
1919.04543	18737.9625
1922.15534	18643.4625
1925.26322	18623.5625
1928.36908	18606.1625
1931.47292	18553.9625
1934.57473	18484.9625
1937.67453	18466.4625
1940.77232	18389.5625
1943.86808	18323.2625
1946.96184	18299.1625
1950.05358	18244.7625
1953.14331	18181.1625
1956.23103	18133.2625
1959.31675	18079.6625
1962.40046	18024.0625
1965.48217	17943.2625
1968.56188	17906.7625
1971.63959	17850.1625
1974.7153	17784.4625
1977.78901	17743.5625
1980.86073	17668.1625
1983.93046	17602.7625
1986.99819	17577.1625
1990.06394	17518.3625
1993.1277	17487.6625
1996.18947	17427.4625
1999.24925	17355.0625
2002.30706	17309.4625
2005.36288	17212.0625
2008.41672	17180.4625
2011.46859	17115.0625
2014.51848	17115.9625
2017.56639	17032.5625
2020.61233	17025.7625
2023.6563	16951.3625
2026.6983	16946.1625
2029.73833	16893.8625
2032.7764	16854.9625
2035.8125	16827.6625
2038.84664	16712.2625
2041.87881	16714.4625
2044.90903	16691.6625
2047.93729	16653.0625
2050.96359	16649.1625
2053.98794	16619.4625
2057.01034	16623.0625
2060.03078	16591.2625
2063.04927	16583.1625
2066.06582	16542.8625
2069.08042	16517.2625
2072.09307	16539.6625
2075.10378	16520.3625
2078.11255	16464.4625
2081.11938	16505.4625
2084.12426	16462.6625
2087.12722	16481.4625
2090.12824	16462.0625
2093.12732	16439.5625
2096.12447	16415.8625
2099.11969	16432.2625
2102.11299	16424.1625
2105.10435	16441.7625
2108.09379	16449.7625
2111.08131	16441.4625
2114.0669	16423.1625
2117.05057	16471.1625
2120.03233	16479.7625
2123.01216	16486.7625
2125.99008	16496.6625
2128.96609	16470.1625
2131.94018	16525.0625
2134.91236	16490.8625
2137.88263	16518.7625
2140.851	16522.9625
2143.81746	16536.9625
2146.78201	16499.7625
2149.74466	16518.4625
2152.7054	16495.5625
2155.66425	16480.4625
2158.6212	16466.5625
2161.57625	16473.6625
2164.52941	16412.2625
2167.48067	16438.0625
2170.43004	16425.7625
2173.37752	16438.4625
2176.32311	16432.1625
2179.26681	16411.3625
2182.20863	16439.5625
2185.14856	16412.0625
2188.08661	16382.3625
2191.02278	16382.9625
2193.95707	16393.9625
2196.88948	16370.1625
2199.82001	16323.2625
2202.74867	16291.6625
2205.67545	16273.8625
2208.60037	16243.6625
2211.52341	16221.3625
2214.44458	16229.9625
2217.36388	16171.5625
2220.28132	16159.4625
2223.1969	16103.0625
2226.11061	16104.1625
2229.02246	16061.2625
2231.93245	16077.9625
2234.84058	16036.1625
2237.74686	15994.1625
2240.65128	15979.5625
2243.55385	15943.0625
2246.45456	15906.5625
2249.35343	15870.2625
2252.25044	15882.5625
2255.14561	15852.8625
2258.03893	15810.4625
2260.93041	15763.3625
2263.82004	15723.4625
2266.70783	15663.3625
2269.59378	15582.2625
2272.4779	15553.3625
2275.36017	15486.5625
2278.24061	15501.6625
2281.11922	15464.5625
2283.996	15447.6625
2286.87094	15441.5625
2289.74405	15433.8625
2292.61534	15409.4625
2295.4848	15373.4625
2298.35243	15370.7625
2301.21824	15340.8625
2304.08223	15353.3625
2306.94439	15321.2625
2309.80474	15324.8625
2312.66327	15319.0625
2315.51999	15318.4625
2318.37489	15256.9625
2321.22797	15241.4625
2324.07925	15233.6625
2326.92871	15162.6625
2329.77637	15198.8625
2332.62222	15167.9625
2335.46626	15132.1625
2338.3085	15152.5625
2341.14893	15114.5625
2343.98756	15141.9625
2346.8244	15103.1625
2349.65943	15092.2625
2352.49267	15084.6625
2355.32411	15085.1625
2358.15376	15085.9625
2360.98161	15085.6625
2363.80768	15057.8625
2366.63195	15070.1625
2369.45444	15058.7625
2372.27514	15009.8625
2375.09405	15019.7625
2377.91118	14965.7625
2380.72652	14919.7625
2383.54009	14907.3625
2386.35187	14881.8625
2389.16188	14844.7625
2391.97011	14790.7625
2394.77657	14773.5625
2397.58125	14752.7625
2400.38416	14725.4625
2403.18529	14714.6625
2405.98466	14723.5625
2408.78226	14659.9625
2411.57809	14637.5625
2414.37216	14658.8625
2417.16446	14640.4625
2419.955	14599.1625
2422.74378	14593.7625
2425.5308	14581.4625
2428.31606	14594.9625
2431.09956	14593.3625
2433.88131	14551.1625
2436.6613	14555.4625
2439.43954	14567.5625
2442.21603	14512.6625
2444.99077	14516.8625
2447.76377	14537.0625
2450.53501	14522.1625
2453.30451	14480.8625
2456.07226	14469.6625
2458.83827	14469.5625
2461.60254	14456.8625
2464.36507	14464.9625
2467.12586	14429.5625
2469.88492	14418.8625
2472.64224	14429.1625
2475.39782	14440.4625
2478.15167	14453.7625
2480.90379	14441.5625
2483.65417	14456.8625
2486.40283	14428.3625
2489.14976	14438.8625
2491.89497	14421.1625
2494.63845	14419.4625
2497.3802	14402.7625
2500.12024	14365.8625
2502.85855	14381.6625
2505.59514	14370.9625
2508.33002	14358.3625
2511.06318	14327.2625
2513.79462	14343.0625
2516.52435	14337.1625
2519.25237	14338.3625
2521.97867	14284.1625
2524.70327	14320.1625
2527.42616	14298.5625
2530.14734	14288.6625
2532.86681	14256.2625
2535.58458	14227.7625
2538.30065	14245.5625
2541.01501	14198.6625
2543.72768	14206.6625
2546.43864	14202.0625
2549.14791	14200.3625
2551.85548	14196.5625
2554.56136	14158.8625
2557.26554	14127.0625
2559.96803	14117.5625
2562.66883	14105.0625
2565.36794	14110.9625
2568.06536	14074.0625
2570.7611	14021.0625
2573.45514	14025.9625
2576.14751	13993.8625
2578.83819	13954.9625
2581.52719	13987.6625
2584.21451	13930.2625
2586.90015	13942.2625
2589.58411	13918.2625
2592.2664	13918.8625
2594.94701	13914.2625
2597.62594	13891.8625
2600.30321	13881.6625
2602.9788	13850.8625
2605.65273	13847.3625
2608.32498	13874.0625
2610.99557	13830.9625
2613.66449	13844.7625
2616.33175	13839.3625
2618.99734	13846.1625
2621.66128	13814.4625
2624.32355	13802.9625
2626.98416	13764.3625
2629.64311	13764.2625
2632.30041	13717.8625
2634.95605	13737.9625
2637.61004	13680.9625
2640.26238	13690.1625
2642.91306	13689.1625
2645.56209	13719.7625
2648.20948	13718.2625
2650.85521	13705.2625
2653.4993	13720.0625
2656.14175	13698.4625
2658.78255	13748.5625
2661.42171	13721.0625
2664.05923	13760.0625
2666.6951	13768.2625
2669.32934	13769.4625
2671.96194	13774.8625
2674.59291	13746.4625
2677.22224	13734.6625
2679.84993	13744.9625
2682.476	13755.2625
2685.10043	13761.1625
2687.72324	13682.5625
2690.34441	13752.1625
2692.96396	13741.9625
2695.58188	13733.9625
2698.19818	13724.5625
2700.81285	13752.7625
2703.4259	13736.2625
2706.03733	13784.9625
2708.64714	13768.2625
2711.25533	13780.4625
2713.86191	13755.0625
2716.46687	13763.9625
2719.07021	13747.4625
2721.67194	13783.5625
2724.27206	13787.6625
2726.87057	13795.9625
2729.46747	13793.2625
2732.06276	13810.0625
2734.65644	13819.3625
2737.24852	13828.5625
2739.83899	13789.8625
2742.42786	13771.4625
2745.01513	13746.0625
2747.60079	13730.8625
2750.18486	13715.2625
2752.76733	13699.7625
2755.3482	13690.2625
2757.92747	13703.3625
2760.50515	13674.3625
2763.08123	13661.9625
2765.65573	13649.0625
2768.22863	13650.0625
2770.79994	13649.9625
2773.36967	13633.5625
2775.9378	13614.2625
2778.50435	13633.9625
2781.06932	13610.6625
2783.6327	13607.1625
2786.1945	13627.6625
2788.75471	13569.1625
2791.31335	13559.0625
2793.87041	13521.4625
2796.42589	13536.4625
2798.97979	13501.0625
2801.53212	13465.2625
2804.08288	13457.8625
2806.63206	13463.9625
2809.17967	13443.6625
2811.72571	13386.5625
2814.27018	13370.4625
2816.81308	13296.6625
2819.35442	13271.8625
2821.89419	13243.5625
2824.43239	13228.2625
2826.96904	13208.8625
2829.50412	13205.1625
2832.03763	13163.9625
2834.56959	13182.1625
2837.1	13152.3625
2839.62884	13169.5625
2842.15613	13163.8625
2844.68186	13186.4625
2847.20604	13153.9625
2849.72867	13167.9625
2852.24974	13164.5625
2854.76927	13127.9625
2857.28724	13081.0625
2859.80367	13049.4625
2862.31855	13070.0625
2864.83189	13027.0625
2867.34368	12980.4625
2869.85393	13001.1625
2872.36264	13016.3625
2874.8698	12966.4625
2877.37543	12963.8625
2879.87952	12960.1625
2882.38207	12968.6625
2884.88308	12940.6625
2887.38256	12963.8625
2889.88051	12912.0625
2892.37692	12941.6625
2894.8718	12950.6625
2897.36515	12976.9625
2899.85698	12999.2625
2902.34727	12991.3625
2904.83604	13006.6625
2907.32328	13014.9625
2909.809	13007.3625
2912.29319	12979.4625
2914.77587	12986.3625
2917.25702	12966.3625
2919.73665	12956.0625
2922.21476	12943.7625
2924.69136	12939.4625
2927.16644	12943.8625
2929.64	12962.1625
2932.11205	12920.9625
2934.58258	12902.6625
2937.05161	12880.6625
2939.51912	12880.8625
2941.98513	12883.0625
2944.44962	12841.1625
2946.91261	12788.3625
2949.37409	12851.9625
2951.83407	12794.7625
2954.29254	12783.6625
2956.74951	12753.0625
2959.20498	12759.1625
2961.65895	12761.8625
2964.11142	12737.9625
2966.56239	12715.0625
2969.01186	12722.3625
2971.45984	12729.0625
2973.90632	12721.6625
2976.35131	12673.8625
2978.7948	12631.6625
2981.23681	12629.5625
2983.67732	12566.6625
2986.11635	12539.4625
2988.55388	12500.5625
2990.98993	12470.0625
2993.4245	12445.5625
2995.85758	12422.1625
2998.28917	12405.5625
3000.71928	12381.2625
3003.14791	12326.4625
3005.57506	12323.9625
3008.00073	12292.9625
3010.42493	12154.3625
3012.84764	12192.3625
3015.26888	12177.0625
3017.68865	12129.9625
3020.10694	12142.9625
3022.52376	12081.5625
3024.9391	12073.8625
3027.35298	12091.4625
3029.76539	12068.5625
3032.17632	12054.7625
3034.5858	12046.8625
3036.9938	12038.5625
3039.40034	12054.9625
3041.80542	12027.8625
3044.20903	11987.9625
3046.61118	11998.4625
3049.01187	11939.0625
3051.4111	11942.7625
3053.80888	11891.7625
3056.20519	11890.8625
3058.60005	11856.2625
3060.99345	11825.0625
3063.3854	11778.8625
3065.7759	11725.7625
3068.16494	11732.6625
3070.55254	11682.2625
3072.93868	11647.6625
3075.32338	11610.8625
3077.70662	11595.1625
3080.08842	11551.5625
3082.46878	11549.2625
3084.84769	11503.4625
3087.22515	11531.8625
3089.60118	11518.2625
3091.97576	11496.8625
3094.3489	11482.3625
3096.72061	11475.5625
3099.09087	11491.3625
3101.4597	11466.5625
3103.82709	11449.8625
3106.19305	11431.0625
3108.55757	11439.3625
3110.92066	11407.4625
3113.28232	11379.5625
3115.64255	11310.6625
3118.00134	11326.0625
3120.35871	11299.5625
3122.71466	11262.7625
3125.06917	11238.5625
3127.42226	11206.4625
3129.77393	11196.5625
3132.12417	11163.4625
3134.47299	11143.3625
3136.82039	11158.2625
3139.16636	11159.6625
3141.51092	11113.2625
3143.85406	11154.5625
3146.19579	11118.9625
3148.53609	11120.7625
3150.87499	11133.2625
3153.21246	11104.6625
3155.54853	11115.7625
3157.88318	11113.2625
3160.21642	11124.6625
3162.54826	11096.7625
3164.87868	11131.3625
3167.2077	11139.2625
3169.5353	11114.5625
3171.86151	11104.2625
3174.18631	11088.0625
3176.5097	11069.2625
3178.83169	11047.1625
3181.15228	11064.4625
3183.47147	11019.3625
3185.78926	11020.5625
3188.10565	10974.7625
3190.42065	10958.7625
3192.73424	10944.1625
3195.04645	10941.9625
3197.35725	10935.3625
3199.66667	10920.4625
3201.97469	10945.0625
3204.28132	10895.4625
3206.58656	10901.0625
3208.8904	10914.7625
3211.19287	10887.8625
3213.49394	10911.8625
3215.79363	10860.2625
3218.09193	10905.9625
3220.38884	10890.6625
3222.68438	10889.2625
3224.97853	10890.6625
3227.2713	10883.7625
3229.56269	10875.3625
3231.8527	10860.0625
3234.14133	10832.0625
3236.42858	10805.2625
3238.71446	10778.2625
3240.99896	10756.6625
3243.28209	10756.4625
3245.56384	10751.3625
3247.84423	10723.5625
3250.12324	10703.8625
3252.40088	10690.8625
3254.67715	10657.6625
3256.95205	10636.2625
3259.22558	10620.9625
3261.49775	10600.7625
3263.76855	10577.2625
3266.03799	10558.6625
3268.30606	10567.7625
3270.57277	10534.4625
3272.83812	10510.5625
3275.10211	10491.3625
3277.36474	10488.3625
3279.62601	10457.6625
3281.88593	10433.9625
3284.14448	10443.9625
3286.40168	10416.2625
3288.65753	10450.1625
3290.91202	10406.9625
3293.16516	10405.1625
3295.41695	10361.3625
3297.66738	10326.2625
3299.91647	10272.4625
3302.16421	10188.5625
3304.4106	10137.9625
3306.65564	10042.2625
3308.89933	9981.1625
3311.14169	9930.7625
3313.38269	9799.1625
3315.62236	9754.3625
3317.86068	9651.0625
3320.09766	9592.0625
3322.3333	9528.8625
3324.5676	9467.1625
3326.80056	9301.4625
3329.03219	9236.4625
3331.26248	4.6625
3333.49143	-1.2375
3335.71905	-0.3375
