EXPLAIN
TAG	CHRONOA
TITLE	LABEL	Chronoamperometry Scan	Test Identifier
DATE	LABEL	2/2/2022	Date
TIME	LABEL	11:19:37	Time
NOTES	NOTES	1	Notes...
	
PSTAT	PSTAT	IFC1010-21051	Potentiostat
VPRESTEP	POTEN	1.00000E-002	F	Pre-step Voltage (V)
TPRESTEP	QUANT	5.00000E-001	Pre-step Delay Time (s)
VSTEP1	POTEN	0.00000E+000	F	Step 1 Voltage (V)
TSTEP1	QUANT	3.00000E+002	Step 1 Time (s)
VSTEP2	POTEN	-1.00000E-001	T	Step 2 Voltage (V)
TSTEP2	QUANT	1.00000E+000	Step 2 Time (s)
SAMPLETIME	QUANT	1.00000E-001	Sample Period (s)
DECIMATE	TOGGLE	T	Decimate
ILIMIT	QUANT	1.00000E+000	Limit I (mA/cm^2)
IMODE	SELECTOR	1	I/E Range Mode
IRANGE	QUANT	3.00000E-001	Max Current (mA)
EQDELAY	QUANT	5.00000E+000	Equil. Time (s)
SAMPLINGMODE	SELECTOR	1	Sampling Mode
AREA	QUANT	1.00000E+000	Sample Area (cm^2)
IRCOMP	SELECTOR	0	IRComp
PFCOR	QUANT	5.00000E+001	PF Corr. (ohm)
SEQUENCER	TOGGLE	TRUE	Run as Sequence
PSTATMODEL	IQUANT	64	Pstat Model
PSTATSECTION	LABEL	IFC1010-21051	Pstat Section
PSTATSERIALNO	LABEL	21051	Pstat Serial Number
CTRLMODE	IQUANT	1	Control Mode
ELECTROMETER	IQUANT	0	RE=0 or CS=1
IESTAB	IQUANT	0	I/E Stability
CASPEED	IQUANT	4	Control Amp Speed
CONVENTION	IQUANT	1	Current Convention
ICHRANGE	IQUANT	2	Ich Range
ICHRANGEMODE	TOGGLE	T	Ich Auto Range
ICHOFFSETENABLE	TOGGLE	F	Ich Offset Enable
ICHOFFSET	QUANT	0	Ich Offset (V)
ICHFILTER	IQUANT	3	Ich Filter
VCHRANGE	IQUANT	3	Vch Range
VCHRANGEMODE	TOGGLE	T	Vch Auto Range
VCHOFFSETENABLE	TOGGLE	F	Vch Offset Enable
VCHOFFSET	QUANT	0	Vch Offset (V)
VCHFILTER	IQUANT	3	Vch Filter
IERANGELOWERLIMIT	IQUANT	4	I/E Range Lower Limit
IERANGEMODE	TOGGLE	F	I/E AutoRange
IERANGE	IQUANT	9	I/E Range
ACHSELECT	IQUANT	0	Ach Select
ACHRANGE	IQUANT	2	Ach Range
ACHOFFSETENABLE	TOGGLE	F	Ach Offset Enable
ACHOFFSET	QUANT	0	Ach Offset (V)
ACHFILTER	IQUANT	1	Ach Filter
SENSECABLEID	IQUANT	14	Sense Cable ID
PWRCABLEID	IQUANT	14	Power Cable ID
DCCALDATE	LABEL	1/24/2022	DC Calibration Date
ACCALDATE	LABEL	4/2/2018	AC Calibration Date
FRAMEWORKVERSION	QUANT	7.06	Framework Version
INSTRUMENTVERSION	LABEL	4.30	Instrument Version
CURVE	TABLE	98
	Pt	T	Vf	Im	Vu	Sig	Ach	IERange	Over	Temp
	#	s	V vs. Ref.	A	V	V	V	#	bits	deg C
	0	-0.4	9.26955E-003	-1.53119E-005	0.00000E+000	1.00559E-002	0.00000E+000	9	...........	1425.87
	1	-0.3	9.88261E-003	-1.51518E-005	0.00000E+000	1.00559E-002	0.00000E+000	9	...........	1425.87
	2	-0.2	1.00422E-002	-1.50011E-005	0.00000E+000	1.00559E-002	0.00000E+000	9	...........	1425.87
	3	-0.1	1.00581E-002	-1.48549E-005	0.00000E+000	1.00559E-002	0.00000E+000	9	...........	1425.87
	4	0	1.00585E-002	-1.47193E-005	0.00000E+000	1.00559E-002	0.00000E+000	9	...........	1425.87
	5	0.1	5.13171E-005	-6.04096E-005	0.00000E+000	5.34840E-005	0.00000E+000	9	...........	1425.87
	6	0.2	5.10588E-005	-5.19630E-005	0.00000E+000	5.34840E-005	0.00000E+000	9	...........	1425.87
	7	0.3	4.97972E-005	-4.55457E-005	0.00000E+000	5.34840E-005	0.00000E+000	9	...........	1425.87
	8	0.4	5.11489E-005	-4.05028E-005	0.00000E+000	5.34840E-005	0.00000E+000	9	...........	1425.87
	9	0.5	5.00245E-005	-3.64561E-005	0.00000E+000	5.34840E-005	0.00000E+000	9	...........	1425.87
	10	0.6	4.98683E-005	-3.31727E-005	0.00000E+000	5.34840E-005	0.00000E+000	9	...........	1425.87
	11	0.7	5.05992E-005	-3.04700E-005	0.00000E+000	5.34840E-005	0.00000E+000	9	...........	1425.60
	12	0.8	4.97682E-005	-2.82322E-005	0.00000E+000	5.34840E-005	0.00000E+000	9	...........	1425.60
	13	0.9	5.05932E-005	-2.63825E-005	0.00000E+000	5.34840E-005	0.00000E+000	9	...........	1425.60
	14	1	4.92195E-005	-2.48149E-005	0.00000E+000	5.34840E-005	0.00000E+000	9	...........	1425.60
	15	1.1	4.86798E-005	-2.34943E-005	0.00000E+000	5.34840E-005	0.00000E+000	9	...........	1425.60
	16	1.2	5.11849E-005	-2.23604E-005	0.00000E+000	5.34840E-005	0.00000E+000	9	...........	1425.60
	17	1.3	5.05151E-005	-2.13896E-005	0.00000E+000	5.34840E-005	0.00000E+000	9	...........	1425.60
	18	1.4	4.96680E-005	-2.05652E-005	0.00000E+000	5.34840E-005	0.00000E+000	9	...........	1425.60
	19	1.5	4.87990E-005	-1.98499E-005	0.00000E+000	5.34840E-005	0.00000E+000	9	...........	1425.60
	20	1.6	4.96180E-005	-1.92178E-005	0.00000E+000	5.34840E-005	0.00000E+000	9	...........	1425.60
	21	1.7	4.86007E-005	-1.86665E-005	0.00000E+000	5.34840E-005	0.00000E+000	9	...........	1425.78
	22	1.8	4.90823E-005	-1.81757E-005	0.00000E+000	5.34840E-005	0.00000E+000	9	...........	1425.78
	23	1.9	5.07674E-005	-1.77304E-005	0.00000E+000	5.34840E-005	0.00000E+000	9	...........	1425.78
	24	2	5.02387E-005	-1.73469E-005	0.00000E+000	5.34840E-005	0.00000E+000	9	...........	1425.78
	25	2.1	4.99223E-005	-1.69961E-005	0.00000E+000	5.34840E-005	0.00000E+000	9	...........	1425.78
	26	2.2	4.91053E-005	-1.66932E-005	0.00000E+000	5.34840E-005	0.00000E+000	9	...........	1425.78
	27	2.3	4.99274E-005	-1.64024E-005	0.00000E+000	5.34840E-005	0.00000E+000	9	...........	1425.78
	28	2.4	4.93937E-005	-1.61499E-005	0.00000E+000	5.34840E-005	0.00000E+000	9	...........	1425.78
	29	2.5	5.04640E-005	-1.59146E-005	0.00000E+000	5.34840E-005	0.00000E+000	9	...........	1425.78
	30	2.6	4.95519E-005	-1.57000E-005	0.00000E+000	5.34840E-005	0.00000E+000	9	...........	1425.78
	31	2.7	5.00625E-005	-1.55045E-005	0.00000E+000	5.34840E-005	0.00000E+000	9	...........	1426.04
	32	2.8	4.89081E-005	-1.53240E-005	0.00000E+000	5.34840E-005	0.00000E+000	9	...........	1426.04
	33	2.9	4.96230E-005	-1.51480E-005	0.00000E+000	5.34840E-005	0.00000E+000	9	...........	1426.04
	34	3	4.92145E-005	-1.49914E-005	0.00000E+000	5.34840E-005	0.00000E+000	9	...........	1426.04
	35	3.1	4.93066E-005	-1.48409E-005	0.00000E+000	5.34840E-005	0.00000E+000	9	...........	1426.04
	36	3.2	4.96991E-005	-1.47024E-005	0.00000E+000	5.34840E-005	0.00000E+000	9	...........	1426.04
	37	3.3	5.05852E-005	-1.45752E-005	0.00000E+000	5.34840E-005	0.00000E+000	9	...........	1426.04
	38	3.4	5.10147E-005	-1.44620E-005	0.00000E+000	5.34840E-005	0.00000E+000	9	...........	1426.04
	39	3.5	4.96961E-005	-1.43471E-005	0.00000E+000	5.34840E-005	0.00000E+000	9	...........	1426.04
	40	3.6	5.07423E-005	-1.42314E-005	0.00000E+000	5.34840E-005	0.00000E+000	9	...........	1426.04
	41	3.7	4.84355E-005	-1.41447E-005	0.00000E+000	5.34840E-005	0.00000E+000	9	...........	1425.69
	42	3.8	5.10437E-005	-1.40397E-005	0.00000E+000	5.34840E-005	0.00000E+000	9	...........	1425.69
	43	3.9	5.01536E-005	-1.39507E-005	0.00000E+000	5.34840E-005	0.00000E+000	9	...........	1425.69
	44	4	5.09035E-005	-1.38608E-005	0.00000E+000	5.34840E-005	0.00000E+000	9	...........	1425.69
	45	4.1	5.11068E-005	-1.37710E-005	0.00000E+000	5.34840E-005	0.00000E+000	9	...........	1425.69
	46	4.2	5.01166E-005	-1.36993E-005	0.00000E+000	5.34840E-005	0.00000E+000	9	...........	1425.69
	47	4.3	5.02568E-005	-1.36126E-005	0.00000E+000	5.34840E-005	0.00000E+000	9	...........	1425.69
	48	4.4	4.99193E-005	-1.35502E-005	0.00000E+000	5.34840E-005	0.00000E+000	9	...........	1425.69
	49	4.5	4.89501E-005	-1.34772E-005	0.00000E+000	5.34840E-005	0.00000E+000	9	...........	1425.69
	50	4.6	5.05812E-005	-1.34043E-005	0.00000E+000	5.34840E-005	0.00000E+000	9	...........	1425.69
	51	4.7	4.96160E-005	-1.33473E-005	0.00000E+000	5.34840E-005	0.00000E+000	9	...........	1426.13
	52	4.8	5.02347E-005	-1.32852E-005	0.00000E+000	5.34840E-005	0.00000E+000	9	...........	1426.13
	53	4.9	5.08004E-005	-1.32220E-005	0.00000E+000	5.34840E-005	0.00000E+000	9	...........	1426.13
	54	5	5.16034E-005	-1.31651E-005	0.00000E+000	5.34840E-005	0.00000E+000	9	...........	1426.13
	55	5.1	5.09326E-005	-1.31109E-005	0.00000E+000	5.34840E-005	0.00000E+000	9	...........	1426.13
	56	5.2	5.08235E-005	-1.30547E-005	0.00000E+000	5.34840E-005	0.00000E+000	9	...........	1426.13
	57	5.3	5.00976E-005	-1.30091E-005	0.00000E+000	5.34840E-005	0.00000E+000	9	...........	1426.13
	58	5.4	5.03729E-005	-1.29515E-005	0.00000E+000	5.34840E-005	0.00000E+000	9	...........	1426.13
	59	5.5	4.99193E-005	-1.29118E-005	0.00000E+000	5.34840E-005	0.00000E+000	9	...........	1426.13
	60	5.6	4.89241E-005	-1.28681E-005	0.00000E+000	5.34840E-005	0.00000E+000	9	...........	1426.13
	61	5.7	4.95499E-005	-1.28273E-005	0.00000E+000	5.34840E-005	0.00000E+000	9	...........	1425.69
	62	5.8	5.08525E-005	-1.27673E-005	0.00000E+000	5.34840E-005	0.00000E+000	9	...........	1425.69
	63	5.9	4.93787E-005	-1.27337E-005	0.00000E+000	5.34840E-005	0.00000E+000	9	...........	1425.69
	64	6	5.05942E-005	-1.26957E-005	0.00000E+000	5.34840E-005	0.00000E+000	9	...........	1425.69
	65	6.1	4.97982E-005	-1.26538E-005	0.00000E+000	5.34840E-005	0.00000E+000	9	...........	1425.69
	66	7.1	4.84325E-005	-1.23129E-005	0.00000E+000	5.34840E-005	0.00000E+000	9	...........	1426.13
	67	8.1	4.76646E-005	-1.20658E-005	0.00000E+000	5.34840E-005	0.00000E+000	9	...........	1426.13
	68	9.1	4.93246E-005	-1.18695E-005	0.00000E+000	5.34840E-005	0.00000E+000	9	...........	1426.22
	69	10.1	5.00415E-005	-1.17181E-005	0.00000E+000	5.34840E-005	0.00000E+000	9	...........	1426.22
	70	11.1	4.96140E-005	-1.15887E-005	0.00000E+000	5.34840E-005	0.00000E+000	9	...........	1426.22
	71	12.1	5.01536E-005	-1.14897E-005	0.00000E+000	5.34840E-005	0.00000E+000	9	...........	1426.22
	72	13.1	4.92816E-005	-1.14145E-005	0.00000E+000	5.34840E-005	0.00000E+000	9	...........	1426.22
	73	14.1	4.91855E-005	-1.13588E-005	0.00000E+000	5.34840E-005	0.00000E+000	9	...........	1426.22
	74	15.1	4.96430E-005	-1.13067E-005	0.00000E+000	5.34840E-005	0.00000E+000	9	...........	1426.13
	75	16.1	4.98523E-005	-1.12880E-005	0.00000E+000	5.34840E-005	0.00000E+000	9	...........	1426.22
	76	26.1	4.95048E-005	-1.13368E-005	0.00000E+000	5.34840E-005	0.00000E+000	9	...........	1426.22
	77	36.1	4.94968E-005	-1.14619E-005	0.00000E+000	5.34840E-005	0.00000E+000	9	...........	1426.13
	78	46.1	4.96430E-005	-1.19181E-005	0.00000E+000	5.34840E-005	0.00000E+000	9	...........	1426.13
	79	56.1	4.89331E-005	-1.22226E-005	0.00000E+000	5.34840E-005	0.00000E+000	9	...........	1426.13
	80	66.1	5.00515E-005	-1.26892E-005	0.00000E+000	5.34840E-005	0.00000E+000	9	...........	1426.13
	81	76.1	4.95489E-005	-1.29527E-005	0.00000E+000	5.34840E-005	0.00000E+000	9	...........	1426.13
	82	86.1	4.93717E-005	-1.31757E-005	0.00000E+000	5.34840E-005	0.00000E+000	9	...........	1426.13
	83	96.1	4.91924E-005	-1.36363E-005	0.00000E+000	5.34840E-005	0.00000E+000	9	...........	1426.13
	84	106.1	4.91614E-005	-1.37905E-005	0.00000E+000	5.34840E-005	0.00000E+000	9	...........	1426.04
	85	116.1	4.75634E-005	-1.41717E-005	0.00000E+000	5.34840E-005	0.00000E+000	9	...........	1426.13
	86	216.1	4.92205E-005	-1.52394E-005	0.00000E+000	5.34840E-005	0.00000E+000	9	...........	1426.22
	87	300	4.83825E-005	-1.55923E-005	0.00000E+000	5.34840E-005	0.00000E+000	9	...........	1426.22
	88	300.1	-3.29270E-002	-4.69483E-004	0.00000E+000	-9.99460E-002	0.00000E+000	9	.........v.	1426.22
	89	300.2	-9.99732E-002	-3.90712E-004	0.00000E+000	-9.99460E-002	0.00000E+000	9	...........	1426.22
	90	300.3	-9.99744E-002	-3.35140E-004	0.00000E+000	-9.99460E-002	0.00000E+000	9	...........	1426.22
	91	300.4	-9.99721E-002	-2.93265E-004	0.00000E+000	-9.99460E-002	0.00000E+000	9	...........	1426.22
	92	300.5	-9.99739E-002	-2.60310E-004	0.00000E+000	-9.99460E-002	0.00000E+000	9	...........	1426.22
	93	300.6	-9.99741E-002	-2.33499E-004	0.00000E+000	-9.99460E-002	0.00000E+000	9	...........	1426.22
	94	300.7	-9.99741E-002	-2.11174E-004	0.00000E+000	-9.99460E-002	0.00000E+000	9	...........	1426.22
	95	300.8	-9.99744E-002	-1.92277E-004	0.00000E+000	-9.99460E-002	0.00000E+000	9	...........	1426.22
	96	300.9	-9.99747E-002	-1.76040E-004	0.00000E+000	-9.99460E-002	0.00000E+000	9	...........	1426.22
	97	301	-9.99731E-002	-1.61966E-004	0.00000E+000	-9.99460E-002	0.00000E+000	9	...........	1426.22
