EXPLAIN
TAG	CHRONOA
TITLE	LABEL	Chronoamperometry Scan	Test Identifier
DATE	LABEL	2/2/2022	Date
TIME	LABEL	17:09:04	Time
NOTES	NOTES	1	Notes...
	
PSTAT	PSTAT	IFC1010-21051	Potentiostat
VPRESTEP	POTEN	3.00000E-001	F	Pre-step Voltage (V)
TPRESTEP	QUANT	5.00000E-001	Pre-step Delay Time (s)
VSTEP1	POTEN	4.00000E-001	F	Step 1 Voltage (V)
TSTEP1	QUANT	3.00000E+002	Step 1 Time (s)
VSTEP2	POTEN	3.00000E-001	F	Step 2 Voltage (V)
TSTEP2	QUANT	1.00000E+000	Step 2 Time (s)
SAMPLETIME	QUANT	1.00000E-001	Sample Period (s)
DECIMATE	TOGGLE	T	Decimate
ILIMIT	QUANT	1.00000E+000	Limit I (mA/cm^2)
IMODE	SELECTOR	1	I/E Range Mode
IRANGE	QUANT	3.00000E-001	Max Current (mA)
EQDELAY	QUANT	5.00000E+000	Equil. Time (s)
SAMPLINGMODE	SELECTOR	1	Sampling Mode
AREA	QUANT	1.00000E+000	Sample Area (cm^2)
IRCOMP	SELECTOR	0	IRComp
PFCOR	QUANT	5.00000E+001	PF Corr. (ohm)
SEQUENCER	TOGGLE	TRUE	Run as Sequence
PSTATMODEL	IQUANT	64	Pstat Model
PSTATSECTION	LABEL	IFC1010-21051	Pstat Section
PSTATSERIALNO	LABEL	21051	Pstat Serial Number
CTRLMODE	IQUANT	1	Control Mode
ELECTROMETER	IQUANT	0	RE=0 or CS=1
IESTAB	IQUANT	0	I/E Stability
CASPEED	IQUANT	4	Control Amp Speed
CONVENTION	IQUANT	1	Current Convention
ICHRANGE	IQUANT	2	Ich Range
ICHRANGEMODE	TOGGLE	T	Ich Auto Range
ICHOFFSETENABLE	TOGGLE	F	Ich Offset Enable
ICHOFFSET	QUANT	0	Ich Offset (V)
ICHFILTER	IQUANT	3	Ich Filter
VCHRANGE	IQUANT	3	Vch Range
VCHRANGEMODE	TOGGLE	T	Vch Auto Range
VCHOFFSETENABLE	TOGGLE	F	Vch Offset Enable
VCHOFFSET	QUANT	0	Vch Offset (V)
VCHFILTER	IQUANT	3	Vch Filter
IERANGELOWERLIMIT	IQUANT	4	I/E Range Lower Limit
IERANGEMODE	TOGGLE	F	I/E AutoRange
IERANGE	IQUANT	9	I/E Range
ACHSELECT	IQUANT	0	Ach Select
ACHRANGE	IQUANT	2	Ach Range
ACHOFFSETENABLE	TOGGLE	F	Ach Offset Enable
ACHOFFSET	QUANT	0	Ach Offset (V)
ACHFILTER	IQUANT	1	Ach Filter
SENSECABLEID	IQUANT	14	Sense Cable ID
PWRCABLEID	IQUANT	14	Power Cable ID
DCCALDATE	LABEL	1/24/2022	DC Calibration Date
ACCALDATE	LABEL	4/2/2018	AC Calibration Date
FRAMEWORKVERSION	QUANT	7.06	Framework Version
INSTRUMENTVERSION	LABEL	4.30	Instrument Version
CURVE	TABLE	98
	Pt	T	Vf	Im	Vu	Sig	Ach	IERange	Over	Temp
	#	s	V vs. Ref.	A	V	V	V	#	bits	deg C
	0	-0.4	2.99514E-001	1.30834E-005	0.00000E+000	3.00072E-001	0.00000E+000	9	...........	1426.13
	1	-0.3	3.00305E-001	1.29570E-005	0.00000E+000	3.00072E-001	0.00000E+000	9	...........	1426.13
	2	-0.2	3.00306E-001	1.28613E-005	0.00000E+000	3.00072E-001	0.00000E+000	9	...........	1426.22
	3	-0.1	3.00303E-001	1.27337E-005	0.00000E+000	3.00072E-001	0.00000E+000	9	...........	1426.22
	4	0	3.00305E-001	1.26456E-005	0.00000E+000	3.00072E-001	0.00000E+000	9	...........	1426.22
	5	0.1	4.00351E-001	5.32383E-004	0.00000E+000	4.00072E-001	0.00000E+000	9	...........	1426.22
	6	0.2	4.00349E-001	4.69616E-004	0.00000E+000	4.00072E-001	0.00000E+000	9	...........	1426.22
	7	0.3	4.00352E-001	4.23375E-004	0.00000E+000	4.00072E-001	0.00000E+000	9	...........	1426.22
	8	0.4	4.00355E-001	3.87966E-004	0.00000E+000	4.00072E-001	0.00000E+000	9	...........	1426.22
	9	0.5	4.00356E-001	3.59634E-004	0.00000E+000	4.00072E-001	0.00000E+000	9	...........	1426.22
	10	0.6	4.00352E-001	3.36198E-004	0.00000E+000	4.00072E-001	0.00000E+000	9	...........	1426.22
	11	0.7	4.00344E-001	3.16636E-004	0.00000E+000	4.00072E-001	0.00000E+000	9	...........	1426.22
	12	0.8	4.00337E-001	2.99896E-004	0.00000E+000	4.00072E-001	0.00000E+000	9	...........	1425.69
	13	0.9	4.00350E-001	2.85596E-004	0.00000E+000	4.00072E-001	0.00000E+000	9	...........	1425.69
	14	1	4.00362E-001	2.73067E-004	0.00000E+000	4.00072E-001	0.00000E+000	9	...........	1425.69
	15	1.1	4.00350E-001	2.61999E-004	0.00000E+000	4.00072E-001	0.00000E+000	9	...........	1425.69
	16	1.2	4.00351E-001	2.52070E-004	0.00000E+000	4.00072E-001	0.00000E+000	9	...........	1425.69
	17	1.3	4.00332E-001	2.43204E-004	0.00000E+000	4.00072E-001	0.00000E+000	9	...........	1425.69
	18	1.4	4.00342E-001	2.35071E-004	0.00000E+000	4.00072E-001	0.00000E+000	9	...........	1425.69
	19	1.5	4.00329E-001	2.27689E-004	0.00000E+000	4.00072E-001	0.00000E+000	9	...........	1425.69
	20	1.6	4.00348E-001	2.20943E-004	0.00000E+000	4.00072E-001	0.00000E+000	9	...........	1425.69
	21	1.7	4.00354E-001	2.14679E-004	0.00000E+000	4.00072E-001	0.00000E+000	9	...........	1425.69
	22	1.8	4.00352E-001	2.08852E-004	0.00000E+000	4.00072E-001	0.00000E+000	9	...........	1425.69
	23	1.9	4.00336E-001	2.03431E-004	0.00000E+000	4.00072E-001	0.00000E+000	9	...........	1425.69
	24	2	4.00340E-001	1.98382E-004	0.00000E+000	4.00072E-001	0.00000E+000	9	...........	1425.69
	25	2.1	4.00328E-001	1.93676E-004	0.00000E+000	4.00072E-001	0.00000E+000	9	...........	1425.69
	26	2.2	4.00348E-001	1.89161E-004	0.00000E+000	4.00072E-001	0.00000E+000	9	...........	1425.69
	27	2.3	4.00349E-001	1.85004E-004	0.00000E+000	4.00072E-001	0.00000E+000	9	...........	1425.69
	28	2.4	4.00344E-001	1.81068E-004	0.00000E+000	4.00072E-001	0.00000E+000	9	...........	1425.69
	29	2.5	4.00359E-001	1.77284E-004	0.00000E+000	4.00072E-001	0.00000E+000	9	...........	1425.69
	30	2.6	4.00346E-001	1.73695E-004	0.00000E+000	4.00072E-001	0.00000E+000	9	...........	1425.69
	31	2.7	4.00359E-001	1.70352E-004	0.00000E+000	4.00072E-001	0.00000E+000	9	...........	1425.69
	32	2.8	4.00356E-001	1.67162E-004	0.00000E+000	4.00072E-001	0.00000E+000	9	...........	1425.87
	33	2.9	4.00363E-001	1.64056E-004	0.00000E+000	4.00072E-001	0.00000E+000	9	...........	1425.87
	34	3	4.00355E-001	1.61167E-004	0.00000E+000	4.00072E-001	0.00000E+000	9	...........	1425.87
	35	3.1	4.00357E-001	1.58377E-004	0.00000E+000	4.00072E-001	0.00000E+000	9	...........	1425.87
	36	3.2	4.00346E-001	1.55698E-004	0.00000E+000	4.00072E-001	0.00000E+000	9	...........	1425.87
	37	3.3	4.00347E-001	1.53105E-004	0.00000E+000	4.00072E-001	0.00000E+000	9	...........	1425.87
	38	3.4	4.00349E-001	1.50667E-004	0.00000E+000	4.00072E-001	0.00000E+000	9	...........	1425.87
	39	3.5	4.00350E-001	1.48266E-004	0.00000E+000	4.00072E-001	0.00000E+000	9	...........	1425.87
	40	3.6	4.00357E-001	1.46023E-004	0.00000E+000	4.00072E-001	0.00000E+000	9	...........	1425.87
	41	3.7	4.00345E-001	1.43804E-004	0.00000E+000	4.00072E-001	0.00000E+000	9	...........	1425.87
	42	3.8	4.00350E-001	1.41637E-004	0.00000E+000	4.00072E-001	0.00000E+000	9	...........	1425.69
	43	3.9	4.00352E-001	1.39634E-004	0.00000E+000	4.00072E-001	0.00000E+000	9	...........	1425.69
	44	4	4.00358E-001	1.37646E-004	0.00000E+000	4.00072E-001	0.00000E+000	9	...........	1425.69
	45	4.1	4.00346E-001	1.35702E-004	0.00000E+000	4.00072E-001	0.00000E+000	9	...........	1425.69
	46	4.2	4.00339E-001	1.33836E-004	0.00000E+000	4.00072E-001	0.00000E+000	9	...........	1425.69
	47	4.3	4.00342E-001	1.31990E-004	0.00000E+000	4.00072E-001	0.00000E+000	9	...........	1425.69
	48	4.4	4.00351E-001	1.30204E-004	0.00000E+000	4.00072E-001	0.00000E+000	9	...........	1425.69
	49	4.5	4.00339E-001	1.28499E-004	0.00000E+000	4.00072E-001	0.00000E+000	9	...........	1425.69
	50	4.6	4.00342E-001	1.26842E-004	0.00000E+000	4.00072E-001	0.00000E+000	9	...........	1425.69
	51	4.7	4.00353E-001	1.25248E-004	0.00000E+000	4.00072E-001	0.00000E+000	9	...........	1425.69
	52	4.8	4.00361E-001	1.23652E-004	0.00000E+000	4.00072E-001	0.00000E+000	9	...........	1425.78
	53	4.9	4.00355E-001	1.22117E-004	0.00000E+000	4.00072E-001	0.00000E+000	9	...........	1425.78
	54	5	4.00357E-001	1.20592E-004	0.00000E+000	4.00072E-001	0.00000E+000	9	...........	1425.78
	55	5.1	4.00352E-001	1.19142E-004	0.00000E+000	4.00072E-001	0.00000E+000	9	...........	1425.78
	56	5.2	4.00356E-001	1.17693E-004	0.00000E+000	4.00072E-001	0.00000E+000	9	...........	1425.78
	57	5.3	4.00355E-001	1.16314E-004	0.00000E+000	4.00072E-001	0.00000E+000	9	...........	1425.78
	58	5.4	4.00361E-001	1.14879E-004	0.00000E+000	4.00072E-001	0.00000E+000	9	...........	1425.78
	59	5.5	4.00351E-001	1.13583E-004	0.00000E+000	4.00072E-001	0.00000E+000	9	...........	1425.78
	60	5.6	4.00344E-001	1.12256E-004	0.00000E+000	4.00072E-001	0.00000E+000	9	...........	1425.78
	61	5.7	4.00348E-001	1.11021E-004	0.00000E+000	4.00072E-001	0.00000E+000	9	...........	1425.78
	62	5.8	4.00350E-001	1.09734E-004	0.00000E+000	4.00072E-001	0.00000E+000	9	...........	1425.95
	63	5.9	4.00349E-001	1.08488E-004	0.00000E+000	4.00072E-001	0.00000E+000	9	...........	1425.95
	64	6	4.00355E-001	1.07265E-004	0.00000E+000	4.00072E-001	0.00000E+000	9	...........	1425.95
	65	6.1	4.00345E-001	1.06073E-004	0.00000E+000	4.00072E-001	0.00000E+000	9	...........	1425.95
	66	7.1	4.00345E-001	9.55438E-005	0.00000E+000	4.00072E-001	0.00000E+000	9	...........	1425.78
	67	8.1	4.00359E-001	8.66828E-005	0.00000E+000	4.00072E-001	0.00000E+000	9	...........	1426.13
	68	9.1	4.00345E-001	7.92261E-005	0.00000E+000	4.00072E-001	0.00000E+000	9	...........	1426.13
	69	10.1	4.00349E-001	7.30256E-005	0.00000E+000	4.00072E-001	0.00000E+000	9	...........	1426.13
	70	11.1	4.00358E-001	6.78949E-005	0.00000E+000	4.00072E-001	0.00000E+000	9	...........	1426.13
	71	12.1	4.00345E-001	6.35418E-005	0.00000E+000	4.00072E-001	0.00000E+000	9	...........	1426.13
	72	13.1	4.00340E-001	5.98729E-005	0.00000E+000	4.00072E-001	0.00000E+000	9	...........	1426.13
	73	14.1	4.00343E-001	5.67550E-005	0.00000E+000	4.00072E-001	0.00000E+000	9	...........	1426.13
	74	15.1	4.00355E-001	5.39523E-005	0.00000E+000	4.00072E-001	0.00000E+000	9	...........	1426.13
	75	16.1	4.00364E-001	5.15786E-005	0.00000E+000	4.00072E-001	0.00000E+000	9	...........	1426.22
	76	26.1	4.00353E-001	3.67006E-005	0.00000E+000	4.00072E-001	0.00000E+000	9	...........	1426.13
	77	36.1	4.00355E-001	3.02940E-005	0.00000E+000	4.00072E-001	0.00000E+000	9	...........	1426.13
	78	46.1	4.00350E-001	2.68544E-005	0.00000E+000	4.00072E-001	0.00000E+000	9	...........	1426.13
	79	56.1	4.00353E-001	2.45527E-005	0.00000E+000	4.00072E-001	0.00000E+000	9	...........	1426.13
	80	66.1	4.00341E-001	2.31358E-005	0.00000E+000	4.00072E-001	0.00000E+000	9	...........	1426.13
	81	76.1	4.00353E-001	2.20641E-005	0.00000E+000	4.00072E-001	0.00000E+000	9	...........	1426.13
	82	86.1	4.00350E-001	2.12376E-005	0.00000E+000	4.00072E-001	0.00000E+000	9	...........	1426.13
	83	96.1	4.00357E-001	2.05029E-005	0.00000E+000	4.00072E-001	0.00000E+000	9	...........	1426.13
	84	106.1	4.00363E-001	2.00512E-005	0.00000E+000	4.00072E-001	0.00000E+000	9	...........	1426.13
	85	116.1	4.00369E-001	1.94400E-005	0.00000E+000	4.00072E-001	0.00000E+000	9	...........	1426.13
	86	216.1	4.00352E-001	1.68860E-005	0.00000E+000	4.00072E-001	0.00000E+000	9	...........	1426.13
	87	300	4.00350E-001	1.29258E-005	0.00000E+000	4.00072E-001	0.00000E+000	9	...........	1426.13
	88	300.1	3.00319E-001	-8.14072E-005	0.00000E+000	3.00072E-001	0.00000E+000	9	...........	1426.13
	89	300.2	3.00308E-001	-7.66672E-005	0.00000E+000	3.00072E-001	0.00000E+000	9	...........	1426.13
	90	300.3	3.00301E-001	-7.24672E-005	0.00000E+000	3.00072E-001	0.00000E+000	9	...........	1426.13
	91	300.4	3.00308E-001	-6.98235E-005	0.00000E+000	3.00072E-001	0.00000E+000	9	...........	1426.13
	92	300.5	3.00305E-001	-6.78645E-005	0.00000E+000	3.00072E-001	0.00000E+000	9	...........	1426.13
	93	300.6	3.00313E-001	-6.59490E-005	0.00000E+000	3.00072E-001	0.00000E+000	9	...........	1426.13
	94	300.7	3.00305E-001	-6.42040E-005	0.00000E+000	3.00072E-001	0.00000E+000	9	...........	1426.13
	95	300.8	3.00297E-001	-6.25494E-005	0.00000E+000	3.00072E-001	0.00000E+000	9	...........	1426.13
	96	300.9	3.00307E-001	-6.14692E-005	0.00000E+000	3.00072E-001	0.00000E+000	9	...........	1426.13
	97	301	3.00296E-001	-6.02726E-005	0.00000E+000	3.00072E-001	0.00000E+000	9	...........	1426.13
