EXPLAIN
TAG	CHRONOA
TITLE	LABEL	Chronoamperometry Scan	Test Identifier
DATE	LABEL	2/2/2022	Date
TIME	LABEL	14:57:34	Time
NOTES	NOTES	1	Notes...
	
PSTAT	PSTAT	IFC1010-21051	Potentiostat
VPRESTEP	POTEN	-3.00000E-001	F	Pre-step Voltage (V)
TPRESTEP	QUANT	5.00000E-001	Pre-step Delay Time (s)
VSTEP1	POTEN	-4.00000E-001	F	Step 1 Voltage (V)
TSTEP1	QUANT	3.00000E+002	Step 1 Time (s)
VSTEP2	POTEN	-5.00000E-001	F	Step 2 Voltage (V)
TSTEP2	QUANT	1.00000E+000	Step 2 Time (s)
SAMPLETIME	QUANT	1.00000E-001	Sample Period (s)
DECIMATE	TOGGLE	T	Decimate
ILIMIT	QUANT	1.00000E+000	Limit I (mA/cm^2)
IMODE	SELECTOR	1	I/E Range Mode
IRANGE	QUANT	3.00000E-001	Max Current (mA)
EQDELAY	QUANT	5.00000E+000	Equil. Time (s)
SAMPLINGMODE	SELECTOR	1	Sampling Mode
AREA	QUANT	1.00000E+000	Sample Area (cm^2)
IRCOMP	SELECTOR	0	IRComp
PFCOR	QUANT	5.00000E+001	PF Corr. (ohm)
SEQUENCER	TOGGLE	TRUE	Run as Sequence
PSTATMODEL	IQUANT	64	Pstat Model
PSTATSECTION	LABEL	IFC1010-21051	Pstat Section
PSTATSERIALNO	LABEL	21051	Pstat Serial Number
CTRLMODE	IQUANT	1	Control Mode
ELECTROMETER	IQUANT	0	RE=0 or CS=1
IESTAB	IQUANT	0	I/E Stability
CASPEED	IQUANT	4	Control Amp Speed
CONVENTION	IQUANT	1	Current Convention
ICHRANGE	IQUANT	2	Ich Range
ICHRANGEMODE	TOGGLE	T	Ich Auto Range
ICHOFFSETENABLE	TOGGLE	F	Ich Offset Enable
ICHOFFSET	QUANT	0	Ich Offset (V)
ICHFILTER	IQUANT	3	Ich Filter
VCHRANGE	IQUANT	3	Vch Range
VCHRANGEMODE	TOGGLE	T	Vch Auto Range
VCHOFFSETENABLE	TOGGLE	F	Vch Offset Enable
VCHOFFSET	QUANT	0	Vch Offset (V)
VCHFILTER	IQUANT	3	Vch Filter
IERANGELOWERLIMIT	IQUANT	4	I/E Range Lower Limit
IERANGEMODE	TOGGLE	F	I/E AutoRange
IERANGE	IQUANT	9	I/E Range
ACHSELECT	IQUANT	0	Ach Select
ACHRANGE	IQUANT	2	Ach Range
ACHOFFSETENABLE	TOGGLE	F	Ach Offset Enable
ACHOFFSET	QUANT	0	Ach Offset (V)
ACHFILTER	IQUANT	1	Ach Filter
SENSECABLEID	IQUANT	14	Sense Cable ID
PWRCABLEID	IQUANT	14	Power Cable ID
DCCALDATE	LABEL	1/24/2022	DC Calibration Date
ACCALDATE	LABEL	4/2/2018	AC Calibration Date
FRAMEWORKVERSION	QUANT	7.06	Framework Version
INSTRUMENTVERSION	LABEL	4.30	Instrument Version
CURVE	TABLE	98
	Pt	T	Vf	Im	Vu	Sig	Ach	IERange	Over	Temp
	#	s	V vs. Ref.	A	V	V	V	#	bits	deg C
	0	-0.4	-3.01296E-001	-1.01977E-004	0.00000E+000	-3.00011E-001	0.00000E+000	9	...........	1426.22
	1	-0.3	-3.00685E-001	-1.01748E-004	0.00000E+000	-3.00011E-001	0.00000E+000	9	...........	1426.22
	2	-0.2	-3.00694E-001	-1.01491E-004	0.00000E+000	-3.00011E-001	0.00000E+000	9	...........	1426.22
	3	-0.1	-3.00692E-001	-1.01260E-004	0.00000E+000	-3.00011E-001	0.00000E+000	9	...........	1426.22
	4	0	-3.00687E-001	-1.01016E-004	0.00000E+000	-3.00011E-001	0.00000E+000	9	...........	1426.22
	5	0.1	-4.00727E-001	-5.56161E-004	0.00000E+000	-4.00011E-001	0.00000E+000	9	...........	1426.22
	6	0.2	-4.00722E-001	-4.72389E-004	0.00000E+000	-4.00011E-001	0.00000E+000	9	...........	1426.22
	7	0.3	-4.00723E-001	-4.20684E-004	0.00000E+000	-4.00011E-001	0.00000E+000	9	...........	1426.22
	8	0.4	-4.00730E-001	-3.86966E-004	0.00000E+000	-4.00011E-001	0.00000E+000	9	...........	1426.22
	9	0.5	-4.00724E-001	-3.63665E-004	0.00000E+000	-4.00011E-001	0.00000E+000	9	...........	1426.22
	10	0.6	-4.00731E-001	-3.46574E-004	0.00000E+000	-4.00011E-001	0.00000E+000	9	...........	1426.22
	11	0.7	-4.00741E-001	-3.33413E-004	0.00000E+000	-4.00011E-001	0.00000E+000	9	...........	1426.22
	12	0.8	-4.00743E-001	-3.22835E-004	0.00000E+000	-4.00011E-001	0.00000E+000	9	...........	1426.22
	13	0.9	-4.00728E-001	-3.14023E-004	0.00000E+000	-4.00011E-001	0.00000E+000	9	...........	1425.95
	14	1	-4.00732E-001	-3.06529E-004	0.00000E+000	-4.00011E-001	0.00000E+000	9	...........	1425.95
	15	1.1	-4.00735E-001	-2.99992E-004	0.00000E+000	-4.00011E-001	0.00000E+000	9	...........	1425.95
	16	1.2	-4.00711E-001	-2.94120E-004	0.00000E+000	-4.00011E-001	0.00000E+000	9	...........	1425.95
	17	1.3	-4.00739E-001	-2.88958E-004	0.00000E+000	-4.00011E-001	0.00000E+000	9	...........	1425.95
	18	1.4	-4.00730E-001	-2.84232E-004	0.00000E+000	-4.00011E-001	0.00000E+000	9	...........	1425.95
	19	1.5	-4.00747E-001	-2.79908E-004	0.00000E+000	-4.00011E-001	0.00000E+000	9	...........	1425.95
	20	1.6	-4.00737E-001	-2.75899E-004	0.00000E+000	-4.00011E-001	0.00000E+000	9	...........	1425.95
	21	1.7	-4.00745E-001	-2.72181E-004	0.00000E+000	-4.00011E-001	0.00000E+000	9	...........	1425.95
	22	1.8	-4.00745E-001	-2.68661E-004	0.00000E+000	-4.00011E-001	0.00000E+000	9	...........	1425.95
	23	1.9	-4.00737E-001	-2.65389E-004	0.00000E+000	-4.00011E-001	0.00000E+000	9	...........	1426.22
	24	2	-4.00731E-001	-2.62334E-004	0.00000E+000	-4.00011E-001	0.00000E+000	9	...........	1426.22
	25	2.1	-4.00725E-001	-2.59403E-004	0.00000E+000	-4.00011E-001	0.00000E+000	9	...........	1426.22
	26	2.2	-4.00715E-001	-2.56616E-004	0.00000E+000	-4.00011E-001	0.00000E+000	9	...........	1426.22
	27	2.3	-4.00727E-001	-2.53998E-004	0.00000E+000	-4.00011E-001	0.00000E+000	9	...........	1426.22
	28	2.4	-4.00723E-001	-2.51468E-004	0.00000E+000	-4.00011E-001	0.00000E+000	9	...........	1426.22
	29	2.5	-4.00720E-001	-2.49065E-004	0.00000E+000	-4.00011E-001	0.00000E+000	9	...........	1426.22
	30	2.6	-4.00731E-001	-2.46788E-004	0.00000E+000	-4.00011E-001	0.00000E+000	9	...........	1426.22
	31	2.7	-4.00721E-001	-2.44550E-004	0.00000E+000	-4.00011E-001	0.00000E+000	9	...........	1426.22
	32	2.8	-4.00731E-001	-2.42473E-004	0.00000E+000	-4.00011E-001	0.00000E+000	9	...........	1426.22
	33	2.9	-4.00741E-001	-2.40454E-004	0.00000E+000	-4.00011E-001	0.00000E+000	9	...........	1426.22
	34	3	-4.00750E-001	-2.38461E-004	0.00000E+000	-4.00011E-001	0.00000E+000	9	...........	1426.22
	35	3.1	-4.00722E-001	-2.36559E-004	0.00000E+000	-4.00011E-001	0.00000E+000	9	...........	1426.22
	36	3.2	-4.00744E-001	-2.34791E-004	0.00000E+000	-4.00011E-001	0.00000E+000	9	...........	1426.22
	37	3.3	-4.00734E-001	-2.32987E-004	0.00000E+000	-4.00011E-001	0.00000E+000	9	...........	1426.22
	38	3.4	-4.00733E-001	-2.31282E-004	0.00000E+000	-4.00011E-001	0.00000E+000	9	...........	1426.22
	39	3.5	-4.00724E-001	-2.29638E-004	0.00000E+000	-4.00011E-001	0.00000E+000	9	...........	1426.22
	40	3.6	-4.00736E-001	-2.28091E-004	0.00000E+000	-4.00011E-001	0.00000E+000	9	...........	1426.22
	41	3.7	-4.00750E-001	-2.26506E-004	0.00000E+000	-4.00011E-001	0.00000E+000	9	...........	1426.22
	42	3.8	-4.00730E-001	-2.25020E-004	0.00000E+000	-4.00011E-001	0.00000E+000	9	...........	1426.22
	43	3.9	-4.00733E-001	-2.23567E-004	0.00000E+000	-4.00011E-001	0.00000E+000	9	...........	1426.13
	44	4	-4.00722E-001	-2.22140E-004	0.00000E+000	-4.00011E-001	0.00000E+000	9	...........	1426.13
	45	4.1	-4.00739E-001	-2.20749E-004	0.00000E+000	-4.00011E-001	0.00000E+000	9	...........	1426.13
	46	4.2	-4.00736E-001	-2.19443E-004	0.00000E+000	-4.00011E-001	0.00000E+000	9	...........	1426.13
	47	4.3	-4.00731E-001	-2.18128E-004	0.00000E+000	-4.00011E-001	0.00000E+000	9	...........	1426.13
	48	4.4	-4.00736E-001	-2.16822E-004	0.00000E+000	-4.00011E-001	0.00000E+000	9	...........	1426.13
	49	4.5	-4.00731E-001	-2.15580E-004	0.00000E+000	-4.00011E-001	0.00000E+000	9	...........	1426.13
	50	4.6	-4.00738E-001	-2.14392E-004	0.00000E+000	-4.00011E-001	0.00000E+000	9	...........	1426.13
	51	4.7	-4.00725E-001	-2.13216E-004	0.00000E+000	-4.00011E-001	0.00000E+000	9	...........	1426.13
	52	4.8	-4.00720E-001	-2.12021E-004	0.00000E+000	-4.00011E-001	0.00000E+000	9	...........	1426.13
	53	4.9	-4.00733E-001	-2.10931E-004	0.00000E+000	-4.00011E-001	0.00000E+000	9	...........	1425.78
	54	5	-4.00727E-001	-2.09853E-004	0.00000E+000	-4.00011E-001	0.00000E+000	9	...........	1425.78
	55	5.1	-4.00734E-001	-2.08766E-004	0.00000E+000	-4.00011E-001	0.00000E+000	9	...........	1425.78
	56	5.2	-4.00744E-001	-2.07695E-004	0.00000E+000	-4.00011E-001	0.00000E+000	9	...........	1425.78
	57	5.3	-4.00741E-001	-2.06683E-004	0.00000E+000	-4.00011E-001	0.00000E+000	9	...........	1425.78
	58	5.4	-4.00732E-001	-2.05728E-004	0.00000E+000	-4.00011E-001	0.00000E+000	9	...........	1425.78
	59	5.5	-4.00738E-001	-2.04723E-004	0.00000E+000	-4.00011E-001	0.00000E+000	9	...........	1425.78
	60	5.6	-4.00732E-001	-2.03754E-004	0.00000E+000	-4.00011E-001	0.00000E+000	9	...........	1425.78
	61	5.7	-4.00728E-001	-2.02786E-004	0.00000E+000	-4.00011E-001	0.00000E+000	9	...........	1425.78
	62	5.8	-4.00747E-001	-2.01842E-004	0.00000E+000	-4.00011E-001	0.00000E+000	9	...........	1425.78
	63	5.9	-4.00748E-001	-2.00953E-004	0.00000E+000	-4.00011E-001	0.00000E+000	9	...........	1426.13
	64	6	-4.00747E-001	-2.00032E-004	0.00000E+000	-4.00011E-001	0.00000E+000	9	...........	1426.13
	65	6.1	-4.00748E-001	-1.99182E-004	0.00000E+000	-4.00011E-001	0.00000E+000	9	...........	1426.13
	66	7.1	-4.00740E-001	-1.91264E-004	0.00000E+000	-4.00011E-001	0.00000E+000	9	...........	1426.04
	67	8.1	-4.00741E-001	-1.84527E-004	0.00000E+000	-4.00011E-001	0.00000E+000	9	...........	1426.22
	68	9.1	-4.00722E-001	-1.78691E-004	0.00000E+000	-4.00011E-001	0.00000E+000	9	...........	1426.22
	69	10.1	-4.00732E-001	-1.73678E-004	0.00000E+000	-4.00011E-001	0.00000E+000	9	...........	1426.22
	70	11.1	-4.00729E-001	-1.69217E-004	0.00000E+000	-4.00011E-001	0.00000E+000	9	...........	1426.22
	71	12.1	-4.00736E-001	-1.65226E-004	0.00000E+000	-4.00011E-001	0.00000E+000	9	...........	1426.22
	72	13.1	-4.00743E-001	-1.61708E-004	0.00000E+000	-4.00011E-001	0.00000E+000	9	...........	1426.22
	73	14.1	-4.00738E-001	-1.58420E-004	0.00000E+000	-4.00011E-001	0.00000E+000	9	...........	1426.22
	74	15.1	-4.00741E-001	-1.55543E-004	0.00000E+000	-4.00011E-001	0.00000E+000	9	...........	1426.31
	75	16.1	-4.00727E-001	-1.52877E-004	0.00000E+000	-4.00011E-001	0.00000E+000	9	...........	1426.22
	76	26.1	-4.00722E-001	-1.33787E-004	0.00000E+000	-4.00011E-001	0.00000E+000	9	...........	1426.31
	77	36.1	-4.00743E-001	-1.22565E-004	0.00000E+000	-4.00011E-001	0.00000E+000	9	...........	1426.31
	78	46.1	-4.00744E-001	-1.14923E-004	0.00000E+000	-4.00011E-001	0.00000E+000	9	...........	1426.31
	79	56.1	-4.00739E-001	-1.09330E-004	0.00000E+000	-4.00011E-001	0.00000E+000	9	...........	1426.31
	80	66.1	-4.00726E-001	-1.04990E-004	0.00000E+000	-4.00011E-001	0.00000E+000	9	...........	1426.31
	81	76.1	-4.00726E-001	-1.01484E-004	0.00000E+000	-4.00011E-001	0.00000E+000	9	...........	1426.31
	82	86.1	-4.00721E-001	-9.85554E-005	0.00000E+000	-4.00011E-001	0.00000E+000	9	...........	1426.31
	83	96.1	-4.00729E-001	-9.60645E-005	0.00000E+000	-4.00011E-001	0.00000E+000	9	...........	1426.31
	84	106.1	-4.00726E-001	-9.40063E-005	0.00000E+000	-4.00011E-001	0.00000E+000	9	...........	1426.31
	85	116.1	-4.00722E-001	-9.23867E-005	0.00000E+000	-4.00011E-001	0.00000E+000	9	...........	1426.31
	86	216.1	-4.00724E-001	-8.36144E-005	0.00000E+000	-4.00011E-001	0.00000E+000	9	...........	1426.31
	87	300	-4.00732E-001	-8.01272E-005	0.00000E+000	-4.00011E-001	0.00000E+000	9	...........	1426.31
	88	300.1	-5.00743E-001	-5.07524E-004	0.00000E+000	-5.00010E-001	0.00000E+000	9	...........	1426.31
	89	300.2	-5.00749E-001	-4.01185E-004	0.00000E+000	-5.00010E-001	0.00000E+000	9	...........	1426.31
	90	300.3	-5.00737E-001	-3.41509E-004	0.00000E+000	-5.00010E-001	0.00000E+000	9	...........	1426.31
	91	300.4	-5.00750E-001	-3.03916E-004	0.00000E+000	-5.00010E-001	0.00000E+000	9	...........	1426.31
	92	300.5	-5.00743E-001	-2.78291E-004	0.00000E+000	-5.00010E-001	0.00000E+000	9	...........	1426.31
	93	300.6	-5.00744E-001	-2.59878E-004	0.00000E+000	-5.00010E-001	0.00000E+000	9	...........	1426.31
	94	300.7	-5.00738E-001	-2.45934E-004	0.00000E+000	-5.00010E-001	0.00000E+000	9	...........	1426.31
	95	300.8	-5.00746E-001	-2.34996E-004	0.00000E+000	-5.00010E-001	0.00000E+000	9	...........	1426.31
	96	300.9	-5.00749E-001	-2.26171E-004	0.00000E+000	-5.00010E-001	0.00000E+000	9	...........	1426.31
	97	301	-5.00742E-001	-2.18845E-004	0.00000E+000	-5.00010E-001	0.00000E+000	9	...........	1426.31
