EXPLAIN
TAG	CHRONOA
TITLE	LABEL	Chronoamperometry Scan	Test Identifier
DATE	LABEL	2/2/2022	Date
TIME	LABEL	12:09:15	Time
NOTES	NOTES	1	Notes...
	
PSTAT	PSTAT	IFC1010-21051	Potentiostat
VPRESTEP	POTEN	3.00000E-001	F	Pre-step Voltage (V)
TPRESTEP	QUANT	5.00000E-001	Pre-step Delay Time (s)
VSTEP1	POTEN	4.00000E-001	F	Step 1 Voltage (V)
TSTEP1	QUANT	3.00000E+002	Step 1 Time (s)
VSTEP2	POTEN	3.00000E-001	F	Step 2 Voltage (V)
TSTEP2	QUANT	1.00000E+000	Step 2 Time (s)
SAMPLETIME	QUANT	1.00000E-001	Sample Period (s)
DECIMATE	TOGGLE	T	Decimate
ILIMIT	QUANT	1.00000E+000	Limit I (mA/cm^2)
IMODE	SELECTOR	1	I/E Range Mode
IRANGE	QUANT	3.00000E-001	Max Current (mA)
EQDELAY	QUANT	5.00000E+000	Equil. Time (s)
SAMPLINGMODE	SELECTOR	1	Sampling Mode
AREA	QUANT	1.00000E+000	Sample Area (cm^2)
IRCOMP	SELECTOR	0	IRComp
PFCOR	QUANT	5.00000E+001	PF Corr. (ohm)
SEQUENCER	TOGGLE	TRUE	Run as Sequence
PSTATMODEL	IQUANT	64	Pstat Model
PSTATSECTION	LABEL	IFC1010-21051	Pstat Section
PSTATSERIALNO	LABEL	21051	Pstat Serial Number
CTRLMODE	IQUANT	1	Control Mode
ELECTROMETER	IQUANT	0	RE=0 or CS=1
IESTAB	IQUANT	0	I/E Stability
CASPEED	IQUANT	4	Control Amp Speed
CONVENTION	IQUANT	1	Current Convention
ICHRANGE	IQUANT	2	Ich Range
ICHRANGEMODE	TOGGLE	T	Ich Auto Range
ICHOFFSETENABLE	TOGGLE	F	Ich Offset Enable
ICHOFFSET	QUANT	0	Ich Offset (V)
ICHFILTER	IQUANT	3	Ich Filter
VCHRANGE	IQUANT	3	Vch Range
VCHRANGEMODE	TOGGLE	T	Vch Auto Range
VCHOFFSETENABLE	TOGGLE	F	Vch Offset Enable
VCHOFFSET	QUANT	0	Vch Offset (V)
VCHFILTER	IQUANT	3	Vch Filter
IERANGELOWERLIMIT	IQUANT	4	I/E Range Lower Limit
IERANGEMODE	TOGGLE	F	I/E AutoRange
IERANGE	IQUANT	9	I/E Range
ACHSELECT	IQUANT	0	Ach Select
ACHRANGE	IQUANT	2	Ach Range
ACHOFFSETENABLE	TOGGLE	F	Ach Offset Enable
ACHOFFSET	QUANT	0	Ach Offset (V)
ACHFILTER	IQUANT	1	Ach Filter
SENSECABLEID	IQUANT	14	Sense Cable ID
PWRCABLEID	IQUANT	14	Power Cable ID
DCCALDATE	LABEL	1/24/2022	DC Calibration Date
ACCALDATE	LABEL	4/2/2018	AC Calibration Date
FRAMEWORKVERSION	QUANT	7.06	Framework Version
INSTRUMENTVERSION	LABEL	4.30	Instrument Version
CURVE	TABLE	98
	Pt	T	Vf	Im	Vu	Sig	Ach	IERange	Over	Temp
	#	s	V vs. Ref.	A	V	V	V	#	bits	deg C
	0	-0.4	2.99565E-001	8.95432E-006	0.00000E+000	3.00072E-001	0.00000E+000	9	...........	1426.04
	1	-0.3	3.00307E-001	8.82552E-006	0.00000E+000	3.00072E-001	0.00000E+000	9	...........	1426.04
	2	-0.2	3.00296E-001	8.74744E-006	0.00000E+000	3.00072E-001	0.00000E+000	9	...........	1426.04
	3	-0.1	3.00295E-001	8.61974E-006	0.00000E+000	3.00072E-001	0.00000E+000	9	...........	1426.04
	4	0	3.00300E-001	8.55868E-006	0.00000E+000	3.00072E-001	0.00000E+000	9	...........	1426.04
	5	0.1	4.00356E-001	5.52678E-004	0.00000E+000	4.00072E-001	0.00000E+000	9	...........	1425.95
	6	0.2	4.00356E-001	4.74124E-004	0.00000E+000	4.00072E-001	0.00000E+000	9	...........	1425.95
	7	0.3	4.00350E-001	4.17254E-004	0.00000E+000	4.00072E-001	0.00000E+000	9	...........	1425.95
	8	0.4	4.00347E-001	3.73314E-004	0.00000E+000	4.00072E-001	0.00000E+000	9	...........	1425.95
	9	0.5	4.00355E-001	3.38167E-004	0.00000E+000	4.00072E-001	0.00000E+000	9	...........	1425.95
	10	0.6	4.00357E-001	3.09472E-004	0.00000E+000	4.00072E-001	0.00000E+000	9	...........	1425.95
	11	0.7	4.00354E-001	2.85455E-004	0.00000E+000	4.00072E-001	0.00000E+000	9	...........	1425.95
	12	0.8	4.00360E-001	2.65137E-004	0.00000E+000	4.00072E-001	0.00000E+000	9	...........	1425.95
	13	0.9	4.00343E-001	2.47784E-004	0.00000E+000	4.00072E-001	0.00000E+000	9	...........	1425.95
	14	1	4.00344E-001	2.32707E-004	0.00000E+000	4.00072E-001	0.00000E+000	9	...........	1425.95
	15	1.1	4.00352E-001	2.19539E-004	0.00000E+000	4.00072E-001	0.00000E+000	9	...........	1425.95
	16	1.2	4.00352E-001	2.07923E-004	0.00000E+000	4.00072E-001	0.00000E+000	9	...........	1425.95
	17	1.3	4.00355E-001	1.97714E-004	0.00000E+000	4.00072E-001	0.00000E+000	9	...........	1425.95
	18	1.4	4.00335E-001	1.88458E-004	0.00000E+000	4.00072E-001	0.00000E+000	9	...........	1425.95
	19	1.5	4.00338E-001	1.80242E-004	0.00000E+000	4.00072E-001	0.00000E+000	9	...........	1425.95
	20	1.6	4.00350E-001	1.72775E-004	0.00000E+000	4.00072E-001	0.00000E+000	9	...........	1425.95
	21	1.7	4.00365E-001	1.65992E-004	0.00000E+000	4.00072E-001	0.00000E+000	9	...........	1425.95
	22	1.8	4.00340E-001	1.59816E-004	0.00000E+000	4.00072E-001	0.00000E+000	9	...........	1425.95
	23	1.9	4.00351E-001	1.54154E-004	0.00000E+000	4.00072E-001	0.00000E+000	9	...........	1425.95
	24	2	4.00350E-001	1.48894E-004	0.00000E+000	4.00072E-001	0.00000E+000	9	...........	1425.95
	25	2.1	4.00336E-001	1.44089E-004	0.00000E+000	4.00072E-001	0.00000E+000	9	...........	1425.95
	26	2.2	4.00363E-001	1.39671E-004	0.00000E+000	4.00072E-001	0.00000E+000	9	...........	1425.95
	27	2.3	4.00362E-001	1.35515E-004	0.00000E+000	4.00072E-001	0.00000E+000	9	...........	1425.95
	28	2.4	4.00343E-001	1.31599E-004	0.00000E+000	4.00072E-001	0.00000E+000	9	...........	1425.95
	29	2.5	4.00360E-001	1.28047E-004	0.00000E+000	4.00072E-001	0.00000E+000	9	...........	1425.95
	30	2.6	4.00354E-001	1.24678E-004	0.00000E+000	4.00072E-001	0.00000E+000	9	...........	1425.95
	31	2.7	4.00354E-001	1.21470E-004	0.00000E+000	4.00072E-001	0.00000E+000	9	...........	1425.95
	32	2.8	4.00346E-001	1.18461E-004	0.00000E+000	4.00072E-001	0.00000E+000	9	...........	1425.95
	33	2.9	4.00364E-001	1.15692E-004	0.00000E+000	4.00072E-001	0.00000E+000	9	...........	1425.95
	34	3	4.00355E-001	1.12995E-004	0.00000E+000	4.00072E-001	0.00000E+000	9	...........	1425.95
	35	3.1	4.00361E-001	1.10479E-004	0.00000E+000	4.00072E-001	0.00000E+000	9	...........	1425.51
	36	3.2	4.00354E-001	1.08085E-004	0.00000E+000	4.00072E-001	0.00000E+000	9	...........	1425.51
	37	3.3	4.00360E-001	1.05859E-004	0.00000E+000	4.00072E-001	0.00000E+000	9	...........	1425.51
	38	3.4	4.00357E-001	1.03710E-004	0.00000E+000	4.00072E-001	0.00000E+000	9	...........	1425.51
	39	3.5	4.00356E-001	1.01642E-004	0.00000E+000	4.00072E-001	0.00000E+000	9	...........	1425.51
	40	3.6	4.00335E-001	9.96975E-005	0.00000E+000	4.00072E-001	0.00000E+000	9	...........	1425.51
	41	3.7	4.00360E-001	9.77949E-005	0.00000E+000	4.00072E-001	0.00000E+000	9	...........	1425.51
	42	3.8	4.00358E-001	9.60451E-005	0.00000E+000	4.00072E-001	0.00000E+000	9	...........	1425.51
	43	3.9	4.00352E-001	9.43218E-005	0.00000E+000	4.00072E-001	0.00000E+000	9	...........	1425.51
	44	4	4.00350E-001	9.26755E-005	0.00000E+000	4.00072E-001	0.00000E+000	9	...........	1425.51
	45	4.1	4.00344E-001	9.10565E-005	0.00000E+000	4.00072E-001	0.00000E+000	9	...........	1425.51
	46	4.2	4.00355E-001	8.95877E-005	0.00000E+000	4.00072E-001	0.00000E+000	9	...........	1425.51
	47	4.3	4.00361E-001	8.81331E-005	0.00000E+000	4.00072E-001	0.00000E+000	9	...........	1425.51
	48	4.4	4.00373E-001	8.66749E-005	0.00000E+000	4.00072E-001	0.00000E+000	9	...........	1425.51
	49	4.5	4.00353E-001	8.53407E-005	0.00000E+000	4.00072E-001	0.00000E+000	9	...........	1425.51
	50	4.6	4.00346E-001	8.40388E-005	0.00000E+000	4.00072E-001	0.00000E+000	9	...........	1425.51
	51	4.7	4.00355E-001	8.28063E-005	0.00000E+000	4.00072E-001	0.00000E+000	9	...........	1425.51
	52	4.8	4.00360E-001	8.15832E-005	0.00000E+000	4.00072E-001	0.00000E+000	9	...........	1425.51
	53	4.9	4.00351E-001	8.03780E-005	0.00000E+000	4.00072E-001	0.00000E+000	9	...........	1425.51
	54	5	4.00349E-001	7.92445E-005	0.00000E+000	4.00072E-001	0.00000E+000	9	...........	1425.51
	55	5.1	4.00359E-001	7.81697E-005	0.00000E+000	4.00072E-001	0.00000E+000	9	...........	1425.51
	56	5.2	4.00351E-001	7.70655E-005	0.00000E+000	4.00072E-001	0.00000E+000	9	...........	1425.51
	57	5.3	4.00348E-001	7.60085E-005	0.00000E+000	4.00072E-001	0.00000E+000	9	...........	1425.51
	58	5.4	4.00349E-001	7.50325E-005	0.00000E+000	4.00072E-001	0.00000E+000	9	...........	1425.51
	59	5.5	4.00360E-001	7.40686E-005	0.00000E+000	4.00072E-001	0.00000E+000	9	...........	1425.51
	60	5.6	4.00360E-001	7.30904E-005	0.00000E+000	4.00072E-001	0.00000E+000	9	...........	1425.51
	61	5.7	4.00360E-001	7.22250E-005	0.00000E+000	4.00072E-001	0.00000E+000	9	...........	1425.51
	62	5.8	4.00360E-001	7.13275E-005	0.00000E+000	4.00072E-001	0.00000E+000	9	...........	1425.51
	63	5.9	4.00360E-001	7.04564E-005	0.00000E+000	4.00072E-001	0.00000E+000	9	...........	1425.51
	64	6	4.00351E-001	6.95776E-005	0.00000E+000	4.00072E-001	0.00000E+000	9	...........	1425.51
	65	6.1	4.00357E-001	6.88090E-005	0.00000E+000	4.00072E-001	0.00000E+000	9	...........	1425.51
	66	7.1	4.00348E-001	6.17357E-005	0.00000E+000	4.00072E-001	0.00000E+000	9	...........	1425.51
	67	8.1	4.00348E-001	5.61970E-005	0.00000E+000	4.00072E-001	0.00000E+000	9	...........	1426.04
	68	9.1	4.00367E-001	5.16545E-005	0.00000E+000	4.00072E-001	0.00000E+000	9	...........	1425.95
	69	10.1	4.00365E-001	4.79688E-005	0.00000E+000	4.00072E-001	0.00000E+000	9	...........	1425.95
	70	11.1	4.00350E-001	4.48554E-005	0.00000E+000	4.00072E-001	0.00000E+000	9	...........	1425.95
	71	12.1	4.00349E-001	4.21722E-005	0.00000E+000	4.00072E-001	0.00000E+000	9	...........	1426.04
	72	13.1	4.00348E-001	3.99248E-005	0.00000E+000	4.00072E-001	0.00000E+000	9	...........	1426.04
	73	14.1	4.00356E-001	3.79702E-005	0.00000E+000	4.00072E-001	0.00000E+000	9	...........	1425.95
	74	15.1	4.00356E-001	3.62677E-005	0.00000E+000	4.00072E-001	0.00000E+000	9	...........	1425.95
	75	16.1	4.00354E-001	3.46847E-005	0.00000E+000	4.00072E-001	0.00000E+000	9	...........	1425.95
	76	26.1	4.00361E-001	2.57120E-005	0.00000E+000	4.00072E-001	0.00000E+000	9	...........	1426.04
	77	36.1	4.00355E-001	2.19515E-005	0.00000E+000	4.00072E-001	0.00000E+000	9	...........	1426.04
	78	46.1	4.00349E-001	1.99375E-005	0.00000E+000	4.00072E-001	0.00000E+000	9	...........	1425.95
	79	56.1	4.00350E-001	1.88310E-005	0.00000E+000	4.00072E-001	0.00000E+000	9	...........	1426.04
	80	66.1	4.00360E-001	1.81248E-005	0.00000E+000	4.00072E-001	0.00000E+000	9	...........	1425.95
	81	76.1	4.00344E-001	1.76733E-005	0.00000E+000	4.00072E-001	0.00000E+000	9	...........	1425.95
	82	86.1	4.00353E-001	1.73351E-005	0.00000E+000	4.00072E-001	0.00000E+000	9	...........	1426.04
	83	96.1	4.00339E-001	1.70527E-005	0.00000E+000	4.00072E-001	0.00000E+000	9	...........	1425.95
	84	106.1	4.00372E-001	1.67965E-005	0.00000E+000	4.00072E-001	0.00000E+000	9	...........	1426.04
	85	116.1	4.00353E-001	1.65745E-005	0.00000E+000	4.00072E-001	0.00000E+000	9	...........	1425.95
	86	216.1	4.00369E-001	1.58513E-005	0.00000E+000	4.00072E-001	0.00000E+000	9	...........	1425.95
	87	300	4.00339E-001	1.57916E-005	0.00000E+000	4.00072E-001	0.00000E+000	9	...........	1426.04
	88	300.1	3.00308E-001	-4.82857E-004	0.00000E+000	3.00072E-001	0.00000E+000	9	...........	1426.04
	89	300.2	3.00310E-001	-4.24808E-004	0.00000E+000	3.00072E-001	0.00000E+000	9	...........	1426.04
	90	300.3	3.00316E-001	-3.77602E-004	0.00000E+000	3.00072E-001	0.00000E+000	9	...........	1426.04
	91	300.4	3.00311E-001	-3.37407E-004	0.00000E+000	3.00072E-001	0.00000E+000	9	...........	1426.04
	92	300.5	3.00300E-001	-3.02695E-004	0.00000E+000	3.00072E-001	0.00000E+000	9	...........	1426.04
	93	300.6	3.00312E-001	-2.72415E-004	0.00000E+000	3.00072E-001	0.00000E+000	9	...........	1426.04
	94	300.7	3.00307E-001	-2.46017E-004	0.00000E+000	3.00072E-001	0.00000E+000	9	...........	1426.04
	95	300.8	3.00312E-001	-2.23064E-004	0.00000E+000	3.00072E-001	0.00000E+000	9	...........	1426.04
	96	300.9	3.00310E-001	-2.03177E-004	0.00000E+000	3.00072E-001	0.00000E+000	9	...........	1426.04
	97	301	3.00307E-001	-1.86013E-004	0.00000E+000	3.00072E-001	0.00000E+000	9	...........	1426.04
