EXPLAIN
TAG	CHRONOA
TITLE	LABEL	Chronoamperometry Scan	Test Identifier
DATE	LABEL	2/2/2022	Date
TIME	LABEL	17:20:24	Time
NOTES	NOTES	1	Notes...
	
PSTAT	PSTAT	IFC1010-21051	Potentiostat
VPRESTEP	POTEN	-3.00000E-001	F	Pre-step Voltage (V)
TPRESTEP	QUANT	5.00000E-001	Pre-step Delay Time (s)
VSTEP1	POTEN	-4.00000E-001	F	Step 1 Voltage (V)
TSTEP1	QUANT	3.00000E+002	Step 1 Time (s)
VSTEP2	POTEN	-5.00000E-001	F	Step 2 Voltage (V)
TSTEP2	QUANT	1.00000E+000	Step 2 Time (s)
SAMPLETIME	QUANT	1.00000E-001	Sample Period (s)
DECIMATE	TOGGLE	T	Decimate
ILIMIT	QUANT	1.00000E+000	Limit I (mA/cm^2)
IMODE	SELECTOR	1	I/E Range Mode
IRANGE	QUANT	3.00000E-001	Max Current (mA)
EQDELAY	QUANT	5.00000E+000	Equil. Time (s)
SAMPLINGMODE	SELECTOR	1	Sampling Mode
AREA	QUANT	1.00000E+000	Sample Area (cm^2)
IRCOMP	SELECTOR	0	IRComp
PFCOR	QUANT	5.00000E+001	PF Corr. (ohm)
SEQUENCER	TOGGLE	TRUE	Run as Sequence
PSTATMODEL	IQUANT	64	Pstat Model
PSTATSECTION	LABEL	IFC1010-21051	Pstat Section
PSTATSERIALNO	LABEL	21051	Pstat Serial Number
CTRLMODE	IQUANT	1	Control Mode
ELECTROMETER	IQUANT	0	RE=0 or CS=1
IESTAB	IQUANT	0	I/E Stability
CASPEED	IQUANT	4	Control Amp Speed
CONVENTION	IQUANT	1	Current Convention
ICHRANGE	IQUANT	2	Ich Range
ICHRANGEMODE	TOGGLE	T	Ich Auto Range
ICHOFFSETENABLE	TOGGLE	F	Ich Offset Enable
ICHOFFSET	QUANT	0	Ich Offset (V)
ICHFILTER	IQUANT	3	Ich Filter
VCHRANGE	IQUANT	3	Vch Range
VCHRANGEMODE	TOGGLE	T	Vch Auto Range
VCHOFFSETENABLE	TOGGLE	F	Vch Offset Enable
VCHOFFSET	QUANT	0	Vch Offset (V)
VCHFILTER	IQUANT	3	Vch Filter
IERANGELOWERLIMIT	IQUANT	4	I/E Range Lower Limit
IERANGEMODE	TOGGLE	F	I/E AutoRange
IERANGE	IQUANT	9	I/E Range
ACHSELECT	IQUANT	0	Ach Select
ACHRANGE	IQUANT	2	Ach Range
ACHOFFSETENABLE	TOGGLE	F	Ach Offset Enable
ACHOFFSET	QUANT	0	Ach Offset (V)
ACHFILTER	IQUANT	1	Ach Filter
SENSECABLEID	IQUANT	14	Sense Cable ID
PWRCABLEID	IQUANT	14	Power Cable ID
DCCALDATE	LABEL	1/24/2022	DC Calibration Date
ACCALDATE	LABEL	4/2/2018	AC Calibration Date
FRAMEWORKVERSION	QUANT	7.06	Framework Version
INSTRUMENTVERSION	LABEL	4.30	Instrument Version
CURVE	TABLE	98
	Pt	T	Vf	Im	Vu	Sig	Ach	IERange	Over	Temp
	#	s	V vs. Ref.	A	V	V	V	#	bits	deg C
	0	-0.4	-3.01283E-001	-9.61836E-005	0.00000E+000	-3.00011E-001	0.00000E+000	9	...........	1426.22
	1	-0.3	-3.00691E-001	-9.60046E-005	0.00000E+000	-3.00011E-001	0.00000E+000	9	...........	1426.22
	2	-0.2	-3.00686E-001	-9.57946E-005	0.00000E+000	-3.00011E-001	0.00000E+000	9	...........	1426.22
	3	-0.1	-3.00694E-001	-9.56071E-005	0.00000E+000	-3.00011E-001	0.00000E+000	9	...........	1426.22
	4	0	-3.00693E-001	-9.54251E-005	0.00000E+000	-3.00011E-001	0.00000E+000	9	...........	1426.22
	5	0.1	-4.00735E-001	-4.06717E-004	0.00000E+000	-4.00011E-001	0.00000E+000	9	...........	1426.22
	6	0.2	-4.00733E-001	-3.73488E-004	0.00000E+000	-4.00011E-001	0.00000E+000	9	...........	1426.22
	7	0.3	-4.00730E-001	-3.53618E-004	0.00000E+000	-4.00011E-001	0.00000E+000	9	...........	1426.22
	8	0.4	-4.00729E-001	-3.40009E-004	0.00000E+000	-4.00011E-001	0.00000E+000	9	...........	1426.22
	9	0.5	-4.00740E-001	-3.29827E-004	0.00000E+000	-4.00011E-001	0.00000E+000	9	...........	1426.22
	10	0.6	-4.00743E-001	-3.21771E-004	0.00000E+000	-4.00011E-001	0.00000E+000	9	...........	1426.22
	11	0.7	-4.00747E-001	-3.15026E-004	0.00000E+000	-4.00011E-001	0.00000E+000	9	...........	1426.22
	12	0.8	-4.00749E-001	-3.09202E-004	0.00000E+000	-4.00011E-001	0.00000E+000	9	...........	1426.13
	13	0.9	-4.00728E-001	-3.03986E-004	0.00000E+000	-4.00011E-001	0.00000E+000	9	...........	1426.13
	14	1	-4.00728E-001	-2.99428E-004	0.00000E+000	-4.00011E-001	0.00000E+000	9	...........	1426.13
	15	1.1	-4.00737E-001	-2.95207E-004	0.00000E+000	-4.00011E-001	0.00000E+000	9	...........	1426.13
	16	1.2	-4.00735E-001	-2.91218E-004	0.00000E+000	-4.00011E-001	0.00000E+000	9	...........	1426.13
	17	1.3	-4.00739E-001	-2.87575E-004	0.00000E+000	-4.00011E-001	0.00000E+000	9	...........	1426.13
	18	1.4	-4.00737E-001	-2.84141E-004	0.00000E+000	-4.00011E-001	0.00000E+000	9	...........	1426.13
	19	1.5	-4.00738E-001	-2.80886E-004	0.00000E+000	-4.00011E-001	0.00000E+000	9	...........	1426.13
	20	1.6	-4.00730E-001	-2.77762E-004	0.00000E+000	-4.00011E-001	0.00000E+000	9	...........	1426.13
	21	1.7	-4.00737E-001	-2.74904E-004	0.00000E+000	-4.00011E-001	0.00000E+000	9	...........	1426.13
	22	1.8	-4.00729E-001	-2.72145E-004	0.00000E+000	-4.00011E-001	0.00000E+000	9	...........	1426.13
	23	1.9	-4.00739E-001	-2.69554E-004	0.00000E+000	-4.00011E-001	0.00000E+000	9	...........	1426.13
	24	2	-4.00729E-001	-2.66991E-004	0.00000E+000	-4.00011E-001	0.00000E+000	9	...........	1426.13
	25	2.1	-4.00720E-001	-2.64587E-004	0.00000E+000	-4.00011E-001	0.00000E+000	9	...........	1426.13
	26	2.2	-4.00725E-001	-2.62327E-004	0.00000E+000	-4.00011E-001	0.00000E+000	9	...........	1426.13
	27	2.3	-4.00722E-001	-2.60095E-004	0.00000E+000	-4.00011E-001	0.00000E+000	9	...........	1426.13
	28	2.4	-4.00730E-001	-2.57906E-004	0.00000E+000	-4.00011E-001	0.00000E+000	9	...........	1426.13
	29	2.5	-4.00732E-001	-2.55913E-004	0.00000E+000	-4.00011E-001	0.00000E+000	9	...........	1426.13
	30	2.6	-4.00739E-001	-2.53839E-004	0.00000E+000	-4.00011E-001	0.00000E+000	9	...........	1426.13
	31	2.7	-4.00732E-001	-2.51873E-004	0.00000E+000	-4.00011E-001	0.00000E+000	9	...........	1426.13
	32	2.8	-4.00738E-001	-2.49970E-004	0.00000E+000	-4.00011E-001	0.00000E+000	9	...........	1426.13
	33	2.9	-4.00732E-001	-2.48208E-004	0.00000E+000	-4.00011E-001	0.00000E+000	9	...........	1426.13
	34	3	-4.00732E-001	-2.46520E-004	0.00000E+000	-4.00011E-001	0.00000E+000	9	...........	1426.13
	35	3.1	-4.00734E-001	-2.44863E-004	0.00000E+000	-4.00011E-001	0.00000E+000	9	...........	1426.13
	36	3.2	-4.00726E-001	-2.43178E-004	0.00000E+000	-4.00011E-001	0.00000E+000	9	...........	1426.13
	37	3.3	-4.00739E-001	-2.41555E-004	0.00000E+000	-4.00011E-001	0.00000E+000	9	...........	1426.13
	38	3.4	-4.00725E-001	-2.39974E-004	0.00000E+000	-4.00011E-001	0.00000E+000	9	...........	1426.13
	39	3.5	-4.00726E-001	-2.38433E-004	0.00000E+000	-4.00011E-001	0.00000E+000	9	...........	1426.13
	40	3.6	-4.00723E-001	-2.36975E-004	0.00000E+000	-4.00011E-001	0.00000E+000	9	...........	1426.13
	41	3.7	-4.00737E-001	-2.35553E-004	0.00000E+000	-4.00011E-001	0.00000E+000	9	...........	1426.13
	42	3.8	-4.00724E-001	-2.34056E-004	0.00000E+000	-4.00011E-001	0.00000E+000	9	...........	1426.13
	43	3.9	-4.00727E-001	-2.32690E-004	0.00000E+000	-4.00011E-001	0.00000E+000	9	...........	1426.13
	44	4	-4.00738E-001	-2.31336E-004	0.00000E+000	-4.00011E-001	0.00000E+000	9	...........	1426.13
	45	4.1	-4.00737E-001	-2.30064E-004	0.00000E+000	-4.00011E-001	0.00000E+000	9	...........	1426.13
	46	4.2	-4.00736E-001	-2.28765E-004	0.00000E+000	-4.00011E-001	0.00000E+000	9	...........	1426.13
	47	4.3	-4.00748E-001	-2.27530E-004	0.00000E+000	-4.00011E-001	0.00000E+000	9	...........	1426.13
	48	4.4	-4.00741E-001	-2.26342E-004	0.00000E+000	-4.00011E-001	0.00000E+000	9	...........	1426.13
	49	4.5	-4.00732E-001	-2.25084E-004	0.00000E+000	-4.00011E-001	0.00000E+000	9	...........	1426.13
	50	4.6	-4.00727E-001	-2.23928E-004	0.00000E+000	-4.00011E-001	0.00000E+000	9	...........	1426.13
	51	4.7	-4.00738E-001	-2.22847E-004	0.00000E+000	-4.00011E-001	0.00000E+000	9	...........	1426.13
	52	4.8	-4.00726E-001	-2.21672E-004	0.00000E+000	-4.00011E-001	0.00000E+000	9	...........	1426.13
	53	4.9	-4.00746E-001	-2.20632E-004	0.00000E+000	-4.00011E-001	0.00000E+000	9	...........	1426.13
	54	5	-4.00750E-001	-2.19576E-004	0.00000E+000	-4.00011E-001	0.00000E+000	9	...........	1426.13
	55	5.1	-4.00743E-001	-2.18517E-004	0.00000E+000	-4.00011E-001	0.00000E+000	9	...........	1426.13
	56	5.2	-4.00731E-001	-2.17510E-004	0.00000E+000	-4.00011E-001	0.00000E+000	9	...........	1426.13
	57	5.3	-4.00739E-001	-2.16492E-004	0.00000E+000	-4.00011E-001	0.00000E+000	9	...........	1426.13
	58	5.4	-4.00737E-001	-2.15456E-004	0.00000E+000	-4.00011E-001	0.00000E+000	9	...........	1426.13
	59	5.5	-4.00719E-001	-2.14502E-004	0.00000E+000	-4.00011E-001	0.00000E+000	9	...........	1426.13
	60	5.6	-4.00722E-001	-2.13521E-004	0.00000E+000	-4.00011E-001	0.00000E+000	9	...........	1426.13
	61	5.7	-4.00730E-001	-2.12559E-004	0.00000E+000	-4.00011E-001	0.00000E+000	9	...........	1426.13
	62	5.8	-4.00725E-001	-2.11642E-004	0.00000E+000	-4.00011E-001	0.00000E+000	9	...........	1426.13
	63	5.9	-4.00731E-001	-2.10783E-004	0.00000E+000	-4.00011E-001	0.00000E+000	9	...........	1426.13
	64	6	-4.00722E-001	-2.09872E-004	0.00000E+000	-4.00011E-001	0.00000E+000	9	...........	1426.13
	65	6.1	-4.00726E-001	-2.09017E-004	0.00000E+000	-4.00011E-001	0.00000E+000	9	...........	1426.13
	66	7.1	-4.00730E-001	-2.01141E-004	0.00000E+000	-4.00011E-001	0.00000E+000	9	...........	1426.04
	67	8.1	-4.00729E-001	-1.94289E-004	0.00000E+000	-4.00011E-001	0.00000E+000	9	...........	1426.13
	68	9.1	-4.00722E-001	-1.88399E-004	0.00000E+000	-4.00011E-001	0.00000E+000	9	...........	1426.13
	69	10.1	-4.00729E-001	-1.83218E-004	0.00000E+000	-4.00011E-001	0.00000E+000	9	...........	1426.13
	70	11.1	-4.00743E-001	-1.78634E-004	0.00000E+000	-4.00011E-001	0.00000E+000	9	...........	1426.22
	71	12.1	-4.00733E-001	-1.74433E-004	0.00000E+000	-4.00011E-001	0.00000E+000	9	...........	1426.13
	72	13.1	-4.00737E-001	-1.70635E-004	0.00000E+000	-4.00011E-001	0.00000E+000	9	...........	1426.22
	73	14.1	-4.00734E-001	-1.67229E-004	0.00000E+000	-4.00011E-001	0.00000E+000	9	...........	1426.13
	74	15.1	-4.00735E-001	-1.64063E-004	0.00000E+000	-4.00011E-001	0.00000E+000	9	...........	1426.13
	75	16.1	-4.00735E-001	-1.61148E-004	0.00000E+000	-4.00011E-001	0.00000E+000	9	...........	1426.13
	76	26.1	-4.00732E-001	-1.40663E-004	0.00000E+000	-4.00011E-001	0.00000E+000	9	...........	1426.22
	77	36.1	-4.00735E-001	-1.28600E-004	0.00000E+000	-4.00011E-001	0.00000E+000	9	...........	1426.22
	78	46.1	-4.00727E-001	-1.20258E-004	0.00000E+000	-4.00011E-001	0.00000E+000	9	...........	1426.22
	79	56.1	-4.00745E-001	-1.14034E-004	0.00000E+000	-4.00011E-001	0.00000E+000	9	...........	1426.22
	80	66.1	-4.00731E-001	-1.09246E-004	0.00000E+000	-4.00011E-001	0.00000E+000	9	...........	1426.22
	81	76.1	-4.00733E-001	-1.05237E-004	0.00000E+000	-4.00011E-001	0.00000E+000	9	...........	1426.22
	82	86.1	-4.00736E-001	-1.02024E-004	0.00000E+000	-4.00011E-001	0.00000E+000	9	...........	1426.31
	83	96.1	-4.00728E-001	-9.93590E-005	0.00000E+000	-4.00011E-001	0.00000E+000	9	...........	1426.22
	84	106.1	-4.00732E-001	-9.70931E-005	0.00000E+000	-4.00011E-001	0.00000E+000	9	...........	1426.22
	85	116.1	-4.00732E-001	-9.52749E-005	0.00000E+000	-4.00011E-001	0.00000E+000	9	...........	1426.22
	86	216.1	-4.00733E-001	-8.58316E-005	0.00000E+000	-4.00011E-001	0.00000E+000	9	...........	1426.22
	87	300	-4.00733E-001	-8.23211E-005	0.00000E+000	-4.00011E-001	0.00000E+000	9	...........	1426.22
	88	300.1	-5.00756E-001	-4.02314E-004	0.00000E+000	-5.00010E-001	0.00000E+000	9	...........	1426.22
	89	300.2	-5.00750E-001	-3.43478E-004	0.00000E+000	-5.00010E-001	0.00000E+000	9	...........	1426.22
	90	300.3	-5.00754E-001	-3.09639E-004	0.00000E+000	-5.00010E-001	0.00000E+000	9	...........	1426.22
	91	300.4	-5.00732E-001	-2.87221E-004	0.00000E+000	-5.00010E-001	0.00000E+000	9	...........	1426.22
	92	300.5	-5.00746E-001	-2.71051E-004	0.00000E+000	-5.00010E-001	0.00000E+000	9	...........	1426.22
	93	300.6	-5.00731E-001	-2.58693E-004	0.00000E+000	-5.00010E-001	0.00000E+000	9	...........	1426.22
	94	300.7	-5.00741E-001	-2.48834E-004	0.00000E+000	-5.00010E-001	0.00000E+000	9	...........	1426.22
	95	300.8	-5.00733E-001	-2.40720E-004	0.00000E+000	-5.00010E-001	0.00000E+000	9	...........	1426.22
	96	300.9	-5.00737E-001	-2.33925E-004	0.00000E+000	-5.00010E-001	0.00000E+000	9	...........	1426.22
	97	301	-5.00741E-001	-2.28062E-004	0.00000E+000	-5.00010E-001	0.00000E+000	9	...........	1426.22
