EXPLAIN
TAG	CHRONOA
TITLE	LABEL	Chronoamperometry Scan	Test Identifier
DATE	LABEL	2/2/2022	Date
TIME	LABEL	13:57:06	Time
NOTES	NOTES	1	Notes...
	
PSTAT	PSTAT	IFC1010-21051	Potentiostat
VPRESTEP	POTEN	1.00000E-002	F	Pre-step Voltage (V)
TPRESTEP	QUANT	5.00000E-001	Pre-step Delay Time (s)
VSTEP1	POTEN	0.00000E+000	F	Step 1 Voltage (V)
TSTEP1	QUANT	3.00000E+002	Step 1 Time (s)
VSTEP2	POTEN	-1.00000E-001	T	Step 2 Voltage (V)
TSTEP2	QUANT	1.00000E+000	Step 2 Time (s)
SAMPLETIME	QUANT	1.00000E-001	Sample Period (s)
DECIMATE	TOGGLE	T	Decimate
ILIMIT	QUANT	1.00000E+000	Limit I (mA/cm^2)
IMODE	SELECTOR	1	I/E Range Mode
IRANGE	QUANT	3.00000E-001	Max Current (mA)
EQDELAY	QUANT	5.00000E+000	Equil. Time (s)
SAMPLINGMODE	SELECTOR	1	Sampling Mode
AREA	QUANT	1.00000E+000	Sample Area (cm^2)
IRCOMP	SELECTOR	0	IRComp
PFCOR	QUANT	5.00000E+001	PF Corr. (ohm)
SEQUENCER	TOGGLE	TRUE	Run as Sequence
PSTATMODEL	IQUANT	64	Pstat Model
PSTATSECTION	LABEL	IFC1010-21051	Pstat Section
PSTATSERIALNO	LABEL	21051	Pstat Serial Number
CTRLMODE	IQUANT	1	Control Mode
ELECTROMETER	IQUANT	0	RE=0 or CS=1
IESTAB	IQUANT	0	I/E Stability
CASPEED	IQUANT	4	Control Amp Speed
CONVENTION	IQUANT	1	Current Convention
ICHRANGE	IQUANT	2	Ich Range
ICHRANGEMODE	TOGGLE	T	Ich Auto Range
ICHOFFSETENABLE	TOGGLE	F	Ich Offset Enable
ICHOFFSET	QUANT	0	Ich Offset (V)
ICHFILTER	IQUANT	3	Ich Filter
VCHRANGE	IQUANT	3	Vch Range
VCHRANGEMODE	TOGGLE	T	Vch Auto Range
VCHOFFSETENABLE	TOGGLE	F	Vch Offset Enable
VCHOFFSET	QUANT	0	Vch Offset (V)
VCHFILTER	IQUANT	3	Vch Filter
IERANGELOWERLIMIT	IQUANT	4	I/E Range Lower Limit
IERANGEMODE	TOGGLE	F	I/E AutoRange
IERANGE	IQUANT	9	I/E Range
ACHSELECT	IQUANT	0	Ach Select
ACHRANGE	IQUANT	2	Ach Range
ACHOFFSETENABLE	TOGGLE	F	Ach Offset Enable
ACHOFFSET	QUANT	0	Ach Offset (V)
ACHFILTER	IQUANT	1	Ach Filter
SENSECABLEID	IQUANT	14	Sense Cable ID
PWRCABLEID	IQUANT	14	Power Cable ID
DCCALDATE	LABEL	1/24/2022	DC Calibration Date
ACCALDATE	LABEL	4/2/2018	AC Calibration Date
FRAMEWORKVERSION	QUANT	7.06	Framework Version
INSTRUMENTVERSION	LABEL	4.30	Instrument Version
CURVE	TABLE	98
	Pt	T	Vf	Im	Vu	Sig	Ach	IERange	Over	Temp
	#	s	V vs. Ref.	A	V	V	V	#	bits	deg C
	0	-0.4	9.18627E-003	-1.74744E-005	0.00000E+000	1.00559E-002	0.00000E+000	9	...........	1426.22
	1	-0.3	9.88131E-003	-1.73390E-005	0.00000E+000	1.00559E-002	0.00000E+000	9	...........	1426.22
	2	-0.2	1.00362E-002	-1.72185E-005	0.00000E+000	1.00559E-002	0.00000E+000	9	...........	1426.22
	3	-0.1	1.00515E-002	-1.71013E-005	0.00000E+000	1.00559E-002	0.00000E+000	9	...........	1426.22
	4	0	1.00523E-002	-1.69807E-005	0.00000E+000	1.00559E-002	0.00000E+000	9	...........	1426.22
	5	0.1	4.44025E-005	-6.03105E-005	0.00000E+000	5.34840E-005	0.00000E+000	9	...........	1426.22
	6	0.2	4.41392E-005	-5.04686E-005	0.00000E+000	5.34840E-005	0.00000E+000	9	...........	1426.22
	7	0.3	4.42884E-005	-4.36095E-005	0.00000E+000	5.34840E-005	0.00000E+000	9	...........	1426.22
	8	0.4	4.44877E-005	-3.85692E-005	0.00000E+000	5.34840E-005	0.00000E+000	9	...........	1426.22
	9	0.5	4.53207E-005	-3.47693E-005	0.00000E+000	5.34840E-005	0.00000E+000	9	...........	1426.22
	10	0.6	4.51855E-005	-3.18381E-005	0.00000E+000	5.34840E-005	0.00000E+000	9	...........	1426.22
	11	0.7	4.34754E-005	-2.95343E-005	0.00000E+000	5.34840E-005	0.00000E+000	9	...........	1426.13
	12	0.8	4.44496E-005	-2.76989E-005	0.00000E+000	5.34840E-005	0.00000E+000	9	...........	1426.13
	13	0.9	4.30329E-005	-2.62126E-005	0.00000E+000	5.34840E-005	0.00000E+000	9	...........	1426.13
	14	1	4.43946E-005	-2.49893E-005	0.00000E+000	5.34840E-005	0.00000E+000	9	...........	1426.13
	15	1.1	4.40161E-005	-2.39787E-005	0.00000E+000	5.34840E-005	0.00000E+000	9	...........	1426.13
	16	1.2	4.51575E-005	-2.31301E-005	0.00000E+000	5.34840E-005	0.00000E+000	9	...........	1426.13
	17	1.3	4.39450E-005	-2.24070E-005	0.00000E+000	5.34840E-005	0.00000E+000	9	...........	1426.13
	18	1.4	4.42574E-005	-2.17944E-005	0.00000E+000	5.34840E-005	0.00000E+000	9	...........	1426.13
	19	1.5	4.41963E-005	-2.12601E-005	0.00000E+000	5.34840E-005	0.00000E+000	9	...........	1426.13
	20	1.6	4.43265E-005	-2.07952E-005	0.00000E+000	5.34840E-005	0.00000E+000	9	...........	1426.13
	21	1.7	4.51215E-005	-2.03821E-005	0.00000E+000	5.34840E-005	0.00000E+000	9	...........	1426.57
	22	1.8	4.32221E-005	-2.00271E-005	0.00000E+000	5.34840E-005	0.00000E+000	9	...........	1426.57
	23	1.9	4.27786E-005	-1.97194E-005	0.00000E+000	5.34840E-005	0.00000E+000	9	...........	1426.57
	24	2	4.36416E-005	-1.94256E-005	0.00000E+000	5.34840E-005	0.00000E+000	9	...........	1426.57
	25	2.1	4.36436E-005	-1.91637E-005	0.00000E+000	5.34840E-005	0.00000E+000	9	...........	1426.57
	26	2.2	4.42894E-005	-1.89254E-005	0.00000E+000	5.34840E-005	0.00000E+000	9	...........	1426.57
	27	2.3	4.39059E-005	-1.87228E-005	0.00000E+000	5.34840E-005	0.00000E+000	9	...........	1426.57
	28	2.4	4.40061E-005	-1.85255E-005	0.00000E+000	5.34840E-005	0.00000E+000	9	...........	1426.57
	29	2.5	4.25323E-005	-1.83571E-005	0.00000E+000	5.34840E-005	0.00000E+000	9	...........	1426.57
	30	2.6	4.27035E-005	-1.81927E-005	0.00000E+000	5.34840E-005	0.00000E+000	9	...........	1426.57
	31	2.7	4.25623E-005	-1.80375E-005	0.00000E+000	5.34840E-005	0.00000E+000	9	...........	1426.57
	32	2.8	4.35966E-005	-1.78877E-005	0.00000E+000	5.34840E-005	0.00000E+000	9	...........	1426.57
	33	2.9	4.32902E-005	-1.77630E-005	0.00000E+000	5.34840E-005	0.00000E+000	9	...........	1426.57
	34	3	4.32271E-005	-1.76288E-005	0.00000E+000	5.34840E-005	0.00000E+000	9	...........	1426.57
	35	3.1	4.30369E-005	-1.75124E-005	0.00000E+000	5.34840E-005	0.00000E+000	9	...........	1426.57
	36	3.2	4.18454E-005	-1.74041E-005	0.00000E+000	5.34840E-005	0.00000E+000	9	...........	1426.57
	37	3.3	4.35395E-005	-1.72914E-005	0.00000E+000	5.34840E-005	0.00000E+000	9	...........	1426.57
	38	3.4	4.36116E-005	-1.71928E-005	0.00000E+000	5.34840E-005	0.00000E+000	9	...........	1426.57
	39	3.5	4.24101E-005	-1.71082E-005	0.00000E+000	5.34840E-005	0.00000E+000	9	...........	1426.57
	40	3.6	4.23450E-005	-1.70160E-005	0.00000E+000	5.34840E-005	0.00000E+000	9	...........	1426.57
	41	3.7	4.25443E-005	-1.69349E-005	0.00000E+000	5.34840E-005	0.00000E+000	9	...........	1426.49
	42	3.8	4.30279E-005	-1.68505E-005	0.00000E+000	5.34840E-005	0.00000E+000	9	...........	1426.49
	43	3.9	4.14329E-005	-1.67765E-005	0.00000E+000	5.34840E-005	0.00000E+000	9	...........	1426.49
	44	4	4.33733E-005	-1.66947E-005	0.00000E+000	5.34840E-005	0.00000E+000	9	...........	1426.49
	45	4.1	4.28496E-005	-1.66306E-005	0.00000E+000	5.34840E-005	0.00000E+000	9	...........	1426.49
	46	4.2	4.28116E-005	-1.65637E-005	0.00000E+000	5.34840E-005	0.00000E+000	9	...........	1426.49
	47	4.3	4.35805E-005	-1.65041E-005	0.00000E+000	5.34840E-005	0.00000E+000	9	...........	1426.49
	48	4.4	4.37097E-005	-1.64367E-005	0.00000E+000	5.34840E-005	0.00000E+000	9	...........	1426.49
	49	4.5	4.31440E-005	-1.63796E-005	0.00000E+000	5.34840E-005	0.00000E+000	9	...........	1426.49
	50	4.6	4.24231E-005	-1.63367E-005	0.00000E+000	5.34840E-005	0.00000E+000	9	...........	1426.49
	51	4.7	4.09233E-005	-1.62820E-005	0.00000E+000	5.34840E-005	0.00000E+000	9	...........	1426.49
	52	4.8	4.27315E-005	-1.62150E-005	0.00000E+000	5.34840E-005	0.00000E+000	9	...........	1426.49
	53	4.9	4.22449E-005	-1.61678E-005	0.00000E+000	5.34840E-005	0.00000E+000	9	...........	1426.49
	54	5	4.23260E-005	-1.61136E-005	0.00000E+000	5.34840E-005	0.00000E+000	9	...........	1426.49
	55	5.1	4.13278E-005	-1.60717E-005	0.00000E+000	5.34840E-005	0.00000E+000	9	...........	1426.49
	56	5.2	4.18634E-005	-1.60223E-005	0.00000E+000	5.34840E-005	0.00000E+000	9	...........	1426.49
	57	5.3	4.11446E-005	-1.59822E-005	0.00000E+000	5.34840E-005	0.00000E+000	9	...........	1426.49
	58	5.4	4.19055E-005	-1.59402E-005	0.00000E+000	5.34840E-005	0.00000E+000	9	...........	1426.49
	59	5.5	4.19545E-005	-1.58994E-005	0.00000E+000	5.34840E-005	0.00000E+000	9	...........	1426.49
	60	5.6	4.19706E-005	-1.58553E-005	0.00000E+000	5.34840E-005	0.00000E+000	9	...........	1426.49
	61	5.7	4.22129E-005	-1.58277E-005	0.00000E+000	5.34840E-005	0.00000E+000	9	...........	1426.49
	62	5.8	4.20186E-005	-1.57895E-005	0.00000E+000	5.34840E-005	0.00000E+000	9	...........	1426.49
	63	5.9	4.23881E-005	-1.57567E-005	0.00000E+000	5.34840E-005	0.00000E+000	9	...........	1426.49
	64	6	4.18384E-005	-1.57200E-005	0.00000E+000	5.34840E-005	0.00000E+000	9	...........	1426.49
	65	6.1	4.13178E-005	-1.56837E-005	0.00000E+000	5.34840E-005	0.00000E+000	9	...........	1426.49
	66	7.1	4.07711E-005	-1.53738E-005	0.00000E+000	5.34840E-005	0.00000E+000	9	...........	1426.49
	67	8.1	4.29678E-005	-1.51338E-005	0.00000E+000	5.34840E-005	0.00000E+000	9	...........	1426.57
	68	9.1	4.17083E-005	-1.49580E-005	0.00000E+000	5.34840E-005	0.00000E+000	9	...........	1426.57
	69	10.1	4.34804E-005	-1.48155E-005	0.00000E+000	5.34840E-005	0.00000E+000	9	...........	1426.57
	70	11.1	4.37037E-005	-1.47292E-005	0.00000E+000	5.34840E-005	0.00000E+000	9	...........	1426.57
	71	12.1	4.34063E-005	-1.46602E-005	0.00000E+000	5.34840E-005	0.00000E+000	9	...........	1426.57
	72	13.1	4.28376E-005	-1.46420E-005	0.00000E+000	5.34840E-005	0.00000E+000	9	...........	1426.57
	73	14.1	4.16261E-005	-1.46282E-005	0.00000E+000	5.34840E-005	0.00000E+000	9	...........	1426.57
	74	15.1	4.28486E-005	-1.46514E-005	0.00000E+000	5.34840E-005	0.00000E+000	9	...........	1426.57
	75	16.1	4.20056E-005	-1.46746E-005	0.00000E+000	5.34840E-005	0.00000E+000	9	...........	1426.49
	76	26.1	4.18784E-005	-1.49306E-005	0.00000E+000	5.34840E-005	0.00000E+000	9	...........	1426.57
	77	36.1	4.54048E-005	-1.52297E-005	0.00000E+000	5.34840E-005	0.00000E+000	9	...........	1426.49
	78	46.1	4.33573E-005	-1.56549E-005	0.00000E+000	5.34840E-005	0.00000E+000	9	...........	1426.57
	79	56.1	4.38328E-005	-1.60412E-005	0.00000E+000	5.34840E-005	0.00000E+000	9	...........	1426.57
	80	66.1	4.38989E-005	-1.63870E-005	0.00000E+000	5.34840E-005	0.00000E+000	9	...........	1426.57
	81	76.1	4.51335E-005	-1.64694E-005	0.00000E+000	5.34840E-005	0.00000E+000	9	...........	1426.57
	82	86.1	4.38629E-005	-1.65797E-005	0.00000E+000	5.34840E-005	0.00000E+000	9	...........	1426.57
	83	96.1	4.32451E-005	-1.67993E-005	0.00000E+000	5.34840E-005	0.00000E+000	9	...........	1426.57
	84	106.1	4.52776E-005	-1.69423E-005	0.00000E+000	5.34840E-005	0.00000E+000	9	...........	1426.57
	85	116.1	4.45187E-005	-1.69802E-005	0.00000E+000	5.34840E-005	0.00000E+000	9	...........	1426.57
	86	216.1	4.38629E-005	-1.69024E-005	0.00000E+000	5.34840E-005	0.00000E+000	9	...........	1426.57
	87	300	4.26444E-005	-1.66480E-005	0.00000E+000	5.34840E-005	0.00000E+000	9	...........	1426.57
	88	300.1	-3.29270E-002	-4.54336E-004	0.00000E+000	-9.99460E-002	0.00000E+000	9	.........v.	1426.57
	89	300.2	-9.99811E-002	-3.69937E-004	0.00000E+000	-9.99460E-002	0.00000E+000	9	...........	1426.57
	90	300.3	-9.99822E-002	-3.12533E-004	0.00000E+000	-9.99460E-002	0.00000E+000	9	...........	1426.57
	91	300.4	-9.99803E-002	-2.69412E-004	0.00000E+000	-9.99460E-002	0.00000E+000	9	...........	1426.57
	92	300.5	-9.99814E-002	-2.35445E-004	0.00000E+000	-9.99460E-002	0.00000E+000	9	...........	1426.57
	93	300.6	-9.99818E-002	-2.07903E-004	0.00000E+000	-9.99460E-002	0.00000E+000	9	...........	1426.57
	94	300.7	-9.99812E-002	-1.85173E-004	0.00000E+000	-9.99460E-002	0.00000E+000	9	...........	1426.57
	95	300.8	-9.99827E-002	-1.66155E-004	0.00000E+000	-9.99460E-002	0.00000E+000	9	...........	1426.57
	96	300.9	-9.99806E-002	-1.50103E-004	0.00000E+000	-9.99460E-002	0.00000E+000	9	...........	1426.57
	97	301	-9.99811E-002	-1.36439E-004	0.00000E+000	-9.99460E-002	0.00000E+000	9	...........	1426.57
