EXPLAIN
TAG	CHRONOA
TITLE	LABEL	Chronoamperometry Scan	Test Identifier
DATE	LABEL	2/2/2022	Date
TIME	LABEL	13:28:33	Time
NOTES	NOTES	1	Notes...
	
PSTAT	PSTAT	IFC1010-21051	Potentiostat
VPRESTEP	POTEN	3.00000E-001	F	Pre-step Voltage (V)
TPRESTEP	QUANT	5.00000E-001	Pre-step Delay Time (s)
VSTEP1	POTEN	4.00000E-001	F	Step 1 Voltage (V)
TSTEP1	QUANT	3.00000E+002	Step 1 Time (s)
VSTEP2	POTEN	3.00000E-001	F	Step 2 Voltage (V)
TSTEP2	QUANT	1.00000E+000	Step 2 Time (s)
SAMPLETIME	QUANT	1.00000E-001	Sample Period (s)
DECIMATE	TOGGLE	T	Decimate
ILIMIT	QUANT	1.00000E+000	Limit I (mA/cm^2)
IMODE	SELECTOR	1	I/E Range Mode
IRANGE	QUANT	3.00000E-001	Max Current (mA)
EQDELAY	QUANT	5.00000E+000	Equil. Time (s)
SAMPLINGMODE	SELECTOR	1	Sampling Mode
AREA	QUANT	1.00000E+000	Sample Area (cm^2)
IRCOMP	SELECTOR	0	IRComp
PFCOR	QUANT	5.00000E+001	PF Corr. (ohm)
SEQUENCER	TOGGLE	TRUE	Run as Sequence
PSTATMODEL	IQUANT	64	Pstat Model
PSTATSECTION	LABEL	IFC1010-21051	Pstat Section
PSTATSERIALNO	LABEL	21051	Pstat Serial Number
CTRLMODE	IQUANT	1	Control Mode
ELECTROMETER	IQUANT	0	RE=0 or CS=1
IESTAB	IQUANT	0	I/E Stability
CASPEED	IQUANT	4	Control Amp Speed
CONVENTION	IQUANT	1	Current Convention
ICHRANGE	IQUANT	2	Ich Range
ICHRANGEMODE	TOGGLE	T	Ich Auto Range
ICHOFFSETENABLE	TOGGLE	F	Ich Offset Enable
ICHOFFSET	QUANT	0	Ich Offset (V)
ICHFILTER	IQUANT	3	Ich Filter
VCHRANGE	IQUANT	3	Vch Range
VCHRANGEMODE	TOGGLE	T	Vch Auto Range
VCHOFFSETENABLE	TOGGLE	F	Vch Offset Enable
VCHOFFSET	QUANT	0	Vch Offset (V)
VCHFILTER	IQUANT	3	Vch Filter
IERANGELOWERLIMIT	IQUANT	4	I/E Range Lower Limit
IERANGEMODE	TOGGLE	F	I/E AutoRange
IERANGE	IQUANT	9	I/E Range
ACHSELECT	IQUANT	0	Ach Select
ACHRANGE	IQUANT	2	Ach Range
ACHOFFSETENABLE	TOGGLE	F	Ach Offset Enable
ACHOFFSET	QUANT	0	Ach Offset (V)
ACHFILTER	IQUANT	1	Ach Filter
SENSECABLEID	IQUANT	14	Sense Cable ID
PWRCABLEID	IQUANT	14	Power Cable ID
DCCALDATE	LABEL	1/24/2022	DC Calibration Date
ACCALDATE	LABEL	4/2/2018	AC Calibration Date
FRAMEWORKVERSION	QUANT	7.06	Framework Version
INSTRUMENTVERSION	LABEL	4.30	Instrument Version
CURVE	TABLE	98
	Pt	T	Vf	Im	Vu	Sig	Ach	IERange	Over	Temp
	#	s	V vs. Ref.	A	V	V	V	#	bits	deg C
	0	-0.4	2.99570E-001	9.37395E-006	0.00000E+000	3.00072E-001	0.00000E+000	9	...........	1426.22
	1	-0.3	3.00314E-001	9.23735E-006	0.00000E+000	3.00072E-001	0.00000E+000	9	...........	1426.22
	2	-0.2	3.00301E-001	9.18249E-006	0.00000E+000	3.00072E-001	0.00000E+000	9	...........	1426.22
	3	-0.1	3.00300E-001	9.08479E-006	0.00000E+000	3.00072E-001	0.00000E+000	9	...........	1426.22
	4	0	3.00312E-001	8.98592E-006	0.00000E+000	3.00072E-001	0.00000E+000	9	...........	1426.22
	5	0.1	4.00366E-001	5.38314E-004	0.00000E+000	4.00072E-001	0.00000E+000	9	...........	1426.22
	6	0.2	4.00351E-001	4.63044E-004	0.00000E+000	4.00072E-001	0.00000E+000	9	...........	1426.22
	7	0.3	4.00344E-001	4.11162E-004	0.00000E+000	4.00072E-001	0.00000E+000	9	...........	1426.22
	8	0.4	4.00355E-001	3.72476E-004	0.00000E+000	4.00072E-001	0.00000E+000	9	...........	1426.13
	9	0.5	4.00352E-001	3.42194E-004	0.00000E+000	4.00072E-001	0.00000E+000	9	...........	1426.13
	10	0.6	4.00346E-001	3.17724E-004	0.00000E+000	4.00072E-001	0.00000E+000	9	...........	1426.13
	11	0.7	4.00357E-001	2.97588E-004	0.00000E+000	4.00072E-001	0.00000E+000	9	...........	1426.13
	12	0.8	4.00358E-001	2.80638E-004	0.00000E+000	4.00072E-001	0.00000E+000	9	...........	1426.13
	13	0.9	4.00348E-001	2.66108E-004	0.00000E+000	4.00072E-001	0.00000E+000	9	...........	1426.13
	14	1	4.00347E-001	2.53552E-004	0.00000E+000	4.00072E-001	0.00000E+000	9	...........	1426.13
	15	1.1	4.00358E-001	2.42413E-004	0.00000E+000	4.00072E-001	0.00000E+000	9	...........	1426.13
	16	1.2	4.00359E-001	2.32669E-004	0.00000E+000	4.00072E-001	0.00000E+000	9	...........	1426.13
	17	1.3	4.00371E-001	2.23858E-004	0.00000E+000	4.00072E-001	0.00000E+000	9	...........	1426.13
	18	1.4	4.00348E-001	2.15977E-004	0.00000E+000	4.00072E-001	0.00000E+000	9	...........	1426.04
	19	1.5	4.00346E-001	2.08776E-004	0.00000E+000	4.00072E-001	0.00000E+000	9	...........	1426.04
	20	1.6	4.00348E-001	2.02191E-004	0.00000E+000	4.00072E-001	0.00000E+000	9	...........	1426.04
	21	1.7	4.00346E-001	1.96123E-004	0.00000E+000	4.00072E-001	0.00000E+000	9	...........	1426.04
	22	1.8	4.00347E-001	1.90553E-004	0.00000E+000	4.00072E-001	0.00000E+000	9	...........	1426.04
	23	1.9	4.00348E-001	1.85335E-004	0.00000E+000	4.00072E-001	0.00000E+000	9	...........	1426.04
	24	2	4.00362E-001	1.80521E-004	0.00000E+000	4.00072E-001	0.00000E+000	9	...........	1426.04
	25	2.1	4.00357E-001	1.76003E-004	0.00000E+000	4.00072E-001	0.00000E+000	9	...........	1426.04
	26	2.2	4.00342E-001	1.71782E-004	0.00000E+000	4.00072E-001	0.00000E+000	9	...........	1426.04
	27	2.3	4.00352E-001	1.67808E-004	0.00000E+000	4.00072E-001	0.00000E+000	9	...........	1426.04
	28	2.4	4.00357E-001	1.64033E-004	0.00000E+000	4.00072E-001	0.00000E+000	9	...........	1426.04
	29	2.5	4.00353E-001	1.60542E-004	0.00000E+000	4.00072E-001	0.00000E+000	9	...........	1426.04
	30	2.6	4.00350E-001	1.57147E-004	0.00000E+000	4.00072E-001	0.00000E+000	9	...........	1426.04
	31	2.7	4.00360E-001	1.53977E-004	0.00000E+000	4.00072E-001	0.00000E+000	9	...........	1426.04
	32	2.8	4.00359E-001	1.50957E-004	0.00000E+000	4.00072E-001	0.00000E+000	9	...........	1426.04
	33	2.9	4.00356E-001	1.48053E-004	0.00000E+000	4.00072E-001	0.00000E+000	9	...........	1426.04
	34	3	4.00345E-001	1.45321E-004	0.00000E+000	4.00072E-001	0.00000E+000	9	...........	1426.04
	35	3.1	4.00335E-001	1.42694E-004	0.00000E+000	4.00072E-001	0.00000E+000	9	...........	1426.04
	36	3.2	4.00334E-001	1.40161E-004	0.00000E+000	4.00072E-001	0.00000E+000	9	...........	1426.04
	37	3.3	4.00348E-001	1.37739E-004	0.00000E+000	4.00072E-001	0.00000E+000	9	...........	1426.04
	38	3.4	4.00349E-001	1.35466E-004	0.00000E+000	4.00072E-001	0.00000E+000	9	...........	1426.04
	39	3.5	4.00347E-001	1.33252E-004	0.00000E+000	4.00072E-001	0.00000E+000	9	...........	1426.04
	40	3.6	4.00347E-001	1.31124E-004	0.00000E+000	4.00072E-001	0.00000E+000	9	...........	1426.04
	41	3.7	4.00353E-001	1.29038E-004	0.00000E+000	4.00072E-001	0.00000E+000	9	...........	1426.04
	42	3.8	4.00351E-001	1.27053E-004	0.00000E+000	4.00072E-001	0.00000E+000	9	...........	1426.04
	43	3.9	4.00360E-001	1.25174E-004	0.00000E+000	4.00072E-001	0.00000E+000	9	...........	1426.04
	44	4	4.00355E-001	1.23325E-004	0.00000E+000	4.00072E-001	0.00000E+000	9	...........	1426.04
	45	4.1	4.00340E-001	1.21480E-004	0.00000E+000	4.00072E-001	0.00000E+000	9	...........	1426.04
	46	4.2	4.00342E-001	1.19756E-004	0.00000E+000	4.00072E-001	0.00000E+000	9	...........	1426.04
	47	4.3	4.00354E-001	1.18130E-004	0.00000E+000	4.00072E-001	0.00000E+000	9	...........	1426.04
	48	4.4	4.00345E-001	1.16459E-004	0.00000E+000	4.00072E-001	0.00000E+000	9	...........	1426.13
	49	4.5	4.00348E-001	1.14923E-004	0.00000E+000	4.00072E-001	0.00000E+000	9	...........	1426.13
	50	4.6	4.00352E-001	1.13341E-004	0.00000E+000	4.00072E-001	0.00000E+000	9	...........	1426.13
	51	4.7	4.00343E-001	1.11887E-004	0.00000E+000	4.00072E-001	0.00000E+000	9	...........	1426.13
	52	4.8	4.00349E-001	1.10449E-004	0.00000E+000	4.00072E-001	0.00000E+000	9	...........	1426.13
	53	4.9	4.00338E-001	1.09034E-004	0.00000E+000	4.00072E-001	0.00000E+000	9	...........	1426.13
	54	5	4.00336E-001	1.07668E-004	0.00000E+000	4.00072E-001	0.00000E+000	9	...........	1426.13
	55	5.1	4.00349E-001	1.06338E-004	0.00000E+000	4.00072E-001	0.00000E+000	9	...........	1426.13
	56	5.2	4.00349E-001	1.04983E-004	0.00000E+000	4.00072E-001	0.00000E+000	9	...........	1426.13
	57	5.3	4.00340E-001	1.03736E-004	0.00000E+000	4.00072E-001	0.00000E+000	9	...........	1426.13
	58	5.4	4.00347E-001	1.02530E-004	0.00000E+000	4.00072E-001	0.00000E+000	9	...........	1426.04
	59	5.5	4.00353E-001	1.01268E-004	0.00000E+000	4.00072E-001	0.00000E+000	9	...........	1426.04
	60	5.6	4.00354E-001	1.00100E-004	0.00000E+000	4.00072E-001	0.00000E+000	9	...........	1426.04
	61	5.7	4.00349E-001	9.89655E-005	0.00000E+000	4.00072E-001	0.00000E+000	9	...........	1426.04
	62	5.8	4.00342E-001	9.77915E-005	0.00000E+000	4.00072E-001	0.00000E+000	9	...........	1426.04
	63	5.9	4.00344E-001	9.67291E-005	0.00000E+000	4.00072E-001	0.00000E+000	9	...........	1426.04
	64	6	4.00348E-001	9.56422E-005	0.00000E+000	4.00072E-001	0.00000E+000	9	...........	1426.04
	65	6.1	4.00346E-001	9.45915E-005	0.00000E+000	4.00072E-001	0.00000E+000	9	...........	1426.04
	66	7.1	4.00349E-001	8.50166E-005	0.00000E+000	4.00072E-001	0.00000E+000	9	...........	1426.04
	67	8.1	4.00358E-001	7.69484E-005	0.00000E+000	4.00072E-001	0.00000E+000	9	...........	1426.04
	68	9.1	4.00358E-001	7.00573E-005	0.00000E+000	4.00072E-001	0.00000E+000	9	...........	1426.04
	69	10.1	4.00346E-001	6.42676E-005	0.00000E+000	4.00072E-001	0.00000E+000	9	...........	1426.04
	70	11.1	4.00347E-001	5.93590E-005	0.00000E+000	4.00072E-001	0.00000E+000	9	...........	1426.13
	71	12.1	4.00348E-001	5.52317E-005	0.00000E+000	4.00072E-001	0.00000E+000	9	...........	1426.04
	72	13.1	4.00341E-001	5.16807E-005	0.00000E+000	4.00072E-001	0.00000E+000	9	...........	1426.13
	73	14.1	4.00349E-001	4.87119E-005	0.00000E+000	4.00072E-001	0.00000E+000	9	...........	1426.13
	74	15.1	4.00353E-001	4.61115E-005	0.00000E+000	4.00072E-001	0.00000E+000	9	...........	1426.04
	75	16.1	4.00347E-001	4.38385E-005	0.00000E+000	4.00072E-001	0.00000E+000	9	...........	1426.04
	76	26.1	4.00357E-001	3.13013E-005	0.00000E+000	4.00072E-001	0.00000E+000	9	...........	1426.04
	77	36.1	4.00350E-001	2.60492E-005	0.00000E+000	4.00072E-001	0.00000E+000	9	...........	1426.04
	78	46.1	4.00342E-001	2.32999E-005	0.00000E+000	4.00072E-001	0.00000E+000	9	...........	1426.04
	79	56.1	4.00351E-001	2.17952E-005	0.00000E+000	4.00072E-001	0.00000E+000	9	...........	1426.04
	80	66.1	4.00368E-001	2.06560E-005	0.00000E+000	4.00072E-001	0.00000E+000	9	...........	1426.04
	81	76.1	4.00352E-001	1.98144E-005	0.00000E+000	4.00072E-001	0.00000E+000	9	...........	1426.04
	82	86.1	4.00347E-001	1.94962E-005	0.00000E+000	4.00072E-001	0.00000E+000	9	...........	1426.13
	83	96.1	4.00355E-001	1.90239E-005	0.00000E+000	4.00072E-001	0.00000E+000	9	...........	1426.04
	84	106.1	4.00351E-001	1.87468E-005	0.00000E+000	4.00072E-001	0.00000E+000	9	...........	1426.04
	85	116.1	4.00348E-001	1.85716E-005	0.00000E+000	4.00072E-001	0.00000E+000	9	...........	1426.13
	86	216.1	4.00355E-001	1.75211E-005	0.00000E+000	4.00072E-001	0.00000E+000	9	...........	1426.13
	87	300	4.00351E-001	1.71730E-005	0.00000E+000	4.00072E-001	0.00000E+000	9	...........	1426.04
	88	300.1	3.00292E-001	-4.67036E-004	0.00000E+000	3.00072E-001	0.00000E+000	9	...........	1426.04
	89	300.2	3.00310E-001	-4.09978E-004	0.00000E+000	3.00072E-001	0.00000E+000	9	...........	1426.04
	90	300.3	3.00308E-001	-3.64639E-004	0.00000E+000	3.00072E-001	0.00000E+000	9	...........	1426.04
	91	300.4	3.00305E-001	-3.26458E-004	0.00000E+000	3.00072E-001	0.00000E+000	9	...........	1426.13
	92	300.5	3.00303E-001	-2.93651E-004	0.00000E+000	3.00072E-001	0.00000E+000	9	...........	1426.13
	93	300.6	3.00295E-001	-2.65332E-004	0.00000E+000	3.00072E-001	0.00000E+000	9	...........	1426.13
	94	300.7	3.00302E-001	-2.40921E-004	0.00000E+000	3.00072E-001	0.00000E+000	9	...........	1426.13
	95	300.8	3.00299E-001	-2.20125E-004	0.00000E+000	3.00072E-001	0.00000E+000	9	...........	1426.13
	96	300.9	3.00304E-001	-2.02562E-004	0.00000E+000	3.00072E-001	0.00000E+000	9	...........	1426.13
	97	301	3.00303E-001	-1.87756E-004	0.00000E+000	3.00072E-001	0.00000E+000	9	...........	1426.13
