EXPLAIN
TAG	CHRONOA
TITLE	LABEL	Chronoamperometry Scan	Test Identifier
DATE	LABEL	2/2/2022	Date
TIME	LABEL	12:48:24	Time
NOTES	NOTES	1	Notes...
	
PSTAT	PSTAT	IFC1010-21051	Potentiostat
VPRESTEP	POTEN	3.00000E-001	F	Pre-step Voltage (V)
TPRESTEP	QUANT	5.00000E-001	Pre-step Delay Time (s)
VSTEP1	POTEN	4.00000E-001	F	Step 1 Voltage (V)
TSTEP1	QUANT	3.00000E+002	Step 1 Time (s)
VSTEP2	POTEN	3.00000E-001	F	Step 2 Voltage (V)
TSTEP2	QUANT	1.00000E+000	Step 2 Time (s)
SAMPLETIME	QUANT	1.00000E-001	Sample Period (s)
DECIMATE	TOGGLE	T	Decimate
ILIMIT	QUANT	1.00000E+000	Limit I (mA/cm^2)
IMODE	SELECTOR	1	I/E Range Mode
IRANGE	QUANT	3.00000E-001	Max Current (mA)
EQDELAY	QUANT	5.00000E+000	Equil. Time (s)
SAMPLINGMODE	SELECTOR	1	Sampling Mode
AREA	QUANT	1.00000E+000	Sample Area (cm^2)
IRCOMP	SELECTOR	0	IRComp
PFCOR	QUANT	5.00000E+001	PF Corr. (ohm)
SEQUENCER	TOGGLE	TRUE	Run as Sequence
PSTATMODEL	IQUANT	64	Pstat Model
PSTATSECTION	LABEL	IFC1010-21051	Pstat Section
PSTATSERIALNO	LABEL	21051	Pstat Serial Number
CTRLMODE	IQUANT	1	Control Mode
ELECTROMETER	IQUANT	0	RE=0 or CS=1
IESTAB	IQUANT	0	I/E Stability
CASPEED	IQUANT	4	Control Amp Speed
CONVENTION	IQUANT	1	Current Convention
ICHRANGE	IQUANT	2	Ich Range
ICHRANGEMODE	TOGGLE	T	Ich Auto Range
ICHOFFSETENABLE	TOGGLE	F	Ich Offset Enable
ICHOFFSET	QUANT	0	Ich Offset (V)
ICHFILTER	IQUANT	3	Ich Filter
VCHRANGE	IQUANT	3	Vch Range
VCHRANGEMODE	TOGGLE	T	Vch Auto Range
VCHOFFSETENABLE	TOGGLE	F	Vch Offset Enable
VCHOFFSET	QUANT	0	Vch Offset (V)
VCHFILTER	IQUANT	3	Vch Filter
IERANGELOWERLIMIT	IQUANT	4	I/E Range Lower Limit
IERANGEMODE	TOGGLE	F	I/E AutoRange
IERANGE	IQUANT	9	I/E Range
ACHSELECT	IQUANT	0	Ach Select
ACHRANGE	IQUANT	2	Ach Range
ACHOFFSETENABLE	TOGGLE	F	Ach Offset Enable
ACHOFFSET	QUANT	0	Ach Offset (V)
ACHFILTER	IQUANT	1	Ach Filter
SENSECABLEID	IQUANT	14	Sense Cable ID
PWRCABLEID	IQUANT	14	Power Cable ID
DCCALDATE	LABEL	1/24/2022	DC Calibration Date
ACCALDATE	LABEL	4/2/2018	AC Calibration Date
FRAMEWORKVERSION	QUANT	7.06	Framework Version
INSTRUMENTVERSION	LABEL	4.30	Instrument Version
CURVE	TABLE	98
	Pt	T	Vf	Im	Vu	Sig	Ach	IERange	Over	Temp
	#	s	V vs. Ref.	A	V	V	V	#	bits	deg C
	0	-0.4	2.99577E-001	9.05916E-006	0.00000E+000	3.00072E-001	0.00000E+000	9	...........	1426.13
	1	-0.3	3.00295E-001	8.96557E-006	0.00000E+000	3.00072E-001	0.00000E+000	9	...........	1426.13
	2	-0.2	3.00301E-001	8.86963E-006	0.00000E+000	3.00072E-001	0.00000E+000	9	...........	1426.13
	3	-0.1	3.00314E-001	8.75902E-006	0.00000E+000	3.00072E-001	0.00000E+000	9	...........	1426.13
	4	0	3.00323E-001	8.65468E-006	0.00000E+000	3.00072E-001	0.00000E+000	9	...........	1426.13
	5	0.1	4.00348E-001	5.65093E-004	0.00000E+000	4.00072E-001	0.00000E+000	9	...........	1426.13
	6	0.2	4.00345E-001	4.83623E-004	0.00000E+000	4.00072E-001	0.00000E+000	9	...........	1426.04
	7	0.3	4.00346E-001	4.26736E-004	0.00000E+000	4.00072E-001	0.00000E+000	9	...........	1426.04
	8	0.4	4.00351E-001	3.83830E-004	0.00000E+000	4.00072E-001	0.00000E+000	9	...........	1426.04
	9	0.5	4.00354E-001	3.49998E-004	0.00000E+000	4.00072E-001	0.00000E+000	9	...........	1426.04
	10	0.6	4.00350E-001	3.22731E-004	0.00000E+000	4.00072E-001	0.00000E+000	9	...........	1426.04
	11	0.7	4.00349E-001	3.00146E-004	0.00000E+000	4.00072E-001	0.00000E+000	9	...........	1426.04
	12	0.8	4.00351E-001	2.81249E-004	0.00000E+000	4.00072E-001	0.00000E+000	9	...........	1426.04
	13	0.9	4.00353E-001	2.65140E-004	0.00000E+000	4.00072E-001	0.00000E+000	9	...........	1426.04
	14	1	4.00350E-001	2.51155E-004	0.00000E+000	4.00072E-001	0.00000E+000	9	...........	1426.04
	15	1.1	4.00352E-001	2.38971E-004	0.00000E+000	4.00072E-001	0.00000E+000	9	...........	1426.04
	16	1.2	4.00351E-001	2.28177E-004	0.00000E+000	4.00072E-001	0.00000E+000	9	...........	1425.69
	17	1.3	4.00341E-001	2.18617E-004	0.00000E+000	4.00072E-001	0.00000E+000	9	...........	1425.69
	18	1.4	4.00340E-001	2.09971E-004	0.00000E+000	4.00072E-001	0.00000E+000	9	...........	1425.69
	19	1.5	4.00360E-001	2.02155E-004	0.00000E+000	4.00072E-001	0.00000E+000	9	...........	1425.69
	20	1.6	4.00355E-001	1.95046E-004	0.00000E+000	4.00072E-001	0.00000E+000	9	...........	1425.69
	21	1.7	4.00366E-001	1.88492E-004	0.00000E+000	4.00072E-001	0.00000E+000	9	...........	1425.69
	22	1.8	4.00350E-001	1.82511E-004	0.00000E+000	4.00072E-001	0.00000E+000	9	...........	1425.69
	23	1.9	4.00349E-001	1.77008E-004	0.00000E+000	4.00072E-001	0.00000E+000	9	...........	1425.69
	24	2	4.00350E-001	1.71910E-004	0.00000E+000	4.00072E-001	0.00000E+000	9	...........	1425.69
	25	2.1	4.00357E-001	1.67126E-004	0.00000E+000	4.00072E-001	0.00000E+000	9	...........	1425.69
	26	2.2	4.00350E-001	1.62670E-004	0.00000E+000	4.00072E-001	0.00000E+000	9	...........	1425.60
	27	2.3	4.00353E-001	1.58453E-004	0.00000E+000	4.00072E-001	0.00000E+000	9	...........	1425.60
	28	2.4	4.00349E-001	1.54520E-004	0.00000E+000	4.00072E-001	0.00000E+000	9	...........	1425.60
	29	2.5	4.00360E-001	1.50829E-004	0.00000E+000	4.00072E-001	0.00000E+000	9	...........	1425.60
	30	2.6	4.00356E-001	1.47345E-004	0.00000E+000	4.00072E-001	0.00000E+000	9	...........	1425.60
	31	2.7	4.00343E-001	1.44024E-004	0.00000E+000	4.00072E-001	0.00000E+000	9	...........	1425.60
	32	2.8	4.00348E-001	1.40891E-004	0.00000E+000	4.00072E-001	0.00000E+000	9	...........	1425.60
	33	2.9	4.00359E-001	1.37881E-004	0.00000E+000	4.00072E-001	0.00000E+000	9	...........	1425.60
	34	3	4.00351E-001	1.35029E-004	0.00000E+000	4.00072E-001	0.00000E+000	9	...........	1425.60
	35	3.1	4.00355E-001	1.32258E-004	0.00000E+000	4.00072E-001	0.00000E+000	9	...........	1425.60
	36	3.2	4.00359E-001	1.29711E-004	0.00000E+000	4.00072E-001	0.00000E+000	9	...........	1425.95
	37	3.3	4.00354E-001	1.27183E-004	0.00000E+000	4.00072E-001	0.00000E+000	9	...........	1425.95
	38	3.4	4.00352E-001	1.24843E-004	0.00000E+000	4.00072E-001	0.00000E+000	9	...........	1425.95
	39	3.5	4.00358E-001	1.22527E-004	0.00000E+000	4.00072E-001	0.00000E+000	9	...........	1425.95
	40	3.6	4.00348E-001	1.20336E-004	0.00000E+000	4.00072E-001	0.00000E+000	9	...........	1425.95
	41	3.7	4.00360E-001	1.18217E-004	0.00000E+000	4.00072E-001	0.00000E+000	9	...........	1425.95
	42	3.8	4.00355E-001	1.16155E-004	0.00000E+000	4.00072E-001	0.00000E+000	9	...........	1425.95
	43	3.9	4.00362E-001	1.14161E-004	0.00000E+000	4.00072E-001	0.00000E+000	9	...........	1425.95
	44	4	4.00346E-001	1.12279E-004	0.00000E+000	4.00072E-001	0.00000E+000	9	...........	1425.95
	45	4.1	4.00354E-001	1.10404E-004	0.00000E+000	4.00072E-001	0.00000E+000	9	...........	1425.95
	46	4.2	4.00344E-001	1.08628E-004	0.00000E+000	4.00072E-001	0.00000E+000	9	...........	1425.60
	47	4.3	4.00359E-001	1.06927E-004	0.00000E+000	4.00072E-001	0.00000E+000	9	...........	1425.60
	48	4.4	4.00351E-001	1.05191E-004	0.00000E+000	4.00072E-001	0.00000E+000	9	...........	1425.60
	49	4.5	4.00359E-001	1.03574E-004	0.00000E+000	4.00072E-001	0.00000E+000	9	...........	1425.60
	50	4.6	4.00356E-001	1.02070E-004	0.00000E+000	4.00072E-001	0.00000E+000	9	...........	1425.60
	51	4.7	4.00353E-001	1.00532E-004	0.00000E+000	4.00072E-001	0.00000E+000	9	...........	1425.60
	52	4.8	4.00353E-001	9.90573E-005	0.00000E+000	4.00072E-001	0.00000E+000	9	...........	1425.60
	53	4.9	4.00349E-001	9.76340E-005	0.00000E+000	4.00072E-001	0.00000E+000	9	...........	1425.60
	54	5	4.00347E-001	9.62664E-005	0.00000E+000	4.00072E-001	0.00000E+000	9	...........	1425.60
	55	5.1	4.00341E-001	9.48709E-005	0.00000E+000	4.00072E-001	0.00000E+000	9	...........	1425.60
	56	5.2	4.00355E-001	9.35974E-005	0.00000E+000	4.00072E-001	0.00000E+000	9	...........	1425.60
	57	5.3	4.00356E-001	9.22341E-005	0.00000E+000	4.00072E-001	0.00000E+000	9	...........	1425.60
	58	5.4	4.00356E-001	9.10638E-005	0.00000E+000	4.00072E-001	0.00000E+000	9	...........	1425.60
	59	5.5	4.00345E-001	8.98547E-005	0.00000E+000	4.00072E-001	0.00000E+000	9	...........	1425.60
	60	5.6	4.00360E-001	8.86697E-005	0.00000E+000	4.00072E-001	0.00000E+000	9	...........	1425.60
	61	5.7	4.00374E-001	8.75362E-005	0.00000E+000	4.00072E-001	0.00000E+000	9	...........	1425.60
	62	5.8	4.00351E-001	8.64328E-005	0.00000E+000	4.00072E-001	0.00000E+000	9	...........	1425.60
	63	5.9	4.00350E-001	8.53601E-005	0.00000E+000	4.00072E-001	0.00000E+000	9	...........	1425.60
	64	6	4.00351E-001	8.43556E-005	0.00000E+000	4.00072E-001	0.00000E+000	9	...........	1425.60
	65	6.1	4.00354E-001	8.33038E-005	0.00000E+000	4.00072E-001	0.00000E+000	9	...........	1425.60
	66	7.1	4.00359E-001	7.45224E-005	0.00000E+000	4.00072E-001	0.00000E+000	9	...........	1425.60
	67	8.1	4.00366E-001	6.75500E-005	0.00000E+000	4.00072E-001	0.00000E+000	9	...........	1425.69
	68	9.1	4.00345E-001	6.19493E-005	0.00000E+000	4.00072E-001	0.00000E+000	9	...........	1425.95
	69	10.1	4.00357E-001	5.73484E-005	0.00000E+000	4.00072E-001	0.00000E+000	9	...........	1425.60
	70	11.1	4.00343E-001	5.34209E-005	0.00000E+000	4.00072E-001	0.00000E+000	9	...........	1425.60
	71	12.1	4.00354E-001	5.00834E-005	0.00000E+000	4.00072E-001	0.00000E+000	9	...........	1425.69
	72	13.1	4.00359E-001	4.72016E-005	0.00000E+000	4.00072E-001	0.00000E+000	9	...........	1425.60
	73	14.1	4.00361E-001	4.46957E-005	0.00000E+000	4.00072E-001	0.00000E+000	9	...........	1425.60
	74	15.1	4.00365E-001	4.24529E-005	0.00000E+000	4.00072E-001	0.00000E+000	9	...........	1425.60
	75	16.1	4.00356E-001	4.04964E-005	0.00000E+000	4.00072E-001	0.00000E+000	9	...........	1425.69
	76	26.1	4.00346E-001	2.90689E-005	0.00000E+000	4.00072E-001	0.00000E+000	9	...........	1426.13
	77	36.1	4.00357E-001	2.42760E-005	0.00000E+000	4.00072E-001	0.00000E+000	9	...........	1426.13
	78	46.1	4.00355E-001	2.17736E-005	0.00000E+000	4.00072E-001	0.00000E+000	9	...........	1426.13
	79	56.1	4.00357E-001	2.02402E-005	0.00000E+000	4.00072E-001	0.00000E+000	9	...........	1426.04
	80	66.1	4.00359E-001	1.93687E-005	0.00000E+000	4.00072E-001	0.00000E+000	9	...........	1426.04
	81	76.1	4.00364E-001	1.87620E-005	0.00000E+000	4.00072E-001	0.00000E+000	9	...........	1426.13
	82	86.1	4.00363E-001	1.83369E-005	0.00000E+000	4.00072E-001	0.00000E+000	9	...........	1426.04
	83	96.1	4.00342E-001	1.81143E-005	0.00000E+000	4.00072E-001	0.00000E+000	9	...........	1426.13
	84	106.1	4.00348E-001	1.79641E-005	0.00000E+000	4.00072E-001	0.00000E+000	9	...........	1426.13
	85	116.1	4.00356E-001	1.77484E-005	0.00000E+000	4.00072E-001	0.00000E+000	9	...........	1426.13
	86	216.1	4.00356E-001	1.70331E-005	0.00000E+000	4.00072E-001	0.00000E+000	9	...........	1426.04
	87	300	4.00359E-001	1.67436E-005	0.00000E+000	4.00072E-001	0.00000E+000	9	...........	1426.13
	88	300.1	3.00314E-001	-4.83887E-004	0.00000E+000	3.00072E-001	0.00000E+000	9	...........	1426.13
	89	300.2	3.00310E-001	-4.22991E-004	0.00000E+000	3.00072E-001	0.00000E+000	9	...........	1426.04
	90	300.3	3.00311E-001	-3.74358E-004	0.00000E+000	3.00072E-001	0.00000E+000	9	...........	1426.04
	91	300.4	3.00308E-001	-3.33382E-004	0.00000E+000	3.00072E-001	0.00000E+000	9	...........	1426.04
	92	300.5	3.00296E-001	-2.98189E-004	0.00000E+000	3.00072E-001	0.00000E+000	9	...........	1426.04
	93	300.6	3.00320E-001	-2.67909E-004	0.00000E+000	3.00072E-001	0.00000E+000	9	...........	1426.04
	94	300.7	3.00309E-001	-2.41771E-004	0.00000E+000	3.00072E-001	0.00000E+000	9	...........	1426.04
	95	300.8	3.00315E-001	-2.19342E-004	0.00000E+000	3.00072E-001	0.00000E+000	9	...........	1426.04
	96	300.9	3.00316E-001	-2.00352E-004	0.00000E+000	3.00072E-001	0.00000E+000	9	...........	1426.04
	97	301	3.00315E-001	-1.84312E-004	0.00000E+000	3.00072E-001	0.00000E+000	9	...........	1426.04
