EXPLAIN
TAG	CHRONOA
TITLE	LABEL	Chronoamperometry Scan	Test Identifier
DATE	LABEL	2/2/2022	Date
TIME	LABEL	16:00:03	Time
NOTES	NOTES	1	Notes...
	
PSTAT	PSTAT	IFC1010-21051	Potentiostat
VPRESTEP	POTEN	-3.00000E-001	F	Pre-step Voltage (V)
TPRESTEP	QUANT	5.00000E-001	Pre-step Delay Time (s)
VSTEP1	POTEN	-4.00000E-001	F	Step 1 Voltage (V)
TSTEP1	QUANT	3.00000E+002	Step 1 Time (s)
VSTEP2	POTEN	-5.00000E-001	F	Step 2 Voltage (V)
TSTEP2	QUANT	1.00000E+000	Step 2 Time (s)
SAMPLETIME	QUANT	1.00000E-001	Sample Period (s)
DECIMATE	TOGGLE	T	Decimate
ILIMIT	QUANT	1.00000E+000	Limit I (mA/cm^2)
IMODE	SELECTOR	1	I/E Range Mode
IRANGE	QUANT	3.00000E-001	Max Current (mA)
EQDELAY	QUANT	5.00000E+000	Equil. Time (s)
SAMPLINGMODE	SELECTOR	1	Sampling Mode
AREA	QUANT	1.00000E+000	Sample Area (cm^2)
IRCOMP	SELECTOR	0	IRComp
PFCOR	QUANT	5.00000E+001	PF Corr. (ohm)
SEQUENCER	TOGGLE	TRUE	Run as Sequence
PSTATMODEL	IQUANT	64	Pstat Model
PSTATSECTION	LABEL	IFC1010-21051	Pstat Section
PSTATSERIALNO	LABEL	21051	Pstat Serial Number
CTRLMODE	IQUANT	1	Control Mode
ELECTROMETER	IQUANT	0	RE=0 or CS=1
IESTAB	IQUANT	0	I/E Stability
CASPEED	IQUANT	4	Control Amp Speed
CONVENTION	IQUANT	1	Current Convention
ICHRANGE	IQUANT	2	Ich Range
ICHRANGEMODE	TOGGLE	T	Ich Auto Range
ICHOFFSETENABLE	TOGGLE	F	Ich Offset Enable
ICHOFFSET	QUANT	0	Ich Offset (V)
ICHFILTER	IQUANT	3	Ich Filter
VCHRANGE	IQUANT	3	Vch Range
VCHRANGEMODE	TOGGLE	T	Vch Auto Range
VCHOFFSETENABLE	TOGGLE	F	Vch Offset Enable
VCHOFFSET	QUANT	0	Vch Offset (V)
VCHFILTER	IQUANT	3	Vch Filter
IERANGELOWERLIMIT	IQUANT	4	I/E Range Lower Limit
IERANGEMODE	TOGGLE	F	I/E AutoRange
IERANGE	IQUANT	9	I/E Range
ACHSELECT	IQUANT	0	Ach Select
ACHRANGE	IQUANT	2	Ach Range
ACHOFFSETENABLE	TOGGLE	F	Ach Offset Enable
ACHOFFSET	QUANT	0	Ach Offset (V)
ACHFILTER	IQUANT	1	Ach Filter
SENSECABLEID	IQUANT	14	Sense Cable ID
PWRCABLEID	IQUANT	14	Power Cable ID
DCCALDATE	LABEL	1/24/2022	DC Calibration Date
ACCALDATE	LABEL	4/2/2018	AC Calibration Date
FRAMEWORKVERSION	QUANT	7.06	Framework Version
INSTRUMENTVERSION	LABEL	4.30	Instrument Version
CURVE	TABLE	98
	Pt	T	Vf	Im	Vu	Sig	Ach	IERange	Over	Temp
	#	s	V vs. Ref.	A	V	V	V	#	bits	deg C
	0	-0.4	-3.01350E-001	-1.00243E-004	0.00000E+000	-3.00011E-001	0.00000E+000	9	...........	1426.22
	1	-0.3	-3.00692E-001	-1.00000E-004	0.00000E+000	-3.00011E-001	0.00000E+000	9	...........	1426.22
	2	-0.2	-3.00690E-001	-9.97880E-005	0.00000E+000	-3.00011E-001	0.00000E+000	9	...........	1426.22
	3	-0.1	-3.00689E-001	-9.96313E-005	0.00000E+000	-3.00011E-001	0.00000E+000	9	...........	1426.22
	4	0	-3.00681E-001	-9.94103E-005	0.00000E+000	-3.00011E-001	0.00000E+000	9	...........	1426.22
	5	0.1	-4.00721E-001	-4.86567E-004	0.00000E+000	-4.00011E-001	0.00000E+000	9	...........	1426.22
	6	0.2	-4.00738E-001	-4.01510E-004	0.00000E+000	-4.00011E-001	0.00000E+000	9	...........	1426.22
	7	0.3	-4.00739E-001	-3.65260E-004	0.00000E+000	-4.00011E-001	0.00000E+000	9	...........	1426.22
	8	0.4	-4.00732E-001	-3.45343E-004	0.00000E+000	-4.00011E-001	0.00000E+000	9	...........	1426.22
	9	0.5	-4.00733E-001	-3.32370E-004	0.00000E+000	-4.00011E-001	0.00000E+000	9	...........	1426.22
	10	0.6	-4.00717E-001	-3.22797E-004	0.00000E+000	-4.00011E-001	0.00000E+000	9	...........	1426.22
	11	0.7	-4.00728E-001	-3.15231E-004	0.00000E+000	-4.00011E-001	0.00000E+000	9	...........	1426.22
	12	0.8	-4.00727E-001	-3.08800E-004	0.00000E+000	-4.00011E-001	0.00000E+000	9	...........	1426.22
	13	0.9	-4.00727E-001	-3.03273E-004	0.00000E+000	-4.00011E-001	0.00000E+000	9	...........	1426.22
	14	1	-4.00725E-001	-2.98317E-004	0.00000E+000	-4.00011E-001	0.00000E+000	9	...........	1426.10
	15	1.1	-4.00724E-001	-2.93786E-004	0.00000E+000	-4.00011E-001	0.00000E+000	9	...........	1425.95
	16	1.2	-4.00729E-001	-2.89644E-004	0.00000E+000	-4.00011E-001	0.00000E+000	9	...........	1425.95
	17	1.3	-4.00721E-001	-2.85782E-004	0.00000E+000	-4.00011E-001	0.00000E+000	9	...........	1425.95
	18	1.4	-4.00737E-001	-2.82190E-004	0.00000E+000	-4.00011E-001	0.00000E+000	9	...........	1425.95
	19	1.5	-4.00734E-001	-2.78849E-004	0.00000E+000	-4.00011E-001	0.00000E+000	9	...........	1425.95
	20	1.6	-4.00720E-001	-2.75639E-004	0.00000E+000	-4.00011E-001	0.00000E+000	9	...........	1425.95
	21	1.7	-4.00731E-001	-2.72649E-004	0.00000E+000	-4.00011E-001	0.00000E+000	9	...........	1425.95
	22	1.8	-4.00731E-001	-2.69804E-004	0.00000E+000	-4.00011E-001	0.00000E+000	9	...........	1425.95
	23	1.9	-4.00742E-001	-2.67079E-004	0.00000E+000	-4.00011E-001	0.00000E+000	9	...........	1425.95
	24	2	-4.00745E-001	-2.64466E-004	0.00000E+000	-4.00011E-001	0.00000E+000	9	...........	1425.95
	25	2.1	-4.00732E-001	-2.61904E-004	0.00000E+000	-4.00011E-001	0.00000E+000	9	...........	1425.95
	26	2.2	-4.00739E-001	-2.59564E-004	0.00000E+000	-4.00011E-001	0.00000E+000	9	...........	1425.95
	27	2.3	-4.00727E-001	-2.57310E-004	0.00000E+000	-4.00011E-001	0.00000E+000	9	...........	1425.95
	28	2.4	-4.00726E-001	-2.55102E-004	0.00000E+000	-4.00011E-001	0.00000E+000	9	...........	1425.95
	29	2.5	-4.00745E-001	-2.52974E-004	0.00000E+000	-4.00011E-001	0.00000E+000	9	...........	1425.95
	30	2.6	-4.00732E-001	-2.50887E-004	0.00000E+000	-4.00011E-001	0.00000E+000	9	...........	1425.95
	31	2.7	-4.00734E-001	-2.48941E-004	0.00000E+000	-4.00011E-001	0.00000E+000	9	...........	1425.95
	32	2.8	-4.00723E-001	-2.47013E-004	0.00000E+000	-4.00011E-001	0.00000E+000	9	...........	1425.95
	33	2.9	-4.00736E-001	-2.45173E-004	0.00000E+000	-4.00011E-001	0.00000E+000	9	...........	1425.95
	34	3	-4.00735E-001	-2.43392E-004	0.00000E+000	-4.00011E-001	0.00000E+000	9	...........	1425.99
	35	3.1	-4.00737E-001	-2.41666E-004	0.00000E+000	-4.00011E-001	0.00000E+000	9	...........	1426.04
	36	3.2	-4.00734E-001	-2.39952E-004	0.00000E+000	-4.00011E-001	0.00000E+000	9	...........	1426.04
	37	3.3	-4.00735E-001	-2.38366E-004	0.00000E+000	-4.00011E-001	0.00000E+000	9	...........	1426.04
	38	3.4	-4.00712E-001	-2.36733E-004	0.00000E+000	-4.00011E-001	0.00000E+000	9	...........	1426.04
	39	3.5	-4.00727E-001	-2.35193E-004	0.00000E+000	-4.00011E-001	0.00000E+000	9	...........	1426.04
	40	3.6	-4.00738E-001	-2.33724E-004	0.00000E+000	-4.00011E-001	0.00000E+000	9	...........	1426.04
	41	3.7	-4.00735E-001	-2.32254E-004	0.00000E+000	-4.00011E-001	0.00000E+000	9	...........	1426.04
	42	3.8	-4.00730E-001	-2.30826E-004	0.00000E+000	-4.00011E-001	0.00000E+000	9	...........	1426.04
	43	3.9	-4.00734E-001	-2.29431E-004	0.00000E+000	-4.00011E-001	0.00000E+000	9	...........	1426.04
	44	4	-4.00735E-001	-2.28081E-004	0.00000E+000	-4.00011E-001	0.00000E+000	9	...........	1426.00
	45	4.1	-4.00734E-001	-2.26741E-004	0.00000E+000	-4.00011E-001	0.00000E+000	9	...........	1425.95
	46	4.2	-4.00730E-001	-2.25446E-004	0.00000E+000	-4.00011E-001	0.00000E+000	9	...........	1425.95
	47	4.3	-4.00730E-001	-2.24203E-004	0.00000E+000	-4.00011E-001	0.00000E+000	9	...........	1425.95
	48	4.4	-4.00727E-001	-2.22985E-004	0.00000E+000	-4.00011E-001	0.00000E+000	9	...........	1425.95
	49	4.5	-4.00736E-001	-2.21766E-004	0.00000E+000	-4.00011E-001	0.00000E+000	9	...........	1425.95
	50	4.6	-4.00740E-001	-2.20582E-004	0.00000E+000	-4.00011E-001	0.00000E+000	9	...........	1425.95
	51	4.7	-4.00736E-001	-2.19473E-004	0.00000E+000	-4.00011E-001	0.00000E+000	9	...........	1425.95
	52	4.8	-4.00726E-001	-2.18312E-004	0.00000E+000	-4.00011E-001	0.00000E+000	9	...........	1425.95
	53	4.9	-4.00737E-001	-2.17199E-004	0.00000E+000	-4.00011E-001	0.00000E+000	9	...........	1425.95
	54	5	-4.00715E-001	-2.16141E-004	0.00000E+000	-4.00011E-001	0.00000E+000	9	...........	1425.95
	55	5.1	-4.00726E-001	-2.15083E-004	0.00000E+000	-4.00011E-001	0.00000E+000	9	...........	1425.95
	56	5.2	-4.00738E-001	-2.14052E-004	0.00000E+000	-4.00011E-001	0.00000E+000	9	...........	1425.95
	57	5.3	-4.00732E-001	-2.13009E-004	0.00000E+000	-4.00011E-001	0.00000E+000	9	...........	1425.95
	58	5.4	-4.00732E-001	-2.12077E-004	0.00000E+000	-4.00011E-001	0.00000E+000	9	...........	1425.95
	59	5.5	-4.00731E-001	-2.11086E-004	0.00000E+000	-4.00011E-001	0.00000E+000	9	...........	1425.95
	60	5.6	-4.00716E-001	-2.10083E-004	0.00000E+000	-4.00011E-001	0.00000E+000	9	...........	1425.95
	61	5.7	-4.00730E-001	-2.09139E-004	0.00000E+000	-4.00011E-001	0.00000E+000	9	...........	1425.95
	62	5.8	-4.00733E-001	-2.08256E-004	0.00000E+000	-4.00011E-001	0.00000E+000	9	...........	1425.95
	63	5.9	-4.00748E-001	-2.07368E-004	0.00000E+000	-4.00011E-001	0.00000E+000	9	...........	1425.95
	64	6	-4.00734E-001	-2.06435E-004	0.00000E+000	-4.00011E-001	0.00000E+000	9	...........	1425.95
	65	6.1	-4.00734E-001	-2.05551E-004	0.00000E+000	-4.00011E-001	0.00000E+000	9	...........	1425.95
	66	7.1	-4.00725E-001	-1.97600E-004	0.00000E+000	-4.00011E-001	0.00000E+000	9	...........	1426.13
	67	8.1	-4.00729E-001	-1.90807E-004	0.00000E+000	-4.00011E-001	0.00000E+000	9	...........	1426.13
	68	9.1	-4.00730E-001	-1.84917E-004	0.00000E+000	-4.00011E-001	0.00000E+000	9	...........	1426.13
	69	10.1	-4.00732E-001	-1.79763E-004	0.00000E+000	-4.00011E-001	0.00000E+000	9	...........	1426.13
	70	11.1	-4.00718E-001	-1.75119E-004	0.00000E+000	-4.00011E-001	0.00000E+000	9	...........	1426.13
	71	12.1	-4.00744E-001	-1.71070E-004	0.00000E+000	-4.00011E-001	0.00000E+000	9	...........	1426.13
	72	13.1	-4.00713E-001	-1.67380E-004	0.00000E+000	-4.00011E-001	0.00000E+000	9	...........	1426.13
	73	14.1	-4.00735E-001	-1.64083E-004	0.00000E+000	-4.00011E-001	0.00000E+000	9	...........	1426.22
	74	15.1	-4.00732E-001	-1.60962E-004	0.00000E+000	-4.00011E-001	0.00000E+000	9	...........	1426.22
	75	16.1	-4.00733E-001	-1.58078E-004	0.00000E+000	-4.00011E-001	0.00000E+000	9	...........	1426.13
	76	26.1	-4.00745E-001	-1.37760E-004	0.00000E+000	-4.00011E-001	0.00000E+000	9	...........	1426.22
	77	36.1	-4.00719E-001	-1.26069E-004	0.00000E+000	-4.00011E-001	0.00000E+000	9	...........	1426.22
	78	46.1	-4.00757E-001	-1.17768E-004	0.00000E+000	-4.00011E-001	0.00000E+000	9	...........	1426.22
	79	56.1	-4.00737E-001	-1.11813E-004	0.00000E+000	-4.00011E-001	0.00000E+000	9	...........	1426.22
	80	66.1	-4.00731E-001	-1.06959E-004	0.00000E+000	-4.00011E-001	0.00000E+000	9	...........	1426.22
	81	76.1	-4.00716E-001	-1.03044E-004	0.00000E+000	-4.00011E-001	0.00000E+000	9	...........	1426.22
	82	86.1	-4.00728E-001	-1.00058E-004	0.00000E+000	-4.00011E-001	0.00000E+000	9	...........	1426.22
	83	96.1	-4.00727E-001	-9.76077E-005	0.00000E+000	-4.00011E-001	0.00000E+000	9	...........	1426.22
	84	106.1	-4.00737E-001	-9.55163E-005	0.00000E+000	-4.00011E-001	0.00000E+000	9	...........	1426.22
	85	116.1	-4.00733E-001	-9.36558E-005	0.00000E+000	-4.00011E-001	0.00000E+000	9	...........	1426.22
	86	216.1	-4.00725E-001	-8.39853E-005	0.00000E+000	-4.00011E-001	0.00000E+000	9	...........	1426.31
	87	300	-4.00727E-001	-8.10832E-005	0.00000E+000	-4.00011E-001	0.00000E+000	9	...........	1426.22
	88	300.1	-5.00743E-001	-4.53200E-004	0.00000E+000	-5.00010E-001	0.00000E+000	9	...........	1426.22
	89	300.2	-5.00740E-001	-3.45416E-004	0.00000E+000	-5.00010E-001	0.00000E+000	9	...........	1426.22
	90	300.3	-5.00735E-001	-2.96449E-004	0.00000E+000	-5.00010E-001	0.00000E+000	9	...........	1426.22
	91	300.4	-5.00735E-001	-2.68788E-004	0.00000E+000	-5.00010E-001	0.00000E+000	9	...........	1426.22
	92	300.5	-5.00744E-001	-2.50796E-004	0.00000E+000	-5.00010E-001	0.00000E+000	9	...........	1426.22
	93	300.6	-5.00741E-001	-2.37996E-004	0.00000E+000	-5.00010E-001	0.00000E+000	9	...........	1426.22
	94	300.7	-5.00733E-001	-2.28243E-004	0.00000E+000	-5.00010E-001	0.00000E+000	9	...........	1426.22
	95	300.8	-5.00731E-001	-2.20399E-004	0.00000E+000	-5.00010E-001	0.00000E+000	9	...........	1426.22
	96	300.9	-5.00724E-001	-2.13978E-004	0.00000E+000	-5.00010E-001	0.00000E+000	9	...........	1426.22
	97	301	-5.00733E-001	-2.08532E-004	0.00000E+000	-5.00010E-001	0.00000E+000	9	...........	1426.18
