Data from AgNPs_FTO_APTES_UA_0.1mM_CRN_0uM_NaF_0.1M_Addition_RamanShift__59__11-11-27-524.txt Node

Date: Mon Dec 20 11:11:27 GMT 2021
User: TCL
Spectrometer: QEP01345
Trigger mode: 4
Integration Time (sec): 7.000000E0
Scans to average: 10
Electric dark correction enabled: true
Nonlinearity correction enabled: false
Boxcar width: 0
XAxis mode: Raman Shifts
Number of Pixels in Spectrum: 1044
>>>>>Begin Spectral Data<<<<<
46.04893	-0.2
50.45542	0.3
54.85868	-0.5
59.25871	0.8
63.6555	30.3
68.04907	32.1
72.43941	32.6
76.82654	33.8
81.21044	34.6
85.59113	40.6
89.96862	36.2
94.34289	41.4
98.71396	42.7
103.08183	42.3
107.4465	46.4
111.80798	45.5
116.16626	46.5
120.52136	48.2
124.87327	48.9
129.222	49.3
133.56755	51.3
137.90993	55.8
142.24913	58.2
146.58517	62.7
150.91804	74.6
155.24774	85
159.57429	97.4
163.89768	125.6
168.21792	163.6
172.53501	212.4
176.84895	286.6
181.15975	395.9
185.46741	535.4
189.77193	743.3
194.07331	981.6
198.37157	1281.9
202.6667	1579.1
206.9587	1864.6
211.24758	2155.9
215.53334	2437.6
219.81599	2743.5
224.09553	3058.3
228.37195	3409.9
232.64527	3795
236.91549	4163.6
241.18261	4525.4
245.44663	4856.6
249.70755	5142.2
253.96539	5363.7
258.22014	5553.7
262.4718	5704.9
266.72039	5779.5
270.96589	5811
275.20832	5807.7
279.44768	5747.6
283.68397	5670.2
287.91719	5594.1
292.14735	5575.7
296.37445	5597.9
300.59849	5680.4
304.81948	5788.5
309.03742	5886.7
313.25231	5874.4
317.46415	5718.9
321.67296	5428.9
325.87872	5175.1
330.08145	5031.3
334.28114	5008.7
338.47781	5048.2
342.67145	5140.6
346.86207	5265.9
351.04966	5461.8
355.23424	5709.9
359.4158	5901.8
363.59435	6009
367.76989	6090.5
371.94243	6128.2
376.11196	6146
380.27849	6177.1
384.44203	6201.7
388.60257	6208.6
392.76012	6224.2
396.91468	6283.6
401.06626	6395.8
405.21485	6466.1
409.36047	6402.6
413.50311	6190.5
417.64277	5996.1
421.77947	5876.8
425.9132	5836.8
430.04396	5837.1
434.17176	5864.3
438.2966	5921
442.41849	6044.5
446.53742	6199.6
450.6534	6316.9
454.76644	6403.5
458.87653	6420.8
462.98368	6368.4
467.08789	6283.1
471.18916	6228.1
475.2875	6175.2
479.38291	6185.2
483.4754	6218.5
487.56496	6329.4
491.6516	6472.1
495.73531	6530.8
499.81612	6456.9
503.89401	6348
507.96899	6282.6
512.04106	6274.4
516.11023	6364.9
520.1765	6441.7
524.23987	6572.2
528.30034	6572.6
532.35792	6493.8
536.41261	6360.9
540.46441	6144
544.51333	6003.6
548.55936	5930.2
552.60252	5952.6
556.64279	6011.5
560.6802	6065.2
564.71473	6108.7
568.7464	6271.1
572.7752	6402.9
576.80114	6365.3
580.82422	6294
584.84444	6356.3
588.86181	6505.2
592.87633	6641.1
596.888	6704
600.89682	6717.5
604.9028	7017.9
608.90594	8103.7
612.90624	9631.3
616.90371	9770.5
620.89834	8326.5
624.89015	7907.5
628.87913	8353.6
632.86528	8828.4
636.84862	9016.6
640.82913	8726.8
644.80683	8083.8
648.78172	7458.1
652.75379	6989.8
656.72306	6787.8
660.68952	6731.5
664.65319	6618.6
668.61405	6417.9
672.57211	6280.5
676.52738	6254.3
680.47986	6239.4
684.42955	6200.6
688.37646	6211.1
692.32058	6233.4
696.26192	6215.8
700.20048	6242.5
704.13626	6209.4
708.06928	6124.9
711.99952	6076.7
715.927	6062
719.85171	6117.7
723.77365	6191.9
727.69284	6143.9
731.60928	6053.4
735.52295	5971.5
739.43388	5945.7
743.34206	5943.6
747.24749	5987.9
751.15017	6031
755.05012	6080
758.94733	6247.3
762.8418	6596.1
766.73354	7181.3
770.62254	7856.5
774.50882	8186.9
778.39237	7958.4
782.27321	7295
786.15132	6649.9
790.02671	6304
793.89938	6200.1
797.76935	6235.7
801.6366	6434
805.50115	6799.2
809.36299	7169.1
813.22213	7298.6
817.07857	7071.9
820.93231	6711.1
824.78336	6327.2
828.63172	6078.8
832.47738	5955.8
836.32036	5871.8
840.16066	5820.9
843.99827	5797.1
847.8332	5776.7
851.66546	5746.5
855.49504	5749.6
859.32195	5742.4
863.1462	5780.9
866.96777	5873
870.78668	6036.5
874.60293	6280.8
878.41652	6545.2
882.22745	6779.3
886.03573	6906.3
889.84136	6853.4
893.64433	6603.7
897.44466	6278.7
901.24235	5968.8
905.0374	5770.2
908.8298	5609.7
912.61957	5525.7
916.40671	5508
920.19121	5493.8
923.97308	5521.8
927.75233	5531.4
931.52895	5550.6
935.30295	5518.3
939.07433	5435.1
942.84309	5363.2
946.60924	5321.9
950.37278	5285
954.13371	5292.4
957.89203	5276.2
961.64774	5233.2
965.40086	5253
969.15137	5217.7
972.89929	5188.6
976.64461	5180.8
980.38733	5186.6
984.12747	5195.1
987.86502	5232.6
991.59999	5284.4
995.33237	5390.7
999.06217	5553.8
1002.78939	5769.8
1006.51404	5970.7
1010.23611	6151.2
1013.95561	6272.4
1017.67255	6275.6
1021.38692	6168.1
1025.09872	5991.1
1028.80796	5827.9
1032.51465	5720.7
1036.21877	5650.1
1039.92035	5612.5
1043.61937	5572
1047.31584	5525.4
1051.00976	5492.8
1054.70114	5509
1058.38998	5566.3
1062.07627	5668.4
1065.76003	5733.9
1069.44126	5787.1
1073.11995	5834.6
1076.79611	5839.3
1080.46974	5815
1084.14085	5806.9
1087.80943	5829.6
1091.47549	5805.1
1095.13903	5694.9
1098.80005	5583.2
1102.45857	5495.7
1106.11456	5451.7
1109.76805	5545.8
1113.41903	5693.3
1117.06751	5923.7
1120.71348	6268.1
1124.35696	6785.6
1127.99793	7389.3
1131.63641	7861.3
1135.2724	8047.1
1138.90589	7963.7
1142.5369	7695.4
1146.16542	7244.2
1149.79145	6763.7
1153.415	6360
1157.03607	6037.4
1160.65467	5896.4
1164.27079	5878.6
1167.88443	5990.2
1171.49561	6285.3
1175.10432	6775.8
1178.71056	7459.1
1182.31434	8069.6
1185.91565	8349.4
1189.51451	8434.8
1193.11091	8488.2
1196.70485	8519.6
1200.29634	8599.2
1203.88538	8496.5
1207.47197	8180.5
1211.05612	7728.5
1214.63782	7259.5
1218.21708	6911.3
1221.79391	6628.4
1225.36829	6395.4
1228.94024	6222.3
1232.50976	6077.1
1236.07685	6003.4
1239.6415	5995.2
1243.20374	6011
1246.76355	6040.2
1250.32093	6090.5
1253.8759	6199.7
1257.42845	6294.6
1260.97859	6405.8
1264.52631	6532.3
1268.07163	6606.7
1271.61453	6690.5
1275.15503	6737
1278.69312	6755.2
1282.22882	6779.9
1285.76211	6897.2
1289.29301	7057.1
1292.82151	7262.1
1296.34761	7533.5
1299.87133	7876
1303.39266	8354.7
1306.9116	9098.9
1310.42815	9898.9
1313.94233	10481.8
1317.45412	10457.6
1320.96354	10082.3
1324.47058	9588.5
1327.97525	9090
1331.47754	8830.7
1334.97747	8771.5
1338.47502	8874.2
1341.97022	9075.4
1345.46305	9321.9
1348.95352	9639.7
1352.44163	10091
1355.92738	10751.6
1359.41078	11750.9
1362.89183	12656.6
1366.37053	12464.1
1369.84688	11164.7
1373.32088	9804.8
1376.79254	8844.3
1380.26186	8345.8
1383.72883	8093.6
1387.19347	7912.4
1390.65578	7724.9
1394.11575	7588.4
1397.57339	7529.8
1401.0287	7516.5
1404.48168	7495.4
1407.93234	7430.1
1411.38068	7313
1414.82669	7123.2
1418.27039	6880.2
1421.71177	6657.2
1425.15083	6442.4
1428.58758	6335
1432.02203	6315.3
1435.45416	6374.6
1438.88399	6391.7
1442.31151	6402.5
1445.73673	6424.9
1449.15965	6460.5
1452.58027	6451.4
1455.9986	6404
1459.41463	6386.6
1462.82837	6423.1
1466.23982	6508.7
1469.64898	6604
1473.05586	6703.1
1476.46045	6749.4
1479.86276	6840.4
1483.26279	6932.5
1486.66054	7095.5
1490.05602	7260.8
1493.44922	7508.3
1496.84016	7778.4
1500.22882	8179
1503.61521	8780.3
1506.99934	9440.7
1510.38121	10056.4
1513.76081	10368.2
1517.13816	10030.5
1520.51324	9195.8
1523.88607	8319
1527.25665	7756
1530.62498	7486.7
1533.99105	7383.5
1537.35488	7345.9
1540.71647	7375.9
1544.07581	7424
1547.4329	7478.1
1550.78776	7471.3
1554.14038	7431.2
1557.49077	7438.4
1560.83892	7460.3
1564.18484	7518.4
1567.52853	7632.2
1570.86999	7737.3
1574.20922	7827.7
1577.54624	7850.5
1580.88103	7688.7
1584.2136	7429.8
1587.54395	7332
1590.87208	7433.5
1594.19801	7771.5
1597.52172	8191.5
1600.84321	8495.2
1604.16251	8440.1
1607.47959	8117.8
1610.79447	7676.2
1614.10715	7266.3
1617.41763	6958.5
1620.7259	6761.4
1624.03199	6696
1627.33587	6738.9
1630.63757	6830.8
1633.93707	7054
1637.23439	7428.5
1640.52951	7956.2
1643.82246	8678.6
1647.11321	9489.1
1650.40179	10023.8
1653.68819	9922.6
1656.97241	9104.3
1660.25446	8108.4
1663.53433	7297
1666.81203	6741.3
1670.08756	6339.7
1673.36092	6041.5
1676.63211	5855.6
1679.90115	5695.9
1683.16801	5583.4
1686.43272	5460.4
1689.69527	5341.6
1692.95567	5262.9
1696.2139	5190.1
1699.46999	5108.9
1702.72392	5015
1705.97571	4954.3
1709.22535	4875.2
1712.47284	4821.2
1715.71819	4783
1718.96139	4720.8
1722.20246	4682.1
1725.44139	4615.9
1728.67818	4584.5
1731.91284	4502.4
1735.14537	4440.4
1738.37576	4429.6
1741.60403	4405.6
1744.83017	4354.8
1748.05418	4361.8
1751.27607	4347.4
1754.49584	4317.6
1757.71349	4331.8
1760.92903	4292.2
1764.14244	4262.4
1767.35375	4242
1770.56294	4256.8
1773.77002	4233.2
1776.97499	4195.9
1780.17785	4182.8
1783.37861	4157.7
1786.57727	4149.9
1789.77382	4115.9
1792.96828	4118.7
1796.16064	4093.3
1799.3509	4077.6
1802.53907	4076.5
1805.72514	4055.1
1808.90913	4026.8
1812.09102	4018.4
1815.27083	4023.5
1818.44856	4010.9
1821.6242	3989.1
1824.79776	3985.8
1827.96924	3991.7
1831.13864	3972.5
1834.30597	3975.9
1837.47122	3979.8
1840.6344	3952.6
1843.7955	3962.6
1846.95454	3952.4
1850.11151	3954.3
1853.26642	3943
1856.41926	3951.7
1859.57004	3943.2
1862.71876	3938.9
1865.86542	3937.7
1869.01003	3928.2
1872.15258	3933.6
1875.29308	3923.9
1878.43152	3906.7
1881.56792	3903.8
1884.70227	3903.1
1887.83457	3905
1890.96482	3889.8
1894.09304	3896.8
1897.21921	3884.9
1900.34335	3875.7
1903.46544	3885.8
1906.58551	3873.7
1909.70353	3870.8
1912.81953	3854.4
1915.93349	3860.5
1919.04543	3864.3
1922.15534	3832.1
1925.26322	3839
1928.36908	3823.7
1931.47292	3803.7
1934.57473	3796.5
1937.67453	3802.4
1940.77232	3778.4
1943.86808	3771
1946.96184	3761.7
1950.05358	3750.7
1953.14331	3748
1956.23103	3718.4
1959.31675	3710.2
1962.40046	3706.8
1965.48217	3707.8
1968.56188	3686.8
1971.63959	3670.1
1974.7153	3649.2
1977.78901	3646.4
1980.86073	3650
1983.93046	3640.2
1986.99819	3617.3
1990.06394	3608.1
1993.1277	3596.2
1996.18947	3583.5
1999.24925	3574.4
2002.30706	3562.6
2005.36288	3555.9
2008.41672	3534.2
2011.46859	3533.1
2014.51848	3516.2
2017.56639	3514.1
2020.61233	3508.5
2023.6563	3499.4
2026.6983	3480.7
2029.73833	3482.5
2032.7764	3472.9
2035.8125	3461.3
2038.84664	3456.6
2041.87881	3449.2
2044.90903	3441.5
2047.93729	3449
2050.96359	3449.4
2053.98794	3431.9
2057.01034	3430.9
2060.03078	3426.6
2063.04927	3416.9
2066.06582	3408.4
2069.08042	3404.9
2072.09307	3400.7
2075.10378	3410.3
2078.11255	3398.3
2081.11938	3383.3
2084.12426	3400.1
2087.12722	3402.1
2090.12824	3394.8
2093.12732	3394.3
2096.12447	3393.7
2099.11969	3393.1
2102.11299	3385.5
2105.10435	3390.4
2108.09379	3398
2111.08131	3398.2
2114.0669	3392
2117.05057	3399.4
2120.03233	3392.6
2123.01216	3389.3
2125.99008	3390.1
2128.96609	3389.2
2131.94018	3404.4
2134.91236	3410.9
2137.88263	3409.2
2140.851	3420.8
2143.81746	3412.3
2146.78201	3418.6
2149.74466	3416.9
2152.7054	3400.6
2155.66425	3398.5
2158.6212	3408.2
2161.57625	3405.3
2164.52941	3409
2167.48067	3396.6
2170.43004	3392.6
2173.37752	3375
2176.32311	3389.1
2179.26681	3384.3
2182.20863	3384.3
2185.14856	3390.4
2188.08661	3386.8
2191.02278	3389.7
2193.95707	3393
2196.88948	3366.4
2199.82001	3379.8
2202.74867	3364.9
2205.67545	3364.7
2208.60037	3362.2
2211.52341	3353.6
2214.44458	3344.5
2217.36388	3326.7
2220.28132	3329.5
2223.1969	3319.3
2226.11061	3321.6
2229.02246	3322.3
2231.93245	3299
2234.84058	3298.6
2237.74686	3294.3
2240.65128	3293.2
2243.55385	3281.6
2246.45456	3278
2249.35343	3255.4
2252.25044	3273
2255.14561	3264.1
2258.03893	3271.4
2260.93041	3272.7
2263.82004	3257.1
2266.70783	3257.5
2269.59378	3244.9
2272.4779	3234.7
2275.36017	3232.4
2278.24061	3216.4
2281.11922	3220.3
2283.996	3207
2286.87094	3207.3
2289.74405	3197.7
2292.61534	3187.1
2295.4848	3178.3
2298.35243	3187
2301.21824	3168.1
2304.08223	3155.2
2306.94439	3161.4
2309.80474	3170.4
2312.66327	3160.7
2315.51999	3150.1
2318.37489	3153.4
2321.22797	3142.1
2324.07925	3139.8
2326.92871	3137.6
2329.77637	3130.6
2332.62222	3131.9
2335.46626	3126.3
2338.3085	3128.9
2341.14893	3127.3
2343.98756	3127.1
2346.8244	3120.2
2349.65943	3111.7
2352.49267	3117.7
2355.32411	3115
2358.15376	3113.6
2360.98161	3108.4
2363.80768	3106.3
2366.63195	3104.8
2369.45444	3105.7
2372.27514	3109.9
2375.09405	3114.4
2377.91118	3102
2380.72652	3096.1
2383.54009	3088.6
2386.35187	3082.5
2389.16188	3074
2391.97011	3065.2
2394.77657	3060.6
2397.58125	3060.7
2400.38416	3053.9
2403.18529	3044.8
2405.98466	3037
2408.78226	3035.8
2411.57809	3008.2
2414.37216	3007.5
2417.16446	3016.8
2419.955	2992.5
2422.74378	2995.9
2425.5308	2990.3
2428.31606	2976.1
2431.09956	2981.2
2433.88131	2980.2
2436.6613	2978.7
2439.43954	2971.7
2442.21603	2963.6
2444.99077	2953.7
2447.76377	2964.1
2450.53501	2972.2
2453.30451	2972.8
2456.07226	2963.1
2458.83827	2959.6
2461.60254	2952.8
2464.36507	2954.9
2467.12586	2946.9
2469.88492	2949.7
2472.64224	2943.7
2475.39782	2937.7
2478.15167	2942.3
2480.90379	2952.4
2483.65417	2933.1
2486.40283	2939
2489.14976	2936.8
2491.89497	2942.7
2494.63845	2958.5
2497.3802	2936.7
2500.12024	2945.4
2502.85855	2939.8
2505.59514	2925.1
2508.33002	2928.4
2511.06318	2918
2513.79462	2906.3
2516.52435	2897.6
2519.25237	2901.4
2521.97867	2887.4
2524.70327	2888.3
2527.42616	2879.2
2530.14734	2876.3
2532.86681	2874.5
2535.58458	2865.5
2538.30065	2867.8
2541.01501	2856.5
2543.72768	2855.7
2546.43864	2839.9
2549.14791	2837.9
2551.85548	2840.7
2554.56136	2841.3
2557.26554	2837.3
2559.96803	2816.8
2562.66883	2816.7
2565.36794	2814
2568.06536	2808.8
2570.7611	2811.3
2573.45514	2805.9
2576.14751	2808.4
2578.83819	2798.1
2581.52719	2794.2
2584.21451	2785.3
2586.90015	2774.1
2589.58411	2770.4
2592.2664	2767.8
2594.94701	2758.1
2597.62594	2765.7
2600.30321	2763.6
2602.9788	2761.1
2605.65273	2755.2
2608.32498	2757.5
2610.99557	2749.3
2613.66449	2744.5
2616.33175	2755.2
2618.99734	2751.7
2621.66128	2732
2624.32355	2735.9
2626.98416	2733.6
2629.64311	2738.3
2632.30041	2732
2634.95605	2724
2637.61004	2706.2
2640.26238	2721.4
2642.91306	2714
2645.56209	2707
2648.20948	2711.8
2650.85521	2706.7
2653.4993	2706.2
2656.14175	2696
2658.78255	2707.9
2661.42171	2700.6
2664.05923	2701.5
2666.6951	2706.9
2669.32934	2714.7
2671.96194	2706.2
2674.59291	2715.7
2677.22224	2708.6
2679.84993	2719.1
2682.476	2701.2
2685.10043	2710.9
2687.72324	2718.8
2690.34441	2704.4
2692.96396	2712.5
2695.58188	2710.3
2698.19818	2709.9
2700.81285	2716
2703.4259	2731.2
2706.03733	2738.8
2708.64714	2732.8
2711.25533	2737
2713.86191	2724
2716.46687	2729.1
2719.07021	2723.3
2721.67194	2733.7
2724.27206	2726.9
2726.87057	2729.3
2729.46747	2716.4
2732.06276	2730.6
2734.65644	2718.7
2737.24852	2717.9
2739.83899	2718.6
2742.42786	2712.5
2745.01513	2700.4
2747.60079	2712.6
2750.18486	2701.3
2752.76733	2697.6
2755.3482	2701.5
2757.92747	2697.4
2760.50515	2690.1
2763.08123	2681.1
2765.65573	2685.5
2768.22863	2688
2770.79994	2683.6
2773.36967	2683.1
2775.9378	2678.4
2778.50435	2674.9
2781.06932	2672.1
2783.6327	2685.6
2786.1945	2682.5
2788.75471	2671.5
2791.31335	2672.4
2793.87041	2653
2796.42589	2661.9
2798.97979	2659.3
2801.53212	2649.7
2804.08288	2654.7
2806.63206	2648.8
2809.17967	2640
2811.72571	2638.7
2814.27018	2642.4
2816.81308	2629.8
2819.35442	2628.3
2821.89419	2633.2
2824.43239	2634.2
2826.96904	2638.7
2829.50412	2642.2
2832.03763	2625.8
2834.56959	2642.1
2837.1	2626.2
2839.62884	2637.5
2842.15613	2624.1
2844.68186	2646.4
2847.20604	2652
2849.72867	2665
2852.24974	2658.4
2854.76927	2666
2857.28724	2663.6
2859.80367	2660
2862.31855	2650
2864.83189	2654.8
2867.34368	2640
2869.85393	2651.8
2872.36264	2658.2
2874.8698	2645
2877.37543	2653.7
2879.87952	2643.4
2882.38207	2647.3
2884.88308	2651.2
2887.38256	2664.1
2889.88051	2652.5
2892.37692	2646.9
2894.8718	2651.3
2897.36515	2672
2899.85698	2654.7
2902.34727	2675.8
2904.83604	2659.3
2907.32328	2656.3
2909.809	2666
2912.29319	2664.3
2914.77587	2666.1
2917.25702	2667.1
2919.73665	2668.1
2922.21476	2658
2924.69136	2650.8
2927.16644	2656.9
2929.64	2650.4
2932.11205	2638.6
2934.58258	2646.3
2937.05161	2642.5
2939.51912	2636.1
2941.98513	2622.8
2944.44962	2640.6
2946.91261	2603.9
2949.37409	2619.8
2951.83407	2611.3
2954.29254	2609.9
2956.74951	2600.3
2959.20498	2596.4
2961.65895	2588.6
2964.11142	2580.6
2966.56239	2572.1
2969.01186	2599
2971.45984	2579.2
2973.90632	2579.6
2976.35131	2560.5
2978.7948	2580.5
2981.23681	2546.1
2983.67732	2550
2986.11635	2552.4
2988.55388	2552.2
2990.98993	2533.8
2993.4245	2544.5
2995.85758	2532.3
2998.28917	2548.8
3000.71928	2524.6
3003.14791	2528.7
3005.57506	2524.6
3008.00073	2526
3010.42493	2517.5
3012.84764	2525
3015.26888	2535
3017.68865	2537
3020.10694	2526
3022.52376	2517.5
3024.9391	2520
3027.35298	2511.9
3029.76539	2525.5
3032.17632	2520.7
3034.5858	2512.1
3036.9938	2521
3039.40034	2523.3
3041.80542	2519.4
3044.20903	2517.1
3046.61118	2518
3049.01187	2516.5
3051.4111	2515.1
3053.80888	2523.2
3056.20519	2510.9
3058.60005	2512.2
3060.99345	2521.5
3063.3854	2510.8
3065.7759	2505.9
3068.16494	2517.2
3070.55254	2502.9
3072.93868	2506.3
3075.32338	2511
3077.70662	2502.1
3080.08842	2505.1
3082.46878	2508.7
3084.84769	2516
3087.22515	2506.6
3089.60118	2514.9
3091.97576	2525.8
3094.3489	2520.2
3096.72061	2528.7
3099.09087	2534.3
3101.4597	2540.3
3103.82709	2544.7
3106.19305	2539.7
3108.55757	2549.1
3110.92066	2530.4
3113.28232	2543.4
3115.64255	2536.1
3118.00134	2543.4
3120.35871	2543
3122.71466	2556.5
3125.06917	2545
3127.42226	2545
3129.77393	2570
3132.12417	2573.7
3134.47299	2577.5
3136.82039	2576.3
3139.16636	2584.2
3141.51092	2604.7
3143.85406	2600.1
3146.19579	2607.3
3148.53609	2625.4
3150.87499	2635.4
3153.21246	2640
3155.54853	2648.6
3157.88318	2648.9
3160.21642	2666.3
3162.54826	2660.9
3164.87868	2664.9
3167.2077	2666.6
3169.5353	2680.7
3171.86151	2690
3174.18631	2690.5
3176.5097	2693.7
3178.83169	2684.6
3181.15228	2690
3183.47147	2691.7
3185.78926	2710.9
3188.10565	2704.9
3190.42065	2718
3192.73424	2717.6
3195.04645	2718.7
3197.35725	2731.4
3199.66667	2742
3201.97469	2751.6
3204.28132	2762.9
3206.58656	2771.8
3208.8904	2770.1
3211.19287	2775.7
3213.49394	2775.9
3215.79363	2779.1
3218.09193	2787.3
3220.38884	2804.4
3222.68438	2810.8
3224.97853	2786.3
3227.2713	2797.6
3229.56269	2788.1
3231.8527	2800.1
3234.14133	2776.7
3236.42858	2795.3
3238.71446	2790.5
3240.99896	2793.5
3243.28209	2797.5
3245.56384	2793.8
3247.84423	2783.2
3250.12324	2792.8
3252.40088	2795.4
3254.67715	2792.9
3256.95205	2784.1
3259.22558	2794.3
3261.49775	2781.9
3263.76855	2787.4
3266.03799	2781.4
3268.30606	2778.6
3270.57277	2772.8
3272.83812	2780.8
3275.10211	2761.7
3277.36474	2768.7
3279.62601	2776
3281.88593	2761.7
3284.14448	2780.8
3286.40168	2781.4
3288.65753	2755.3
3290.91202	2756.9
3293.16516	2759.3
3295.41695	2733.5
3297.66738	2737.3
3299.91647	2716.7
3302.16421	2704.2
3304.4106	2705.8
3306.65564	2693.9
3308.89933	2672.1
3311.14169	2673.6
3313.38269	2637.2
3315.62236	2626
3317.86068	2602.3
3320.09766	2570.7
3322.3333	2548.3
3324.5676	2560.3
3326.80056	2524.7
3329.03219	2508.7
3331.26248	0.4
3333.49143	0.1
3335.71905	-0.4
