Data from AgNPs_FTO_APTES_UA_0.1mM_CRN_1000uM_NaF_0.1M_Addition_RamanShift__30__15-49-07-837.txt Node

Date: Mon Dec 20 15:49:07 GMT 2021
User: TCL
Spectrometer: QEP01345
Trigger mode: 4
Integration Time (sec): 7.000000E0
Scans to average: 10
Electric dark correction enabled: true
Nonlinearity correction enabled: false
Boxcar width: 0
XAxis mode: Raman Shifts
Number of Pixels in Spectrum: 1044
>>>>>Begin Spectral Data<<<<<
46.04893	0.1625
50.45542	0.6625
54.85868	-0.9375
59.25871	1.6625
63.6555	22.6625
68.04907	22.6625
72.43941	25.1625
76.82654	26.3625
81.21044	27.3625
85.59113	31.4625
89.96862	28.7625
94.34289	30.7625
98.71396	34.0625
103.08183	30.8625
107.4465	33.9625
111.80798	35.4625
116.16626	34.6625
120.52136	34.3625
124.87327	37.1625
129.222	34.1625
133.56755	38.2625
137.90993	37.1625
142.24913	41.6625
146.58517	39.3625
150.91804	53.2625
155.24774	51.9625
159.57429	64.6625
163.89768	77.7625
168.21792	102.5625
172.53501	128.2625
176.84895	168.6625
181.15975	236.3625
185.46741	326.3625
189.77193	436.6625
194.07331	580.1625
198.37157	756.8625
202.6667	928.8625
206.9587	1110.2625
211.24758	1280.1625
215.53334	1456.2625
219.81599	1638.2625
224.09553	1838.0625
228.37195	2057.8625
232.64527	2307.4625
236.91549	2558.5625
241.18261	2779.1625
245.44663	2977.3625
249.70755	3127.0625
253.96539	3252.6625
258.22014	3318.3625
262.4718	3357.6625
266.72039	3350.0625
270.96589	3325.5625
275.20832	3278.8625
279.44768	3195.8625
283.68397	3113.0625
287.91719	3053.1625
292.14735	3060.3625
296.37445	3126.5625
300.59849	3252.9625
304.81948	3389.1625
309.03742	3499.9625
313.25231	3470.0625
317.46415	3308.5625
321.67296	3017.0625
325.87872	2778.1625
330.08145	2644.2625
334.28114	2630.5625
338.47781	2666.1625
342.67145	2732.2625
346.86207	2826.5625
351.04966	2997.1625
355.23424	3222.8625
359.4158	3410.4625
363.59435	3495.9625
367.76989	3565.4625
371.94243	3598.4625
376.11196	3618.6625
380.27849	3618.0625
384.44203	3598.8625
388.60257	3561.4625
392.76012	3514.0625
396.91468	3538.3625
401.06626	3578.9625
405.21485	3633.2625
409.36047	3530.3625
413.50311	3293.5625
417.64277	3067.3625
421.77947	2919.9625
425.9132	2846.0625
430.04396	2813.1625
434.17176	2811.6625
438.2966	2842.2625
442.41849	2882.3625
446.53742	2943.8625
450.6534	2996.0625
454.76644	3019.5625
458.87653	3024.2625
462.98368	3013.5625
467.08789	2981.3625
471.18916	2948.6625
475.2875	2911.9625
479.38291	2906.0625
483.4754	2959.9625
487.56496	3065.1625
491.6516	3162.2625
495.73531	3206.1625
499.81612	3160.0625
503.89401	3112.0625
507.96899	3084.8625
512.04106	3132.5625
516.11023	3226.5625
520.1765	3354.1625
524.23987	3435.8625
528.30034	3444.2625
532.35792	3396.3625
536.41261	3258.6625
540.46441	3071.5625
544.51333	2921.3625
548.55936	2838.2625
552.60252	2837.1625
556.64279	2865.0625
560.6802	2899.5625
564.71473	2931.8625
568.7464	3077.1625
572.7752	3157.1625
576.80114	3075.3625
580.82422	2951.5625
584.84444	2941.9625
588.86181	2993.9625
592.87633	3014.6625
596.888	3043.1625
600.89682	3126.2625
604.9028	3490.9625
608.90594	4503.8625
612.90624	5962.7625
616.90371	6103.9625
620.89834	4807.5625
624.89015	4386.3625
628.87913	4706.5625
632.86528	5106.3625
636.84862	5346.1625
640.82913	5150.8625
644.80683	4626.9625
648.78172	4051.0625
652.75379	3666.6625
656.72306	3487.9625
660.68952	3449.0625
664.65319	3330.3625
668.61405	3110.8625
672.57211	3013.8625
676.52738	3016.9625
680.47986	3024.8625
684.42955	3014.8625
688.37646	2982.8625
692.32058	2957.1625
696.26192	2925.1625
700.20048	2939.2625
704.13626	2921.3625
708.06928	2893.1625
711.99952	2860.1625
715.927	2860.6625
719.85171	2909.4625
723.77365	2969.7625
727.69284	2984.1625
731.60928	2914.1625
735.52295	2827.2625
739.43388	2783.4625
743.34206	2770.4625
747.24749	2806.9625
751.15017	2798.3625
755.05012	2857.3625
758.94733	2965.2625
762.8418	3264.9625
766.73354	3751.6625
770.62254	4344.6625
774.50882	4682.2625
778.39237	4575.0625
782.27321	3995.6625
786.15132	3373.1625
790.02671	3057.9625
793.89938	2931.7625
797.76935	2958.2625
801.6366	3108.3625
805.50115	3367.4625
809.36299	3719.7625
813.22213	3862.3625
817.07857	3732.3625
820.93231	3426.3625
824.78336	3094.0625
828.63172	2856.4625
832.47738	2745.5625
836.32036	2666.3625
840.16066	2641.9625
843.99827	2614.4625
847.8332	2599.1625
851.66546	2577.1625
855.49504	2582.6625
859.32195	2613.4625
863.1462	2627.5625
866.96777	2698.9625
870.78668	2814.3625
874.60293	2986.0625
878.41652	3221.0625
882.22745	3439.3625
886.03573	3592.8625
889.84136	3598.7625
893.64433	3435.4625
897.44466	3160.1625
901.24235	2914.9625
905.0374	2723.8625
908.8298	2590.1625
912.61957	2513.8625
916.40671	2471.9625
920.19121	2444.8625
923.97308	2429.3625
927.75233	2447.7625
931.52895	2457.6625
935.30295	2462.7625
939.07433	2390.3625
942.84309	2350.6625
946.60924	2296.3625
950.37278	2282.7625
954.13371	2278.3625
957.89203	2262.6625
961.64774	2270.4625
965.40086	2247.3625
969.15137	2236.4625
972.89929	2231.5625
976.64461	2231.6625
980.38733	2237.4625
984.12747	2246.2625
987.86502	2261.4625
991.59999	2298.9625
995.33237	2339.3625
999.06217	2425.8625
1002.78939	2547.2625
1006.51404	2693.0625
1010.23611	2829.5625
1013.95561	2948.9625
1017.67255	2973.6625
1021.38692	2928.7625
1025.09872	2817.3625
1028.80796	2664.4625
1032.51465	2542.6625
1036.21877	2466.1625
1039.92035	2418.7625
1043.61937	2410.0625
1047.31584	2425.2625
1051.00976	2440.1625
1054.70114	2471.6625
1058.38998	2503.5625
1062.07627	2554.1625
1065.76003	2615.7625
1069.44126	2650.9625
1073.11995	2664.5625
1076.79611	2663.2625
1080.46974	2662.7625
1084.14085	2653.6625
1087.80943	2667.7625
1091.47549	2640.4625
1095.13903	2565.1625
1098.80005	2477.3625
1102.45857	2430.9625
1106.11456	2425.8625
1109.76805	2491.0625
1113.41903	2637.1625
1117.06751	2848.4625
1120.71348	3143.5625
1124.35696	3549.3625
1127.99793	3999.0625
1131.63641	4331.5625
1135.2724	4447.8625
1138.90589	4401.4625
1142.5369	4159.2625
1146.16542	3807.3625
1149.79145	3423.2625
1153.415	3072.9625
1157.03607	2828.7625
1160.65467	2691.3625
1164.27079	2659.3625
1167.88443	2709.7625
1171.49561	2886.0625
1175.10432	3179.3625
1178.71056	3668.2625
1182.31434	4124.4625
1185.91565	4314.6625
1189.51451	4294.9625
1193.11091	4245.1625
1196.70485	4286.1625
1200.29634	4357.6625
1203.88538	4427.8625
1207.47197	4248.5625
1211.05612	3929.1625
1214.63782	3543.4625
1218.21708	3207.4625
1221.79391	2942.9625
1225.36829	2745.0625
1228.94024	2634.1625
1232.50976	2566.9625
1236.07685	2532.8625
1239.6415	2543.9625
1243.20374	2553.2625
1246.76355	2584.5625
1250.32093	2613.1625
1253.8759	2632.2625
1257.42845	2686.0625
1260.97859	2721.0625
1264.52631	2782.3625
1268.07163	2836.3625
1271.61453	2867.9625
1275.15503	2879.7625
1278.69312	2863.0625
1282.22882	2846.0625
1285.76211	2866.4625
1289.29301	2971.6625
1292.82151	3067.6625
1296.34761	3192.1625
1299.87133	3424.8625
1303.39266	3799.3625
1306.9116	4356.6625
1310.42815	4919.1625
1313.94233	5102.2625
1317.45412	4825.8625
1320.96354	4353.4625
1324.47058	3977.7625
1327.97525	3703.0625
1331.47754	3563.2625
1334.97747	3561.8625
1338.47502	3660.6625
1341.97022	3845.5625
1345.46305	4154.2625
1348.95352	4598.4625
1352.44163	5103.3625
1355.92738	5756.4625
1359.41078	6672.9625
1362.89183	7382.8625
1366.37053	7024.7625
1369.84688	5963.5625
1373.32088	5011.8625
1376.79254	4347.6625
1380.26186	3953.0625
1383.72883	3692.1625
1387.19347	3500.6625
1390.65578	3340.1625
1394.11575	3196.7625
1397.57339	3111.4625
1401.0287	3040.8625
1404.48168	2982.6625
1407.93234	2903.9625
1411.38068	2841.1625
1414.82669	2760.1625
1418.27039	2687.9625
1421.71177	2632.0625
1425.15083	2550.8625
1428.58758	2501.6625
1432.02203	2465.1625
1435.45416	2445.3625
1438.88399	2425.2625
1442.31151	2388.8625
1445.73673	2403.6625
1449.15965	2393.6625
1452.58027	2376.4625
1455.9986	2356.0625
1459.41463	2348.8625
1462.82837	2366.3625
1466.23982	2416.0625
1469.64898	2461.3625
1473.05586	2501.5625
1476.46045	2515.1625
1479.86276	2554.6625
1483.26279	2631.1625
1486.66054	2742.1625
1490.05602	2905.3625
1493.44922	3135.6625
1496.84016	3491.6625
1500.22882	4050.3625
1503.61521	4829.7625
1506.99934	5675.3625
1510.38121	6267.6625
1513.76081	6237.5625
1517.13816	5579.8625
1520.51324	4638.3625
1523.88607	3879.2625
1527.25665	3433.5625
1530.62498	3199.5625
1533.99105	3113.9625
1537.35488	3076.8625
1540.71647	3097.7625
1544.07581	3163.3625
1547.4329	3225.9625
1550.78776	3301.9625
1554.14038	3320.1625
1557.49077	3361.1625
1560.83892	3400.3625
1564.18484	3490.7625
1567.52853	3618.7625
1570.86999	3761.7625
1574.20922	3841.8625
1577.54624	3833.0625
1580.88103	3614.9625
1584.2136	3349.1625
1587.54395	3191.8625
1590.87208	3145.0625
1594.19801	3222.3625
1597.52172	3369.4625
1600.84321	3442.3625
1604.16251	3384.3625
1607.47959	3295.7625
1610.79447	3232.4625
1614.10715	3120.2625
1617.41763	3052.5625
1620.7259	2999.6625
1624.03199	2976.8625
1627.33587	2986.6625
1630.63757	3009.9625
1633.93707	3078.9625
1637.23439	3223.1625
1640.52951	3476.3625
1643.82246	3856.8625
1647.11321	4410.4625
1650.40179	4848.7625
1653.68819	4838.3625
1656.97241	4378.6625
1660.25446	3839.1625
1663.53433	3428.0625
1666.81203	3148.0625
1670.08756	2962.7625
1673.36092	2814.2625
1676.63211	2691.3625
1679.90115	2602.2625
1683.16801	2528.3625
1686.43272	2441.8625
1689.69527	2389.3625
1692.95567	2336.2625
1696.2139	2299.5625
1699.46999	2247.1625
1702.72392	2180.3625
1705.97571	2107.1625
1709.22535	2036.5625
1712.47284	1986.7625
1715.71819	1954.2625
1718.96139	1922.4625
1722.20246	1891.8625
1725.44139	1862.6625
1728.67818	1848.0625
1731.91284	1813.5625
1735.14537	1786.5625
1738.37576	1778.0625
1741.60403	1754.5625
1744.83017	1743.0625
1748.05418	1734.7625
1751.27607	1725.9625
1754.49584	1721.7625
1757.71349	1717.6625
1760.92903	1701.3625
1764.14244	1688.9625
1767.35375	1664.8625
1770.56294	1649.0625
1773.77002	1629.2625
1776.97499	1603.0625
1780.17785	1566.5625
1783.37861	1553.2625
1786.57727	1540.8625
1789.77382	1524.2625
1792.96828	1523.8625
1796.16064	1519.4625
1799.3509	1505.3625
1802.53907	1495.2625
1805.72514	1493.5625
1808.90913	1474.0625
1812.09102	1479.1625
1815.27083	1460.7625
1818.44856	1459.1625
1821.6242	1452.2625
1824.79776	1440.1625
1827.96924	1441.2625
1831.13864	1438.3625
1834.30597	1437.5625
1837.47122	1431.9625
1840.6344	1424.2625
1843.7955	1427.3625
1846.95454	1424.7625
1850.11151	1424.3625
1853.26642	1413.8625
1856.41926	1405.6625
1859.57004	1405.1625
1862.71876	1411.3625
1865.86542	1410.1625
1869.01003	1398.5625
1872.15258	1397.4625
1875.29308	1393.6625
1878.43152	1384.0625
1881.56792	1382.5625
1884.70227	1368.9625
1887.83457	1364.5625
1890.96482	1369.4625
1894.09304	1378.4625
1897.21921	1362.5625
1900.34335	1363.5625
1903.46544	1361.3625
1906.58551	1364.5625
1909.70353	1358.7625
1912.81953	1360.1625
1915.93349	1357.0625
1919.04543	1353.2625
1922.15534	1342.4625
1925.26322	1337.1625
1928.36908	1334.3625
1931.47292	1328.4625
1934.57473	1314.6625
1937.67453	1324.0625
1940.77232	1311.4625
1943.86808	1311.1625
1946.96184	1305.5625
1950.05358	1296.9625
1953.14331	1290.4625
1956.23103	1293.0625
1959.31675	1283.6625
1962.40046	1288.0625
1965.48217	1281.7625
1968.56188	1278.9625
1971.63959	1271.0625
1974.7153	1273.4625
1977.78901	1265.3625
1980.86073	1254.1625
1983.93046	1251.7625
1986.99819	1249.3625
1990.06394	1246.8625
1993.1277	1239.6625
1996.18947	1228.6625
1999.24925	1228.7625
2002.30706	1227.3625
2005.36288	1217.9625
2008.41672	1208.8625
2011.46859	1204.2625
2014.51848	1208.1625
2017.56639	1199.3625
2020.61233	1200.0625
2023.6563	1190.6625
2026.6983	1189.8625
2029.73833	1184.6625
2032.7764	1188.1625
2035.8125	1179.8625
2038.84664	1178.9625
2041.87881	1177.2625
2044.90903	1168.3625
2047.93729	1170.5625
2050.96359	1176.8625
2053.98794	1172.7625
2057.01034	1161.7625
2060.03078	1162.1625
2063.04927	1162.6625
2066.06582	1162.0625
2069.08042	1155.2625
2072.09307	1155.4625
2075.10378	1153.9625
2078.11255	1145.0625
2081.11938	1148.2625
2084.12426	1145.7625
2087.12722	1144.2625
2090.12824	1151.1625
2093.12732	1143.9625
2096.12447	1143.1625
2099.11969	1143.8625
2102.11299	1133.4625
2105.10435	1139.9625
2108.09379	1139.3625
2111.08131	1146.2625
2114.0669	1145.2625
2117.05057	1139.1625
2120.03233	1139.2625
2123.01216	1140.3625
2125.99008	1140.7625
2128.96609	1147.9625
2131.94018	1146.8625
2134.91236	1148.1625
2137.88263	1143.0625
2140.851	1140.8625
2143.81746	1147.8625
2146.78201	1147.6625
2149.74466	1146.2625
2152.7054	1143.0625
2155.66425	1132.1625
2158.6212	1127.3625
2161.57625	1133.1625
2164.52941	1143.2625
2167.48067	1134.5625
2170.43004	1131.7625
2173.37752	1123.8625
2176.32311	1124.6625
2179.26681	1122.2625
2182.20863	1127.5625
2185.14856	1122.9625
2188.08661	1118.3625
2191.02278	1123.2625
2193.95707	1110.1625
2196.88948	1111.4625
2199.82001	1116.2625
2202.74867	1107.6625
2205.67545	1108.6625
2208.60037	1108.0625
2211.52341	1090.4625
2214.44458	1094.2625
2217.36388	1098.6625
2220.28132	1086.2625
2223.1969	1085.1625
2226.11061	1089.3625
2229.02246	1080.9625
2231.93245	1078.1625
2234.84058	1083.6625
2237.74686	1076.8625
2240.65128	1077.6625
2243.55385	1081.9625
2246.45456	1070.2625
2249.35343	1075.2625
2252.25044	1069.3625
2255.14561	1064.0625
2258.03893	1080.6625
2260.93041	1088.3625
2263.82004	1068.6625
2266.70783	1071.6625
2269.59378	1061.6625
2272.4779	1049.4625
2275.36017	1054.8625
2278.24061	1056.9625
2281.11922	1044.5625
2283.996	1050.8625
2286.87094	1043.7625
2289.74405	1038.4625
2292.61534	1032.9625
2295.4848	1034.6625
2298.35243	1030.1625
2301.21824	1025.9625
2304.08223	1025.6625
2306.94439	1030.5625
2309.80474	1024.0625
2312.66327	1022.2625
2315.51999	1018.4625
2318.37489	1022.4625
2321.22797	1023.1625
2324.07925	1006.4625
2326.92871	1010.3625
2329.77637	1014.3625
2332.62222	1012.3625
2335.46626	1014.5625
2338.3085	1013.9625
2341.14893	1003.7625
2343.98756	1006.1625
2346.8244	1001.1625
2349.65943	995.7625
2352.49267	996.7625
2355.32411	1008.2625
2358.15376	1006.9625
2360.98161	999.8625
2363.80768	1011.8625
2366.63195	1003.2625
2369.45444	1007.4625
2372.27514	1010.4625
2375.09405	1016.9625
2377.91118	1009.4625
2380.72652	1004.1625
2383.54009	999.4625
2386.35187	1003.0625
2389.16188	994.2625
2391.97011	999.3625
2394.77657	989.5625
2397.58125	989.8625
2400.38416	984.9625
2403.18529	976.6625
2405.98466	975.4625
2408.78226	982.3625
2411.57809	966.3625
2414.37216	960.3625
2417.16446	962.7625
2419.955	959.3625
2422.74378	957.5625
2425.5308	954.3625
2428.31606	957.7625
2431.09956	947.3625
2433.88131	952.8625
2436.6613	945.4625
2439.43954	957.3625
2442.21603	942.2625
2444.99077	948.7625
2447.76377	948.0625
2450.53501	946.9625
2453.30451	943.2625
2456.07226	947.0625
2458.83827	940.8625
2461.60254	944.6625
2464.36507	940.4625
2467.12586	934.8625
2469.88492	940.0625
2472.64224	939.4625
2475.39782	947.9625
2478.15167	950.5625
2480.90379	948.2625
2483.65417	945.8625
2486.40283	949.7625
2489.14976	942.3625
2491.89497	943.5625
2494.63845	955.0625
2497.3802	953.9625
2500.12024	943.5625
2502.85855	943.3625
2505.59514	931.8625
2508.33002	928.7625
2511.06318	931.0625
2513.79462	915.5625
2516.52435	910.4625
2519.25237	908.6625
2521.97867	894.4625
2524.70327	906.3625
2527.42616	906.0625
2530.14734	898.1625
2532.86681	893.5625
2535.58458	893.3625
2538.30065	889.7625
2541.01501	897.1625
2543.72768	894.1625
2546.43864	896.7625
2549.14791	889.2625
2551.85548	889.2625
2554.56136	887.7625
2557.26554	886.0625
2559.96803	880.6625
2562.66883	877.8625
2565.36794	873.9625
2568.06536	878.8625
2570.7611	882.9625
2573.45514	869.2625
2576.14751	871.5625
2578.83819	865.0625
2581.52719	862.7625
2584.21451	861.6625
2586.90015	857.9625
2589.58411	856.6625
2592.2664	853.6625
2594.94701	850.9625
2597.62594	849.2625
2600.30321	845.2625
2602.9788	847.6625
2605.65273	849.9625
2608.32498	850.2625
2610.99557	843.0625
2613.66449	840.0625
2616.33175	840.4625
2618.99734	841.1625
2621.66128	841.2625
2624.32355	843.9625
2626.98416	840.3625
2629.64311	833.2625
2632.30041	828.4625
2634.95605	833.2625
2637.61004	827.8625
2640.26238	830.9625
2642.91306	821.2625
2645.56209	827.1625
2648.20948	833.1625
2650.85521	822.4625
2653.4993	825.4625
2656.14175	821.2625
2658.78255	816.3625
2661.42171	832.5625
2664.05923	820.7625
2666.6951	825.3625
2669.32934	828.8625
2671.96194	825.0625
2674.59291	816.5625
2677.22224	824.6625
2679.84993	827.0625
2682.476	822.9625
2685.10043	827.6625
2687.72324	826.0625
2690.34441	827.1625
2692.96396	828.1625
2695.58188	829.5625
2698.19818	829.3625
2700.81285	829.1625
2703.4259	847.3625
2706.03733	880.9625
2708.64714	855.3625
2711.25533	843.4625
2713.86191	844.3625
2716.46687	843.4625
2719.07021	839.7625
2721.67194	834.6625
2724.27206	828.7625
2726.87057	834.9625
2729.46747	831.3625
2732.06276	831.9625
2734.65644	826.8625
2737.24852	825.9625
2739.83899	829.5625
2742.42786	825.6625
2745.01513	823.6625
2747.60079	822.8625
2750.18486	816.1625
2752.76733	806.8625
2755.3482	814.2625
2757.92747	817.0625
2760.50515	815.5625
2763.08123	809.1625
2765.65573	802.3625
2768.22863	807.3625
2770.79994	805.2625
2773.36967	811.7625
2775.9378	816.1625
2778.50435	808.2625
2781.06932	803.2625
2783.6327	808.4625
2786.1945	803.7625
2788.75471	808.0625
2791.31335	806.6625
2793.87041	806.4625
2796.42589	803.6625
2798.97979	805.0625
2801.53212	802.0625
2804.08288	801.4625
2806.63206	806.7625
2809.17967	799.1625
2811.72571	810.8625
2814.27018	806.9625
2816.81308	811.1625
2819.35442	808.4625
2821.89419	805.3625
2824.43239	813.0625
2826.96904	811.9625
2829.50412	819.7625
2832.03763	815.3625
2834.56959	815.7625
2837.1	807.5625
2839.62884	813.0625
2842.15613	816.7625
2844.68186	813.3625
2847.20604	815.7625
2849.72867	819.1625
2852.24974	822.3625
2854.76927	833.2625
2857.28724	849.1625
2859.80367	829.8625
2862.31855	834.0625
2864.83189	835.7625
2867.34368	829.7625
2869.85393	832.8625
2872.36264	827.9625
2874.8698	837.1625
2877.37543	847.5625
2879.87952	836.1625
2882.38207	837.6625
2884.88308	838.8625
2887.38256	840.7625
2889.88051	838.6625
2892.37692	844.9625
2894.8718	843.9625
2897.36515	845.4625
2899.85698	852.0625
2902.34727	857.3625
2904.83604	857.2625
2907.32328	864.3625
2909.809	870.4625
2912.29319	861.8625
2914.77587	868.5625
2917.25702	867.2625
2919.73665	873.0625
2922.21476	874.6625
2924.69136	875.7625
2927.16644	873.8625
2929.64	873.7625
2932.11205	871.9625
2934.58258	868.6625
2937.05161	872.1625
2939.51912	877.0625
2941.98513	876.7625
2944.44962	871.3625
2946.91261	869.7625
2949.37409	875.9625
2951.83407	866.4625
2954.29254	866.8625
2956.74951	861.8625
2959.20498	851.1625
2961.65895	847.0625
2964.11142	846.6625
2966.56239	845.2625
2969.01186	843.1625
2971.45984	834.9625
2973.90632	829.2625
2976.35131	826.1625
2978.7948	828.3625
2981.23681	831.3625
2983.67732	828.1625
2986.11635	823.0625
2988.55388	824.7625
2990.98993	822.9625
2993.4245	823.3625
2995.85758	815.6625
2998.28917	819.5625
3000.71928	822.6625
3003.14791	825.1625
3005.57506	826.6625
3008.00073	825.5625
3010.42493	826.4625
3012.84764	827.9625
3015.26888	833.1625
3017.68865	832.0625
3020.10694	833.8625
3022.52376	828.2625
3024.9391	833.0625
3027.35298	838.3625
3029.76539	834.3625
3032.17632	841.6625
3034.5858	841.8625
3036.9938	844.9625
3039.40034	840.3625
3041.80542	845.0625
3044.20903	846.1625
3046.61118	841.8625
3049.01187	838.9625
3051.4111	845.1625
3053.80888	851.0625
3056.20519	848.2625
3058.60005	849.8625
3060.99345	863.2625
3063.3854	853.5625
3065.7759	861.2625
3068.16494	855.9625
3070.55254	864.6625
3072.93868	858.1625
3075.32338	873.0625
3077.70662	861.8625
3080.08842	869.0625
3082.46878	875.6625
3084.84769	879.2625
3087.22515	888.2625
3089.60118	889.3625
3091.97576	896.6625
3094.3489	892.8625
3096.72061	899.7625
3099.09087	903.3625
3101.4597	910.9625
3103.82709	915.5625
3106.19305	914.6625
3108.55757	926.8625
3110.92066	925.6625
3113.28232	929.6625
3115.64255	934.0625
3118.00134	934.8625
3120.35871	940.6625
3122.71466	952.0625
3125.06917	956.2625
3127.42226	954.0625
3129.77393	966.8625
3132.12417	976.7625
3134.47299	975.0625
3136.82039	983.7625
3139.16636	982.4625
3141.51092	1010.1625
3143.85406	1015.7625
3146.19579	1019.8625
3148.53609	1023.9625
3150.87499	1026.4625
3153.21246	1038.2625
3155.54853	1054.8625
3157.88318	1059.1625
3160.21642	1054.1625
3162.54826	1071.0625
3164.87868	1075.3625
3167.2077	1083.7625
3169.5353	1083.5625
3171.86151	1083.1625
3174.18631	1093.2625
3176.5097	1098.4625
3178.83169	1109.4625
3181.15228	1112.1625
3183.47147	1114.4625
3185.78926	1123.5625
3188.10565	1134.2625
3190.42065	1128.2625
3192.73424	1152.0625
3195.04645	1147.7625
3197.35725	1162.5625
3199.66667	1160.8625
3201.97469	1163.9625
3204.28132	1172.3625
3206.58656	1187.8625
3208.8904	1182.7625
3211.19287	1190.2625
3213.49394	1201.6625
3215.79363	1202.2625
3218.09193	1198.8625
3220.38884	1220.4625
3222.68438	1226.1625
3224.97853	1220.0625
3227.2713	1226.5625
3229.56269	1226.2625
3231.8527	1229.8625
3234.14133	1219.2625
3236.42858	1218.3625
3238.71446	1227.7625
3240.99896	1226.1625
3243.28209	1220.5625
3245.56384	1225.7625
3247.84423	1223.5625
3250.12324	1235.1625
3252.40088	1233.1625
3254.67715	1228.1625
3256.95205	1231.3625
3259.22558	1238.6625
3261.49775	1230.1625
3263.76855	1227.6625
3266.03799	1226.0625
3268.30606	1232.2625
3270.57277	1218.6625
3272.83812	1227.4625
3275.10211	1229.2625
3277.36474	1227.6625
3279.62601	1235.5625
3281.88593	1227.4625
3284.14448	1227.2625
3286.40168	1228.7625
3288.65753	1232.3625
3290.91202	1232.9625
3293.16516	1229.8625
3295.41695	1218.2625
3297.66738	1217.5625
3299.91647	1212.8625
3302.16421	1204.8625
3304.4106	1208.6625
3306.65564	1204.7625
3308.89933	1199.3625
3311.14169	1203.5625
3313.38269	1190.0625
3315.62236	1179.4625
3317.86068	1175.4625
3320.09766	1160.0625
3322.3333	1153.8625
3324.5676	1160.3625
3326.80056	1152.1625
3329.03219	1136.7625
3331.26248	-0.9375
3333.49143	1.1625
3335.71905	-1.3375
