Data from AgNPs_FTO_APTES_UA_0.1mM_CRN_50uM_NaF_0.1M_Addition_RamanShift__1__12-37-47-622.txt Node

Date: Mon Dec 20 12:37:47 GMT 2021
User: TCL
Spectrometer: QEP01345
Trigger mode: 4
Integration Time (sec): 7.000000E0
Scans to average: 10
Electric dark correction enabled: true
Nonlinearity correction enabled: false
Boxcar width: 0
XAxis mode: Raman Shifts
Number of Pixels in Spectrum: 1044
>>>>>Begin Spectral Data<<<<<
46.04893	0.9
50.45542	-0.3
54.85868	-0.8
59.25871	1.8
63.6555	31.1
68.04907	35.6
72.43941	38
76.82654	37.7
81.21044	36.3
85.59113	42.4
89.96862	42.3
94.34289	42.3
98.71396	43.6
103.08183	44.9
107.4465	46.2
111.80798	50.9
116.16626	48.6
120.52136	50.2
124.87327	52.3
129.222	53.5
133.56755	54.5
137.90993	58.6
142.24913	61
146.58517	63.4
150.91804	79.3
155.24774	89.5
159.57429	104.3
163.89768	133.2
168.21792	174.9
172.53501	224.2
176.84895	314.1
181.15975	434.5
185.46741	597.8
189.77193	827
194.07331	1096.4
198.37157	1420.5
202.6667	1766.7
206.9587	2104
211.24758	2439.7
215.53334	2790.8
219.81599	3144.5
224.09553	3547.2
228.37195	3983.5
232.64527	4461.4
236.91549	4970
241.18261	5456.1
245.44663	5908.4
249.70755	6296.5
253.96539	6614.8
258.22014	6825.4
262.4718	7012.6
266.72039	7109.7
270.96589	7151.4
275.20832	7124.9
279.44768	7048.8
283.68397	6964.5
287.91719	6842.9
292.14735	6784.9
296.37445	6713
300.59849	6720.9
304.81948	6719.6
309.03742	6717.3
313.25231	6664.2
317.46415	6591.9
321.67296	6447.9
325.87872	6362.8
330.08145	6294.3
334.28114	6290.1
338.47781	6315.7
342.67145	6344.6
346.86207	6438.6
351.04966	6515.2
355.23424	6617.7
359.4158	6728.7
363.59435	6816.1
367.76989	6907.8
371.94243	6960.2
376.11196	7022.5
380.27849	7069.2
384.44203	7138.2
388.60257	7202.3
392.76012	7246.4
396.91468	7338.2
401.06626	7413.1
405.21485	7455.2
409.36047	7439.3
413.50311	7394.6
417.64277	7321.7
421.77947	7305.3
425.9132	7291.7
430.04396	7299.2
434.17176	7347.4
438.2966	7381.7
442.41849	7456.7
446.53742	7549.1
450.6534	7609.7
454.76644	7687.7
458.87653	7729.1
462.98368	7727
467.08789	7728.9
471.18916	7724.4
475.2875	7751.9
479.38291	7771.8
483.4754	7814.8
487.56496	7960.5
491.6516	8092.8
495.73531	8202.4
499.81612	8221.6
503.89401	8201.1
507.96899	8084.6
512.04106	8007.8
516.11023	7980.8
520.1765	8005.9
524.23987	8015.9
528.30034	8070.8
532.35792	8066.4
536.41261	8057.8
540.46441	7960.7
544.51333	7869
548.55936	7798.1
552.60252	7786.4
556.64279	7813.5
560.6802	7811.9
564.71473	7850.1
568.7464	7908.4
572.7752	7936.1
576.80114	7966.9
580.82422	8001.9
584.84444	8138.7
588.86181	8285.7
592.87633	8380.9
596.888	8403.2
600.89682	8323
604.9028	8455
608.90594	8877.9
612.90624	9549.5
616.90371	9563.9
620.89834	8935.9
624.89015	8882.7
628.87913	9328.4
632.86528	9883.5
636.84862	10295.9
640.82913	10273.1
644.80683	9935.3
648.78172	9393.4
652.75379	8944.3
656.72306	8651.9
660.68952	8494.5
664.65319	8315.9
668.61405	8135.6
672.57211	8063.3
676.52738	8086.2
680.47986	8119.4
684.42955	8114.3
688.37646	8045.4
692.32058	7996.5
696.26192	7953.7
700.20048	7937.7
704.13626	7913.9
708.06928	7915.7
711.99952	7885.1
715.927	7890.8
719.85171	7946.8
723.77365	8038.1
727.69284	8084.2
731.60928	8043.5
735.52295	7933.7
739.43388	7871.7
743.34206	7841.5
747.24749	7869.4
751.15017	7859.8
755.05012	7873
758.94733	7967
762.8418	8158.9
766.73354	8410.1
770.62254	8723.9
774.50882	8839.3
778.39237	8691.2
782.27321	8335
786.15132	8042.1
790.02671	7876.2
793.89938	7800.5
797.76935	7777.8
801.6366	7856.7
805.50115	8023.3
809.36299	8257
813.22213	8413.2
817.07857	8393
820.93231	8235.3
824.78336	7975
828.63172	7788.6
832.47738	7670.5
836.32036	7615.2
840.16066	7581.6
843.99827	7573.3
847.8332	7585.5
851.66546	7563.2
855.49504	7564.6
859.32195	7601.3
863.1462	7606.2
866.96777	7662.2
870.78668	7724.5
874.60293	7892
878.41652	8018.8
882.22745	8208.5
886.03573	8324.9
889.84136	8358.3
893.64433	8284.3
897.44466	8105.6
901.24235	7858.3
905.0374	7669.9
908.8298	7556.7
912.61957	7459.1
916.40671	7419.8
920.19121	7412.8
923.97308	7398.6
927.75233	7398.3
931.52895	7406.4
935.30295	7388.4
939.07433	7317
942.84309	7269.7
946.60924	7216.9
950.37278	7196.8
954.13371	7181.2
957.89203	7174.8
961.64774	7156.2
965.40086	7139
969.15137	7122.1
972.89929	7105.4
976.64461	7112.5
980.38733	7093.3
984.12747	7104.8
987.86502	7121.7
991.59999	7183
995.33237	7201.4
999.06217	7278.9
1002.78939	7365.5
1006.51404	7463.6
1010.23611	7554.8
1013.95561	7626.8
1017.67255	7656.7
1021.38692	7666
1025.09872	7608.1
1028.80796	7532.4
1032.51465	7488.2
1036.21877	7437.7
1039.92035	7386.2
1043.61937	7342.2
1047.31584	7310.6
1051.00976	7313.9
1054.70114	7323.2
1058.38998	7358.8
1062.07627	7394.7
1065.76003	7459.1
1069.44126	7558.3
1073.11995	7627.2
1076.79611	7724.5
1080.46974	7686.5
1084.14085	7652
1087.80943	7603.8
1091.47549	7593.8
1095.13903	7538.5
1098.80005	7460.4
1102.45857	7398.4
1106.11456	7383.8
1109.76805	7436.6
1113.41903	7565.5
1117.06751	7774.6
1120.71348	8159.2
1124.35696	8635.3
1127.99793	9193.6
1131.63641	9699.4
1135.2724	9859.9
1138.90589	9772.9
1142.5369	9476.7
1146.16542	9028.6
1149.79145	8566
1153.415	8156.3
1157.03607	7865
1160.65467	7674.6
1164.27079	7632.4
1167.88443	7656.9
1171.49561	7775.6
1175.10432	8017.8
1178.71056	8327.4
1182.31434	8626.8
1185.91565	8820.1
1189.51451	8868.6
1193.11091	8861.9
1196.70485	8858.8
1200.29634	8879.9
1203.88538	8877
1207.47197	8814.3
1211.05612	8639.9
1214.63782	8439.1
1218.21708	8265.5
1221.79391	8063
1225.36829	7929.7
1228.94024	7808.2
1232.50976	7742.9
1236.07685	7682.2
1239.6415	7665.6
1243.20374	7687.6
1246.76355	7741.3
1250.32093	7794
1253.8759	7871.8
1257.42845	7971
1260.97859	8095.4
1264.52631	8158.2
1268.07163	8245.9
1271.61453	8282.5
1275.15503	8308.6
1278.69312	8330.9
1282.22882	8339.6
1285.76211	8371.1
1289.29301	8431.3
1292.82151	8541.8
1296.34761	8674
1299.87133	8871
1303.39266	9117.3
1306.9116	9410.4
1310.42815	9742
1313.94233	9952.5
1317.45412	9951.5
1320.96354	9807.5
1324.47058	9687.5
1327.97525	9507.5
1331.47754	9357.7
1334.97747	9326.4
1338.47502	9344.9
1341.97022	9448.9
1345.46305	9596.6
1348.95352	9801.6
1352.44163	10055.8
1355.92738	10378.7
1359.41078	10809.5
1362.89183	11270.7
1366.37053	11267.2
1369.84688	10655
1373.32088	9923
1376.79254	9403.4
1380.26186	9131.1
1383.72883	8928.5
1387.19347	8762.1
1390.65578	8595.9
1394.11575	8420
1397.57339	8312.6
1401.0287	8215.1
1404.48168	8146.2
1407.93234	8022.4
1411.38068	7903.8
1414.82669	7770.3
1418.27039	7626.1
1421.71177	7503.5
1425.15083	7383.8
1428.58758	7334.1
1432.02203	7292.7
1435.45416	7300.3
1438.88399	7317.5
1442.31151	7318.5
1445.73673	7311.5
1449.15965	7328.6
1452.58027	7360.6
1455.9986	7362.6
1459.41463	7363.9
1462.82837	7396.9
1466.23982	7445.4
1469.64898	7509.7
1473.05586	7566.3
1476.46045	7610.6
1479.86276	7655.9
1483.26279	7685.8
1486.66054	7750.5
1490.05602	7850.5
1493.44922	8024.7
1496.84016	8226.6
1500.22882	8531.3
1503.61521	8926.8
1506.99934	9336.3
1510.38121	9662.8
1513.76081	9762.7
1517.13816	9511.8
1520.51324	9095.8
1523.88607	8686.6
1527.25665	8444.2
1530.62498	8348.1
1533.99105	8334.4
1537.35488	8332.9
1540.71647	8320.7
1544.07581	8343
1547.4329	8307.7
1550.78776	8307.5
1554.14038	8297.4
1557.49077	8314.6
1560.83892	8346.6
1564.18484	8395.4
1567.52853	8447.2
1570.86999	8503.1
1574.20922	8556.9
1577.54624	8543.7
1580.88103	8476.1
1584.2136	8323.2
1587.54395	8218.5
1590.87208	8217
1594.19801	8313
1597.52172	8454
1600.84321	8557.6
1604.16251	8476
1607.47959	8328.9
1610.79447	8141.8
1614.10715	7997.1
1617.41763	7848.4
1620.7259	7743.3
1624.03199	7725.3
1627.33587	7783.8
1630.63757	7869.8
1633.93707	8066.3
1637.23439	8319.1
1640.52951	8674.3
1643.82246	9139.1
1647.11321	9623
1650.40179	9882.9
1653.68819	9772.3
1656.97241	9294.4
1660.25446	8760.2
1663.53433	8338.7
1666.81203	8059.4
1670.08756	7869.8
1673.36092	7769.9
1676.63211	7690.6
1679.90115	7645.3
1683.16801	7585.8
1686.43272	7486.5
1689.69527	7388.7
1692.95567	7246.6
1696.2139	7159.2
1699.46999	7079
1702.72392	6962.1
1705.97571	6827.4
1709.22535	6669.3
1712.47284	6533.3
1715.71819	6412.2
1718.96139	6296.3
1722.20246	6218.5
1725.44139	6140.2
1728.67818	6089.4
1731.91284	6014.7
1735.14537	5963.3
1738.37576	5920.4
1741.60403	5907.2
1744.83017	5871.1
1748.05418	5850.6
1751.27607	5828.6
1754.49584	5821.1
1757.71349	5829.2
1760.92903	5788.6
1764.14244	5809.2
1767.35375	5809.5
1770.56294	5788
1773.77002	5768
1776.97499	5760.6
1780.17785	5729.3
1783.37861	5705.6
1786.57727	5704.7
1789.77382	5674.4
1792.96828	5660.6
1796.16064	5632.3
1799.3509	5649.1
1802.53907	5613
1805.72514	5578.6
1808.90913	5586
1812.09102	5571.8
1815.27083	5566
1818.44856	5549.1
1821.6242	5531.2
1824.79776	5522.2
1827.96924	5516.9
1831.13864	5524.8
1834.30597	5516.8
1837.47122	5514.2
1840.6344	5480.6
1843.7955	5480.5
1846.95454	5467.1
1850.11151	5472
1853.26642	5473.2
1856.41926	5442.2
1859.57004	5468.2
1862.71876	5471.1
1865.86542	5442.6
1869.01003	5435.2
1872.15258	5422.1
1875.29308	5419.6
1878.43152	5407.7
1881.56792	5413.7
1884.70227	5397.3
1887.83457	5391.4
1890.96482	5362.5
1894.09304	5368.5
1897.21921	5372.5
1900.34335	5348.3
1903.46544	5351.2
1906.58551	5350.2
1909.70353	5335.1
1912.81953	5326.3
1915.93349	5331.9
1919.04543	5307.5
1922.15534	5314.5
1925.26322	5298.2
1928.36908	5273.7
1931.47292	5266.1
1934.57473	5243.7
1937.67453	5242.4
1940.77232	5226.2
1943.86808	5215.3
1946.96184	5215.2
1950.05358	5197
1953.14331	5178.1
1956.23103	5163.1
1959.31675	5150.5
1962.40046	5129.2
1965.48217	5120.9
1968.56188	5106.7
1971.63959	5082.8
1974.7153	5079.5
1977.78901	5047.2
1980.86073	5043.8
1983.93046	5029.2
1986.99819	5001.3
1990.06394	4993.2
1993.1277	4982.6
1996.18947	4969.1
1999.24925	4951.9
2002.30706	4962.6
2005.36288	4906.9
2008.41672	4885.2
2011.46859	4888.6
2014.51848	4868.8
2017.56639	4862.8
2020.61233	4841.4
2023.6563	4818.7
2026.6983	4826.3
2029.73833	4807.6
2032.7764	4787.5
2035.8125	4787.6
2038.84664	4771.7
2041.87881	4775.1
2044.90903	4759.4
2047.93729	4746.6
2050.96359	4761.6
2053.98794	4748.9
2057.01034	4729.6
2060.03078	4724.8
2063.04927	4735.4
2066.06582	4716.8
2069.08042	4878.4
2072.09307	4758.5
2075.10378	4707.6
2078.11255	4707.6
2081.11938	4716
2084.12426	4709.4
2087.12722	4726.2
2090.12824	4720.7
2093.12732	4701.6
2096.12447	4715.5
2099.11969	4758.4
2102.11299	4715.4
2105.10435	4705.4
2108.09379	4695.2
2111.08131	4686.3
2114.0669	4697.5
2117.05057	4715.3
2120.03233	4709
2123.01216	4729.5
2125.99008	4725.6
2128.96609	4709.6
2131.94018	4727.3
2134.91236	4719.9
2137.88263	4729
2140.851	4723.1
2143.81746	4725.5
2146.78201	4736.4
2149.74466	4727.1
2152.7054	4744.6
2155.66425	4718.9
2158.6212	4740.7
2161.57625	4722.4
2164.52941	4721.7
2167.48067	4720.6
2170.43004	4720.7
2173.37752	4706.9
2176.32311	4702
2179.26681	4715.7
2182.20863	4713
2185.14856	4703.1
2188.08661	4708.5
2191.02278	4701.6
2193.95707	4698.8
2196.88948	4686.5
2199.82001	4682.8
2202.74867	4667.3
2205.67545	4682.5
2208.60037	4656.8
2211.52341	4658.7
2214.44458	4653.3
2217.36388	4640.3
2220.28132	4644
2223.1969	4612.9
2226.11061	4595.5
2229.02246	4591
2231.93245	4588.5
2234.84058	4570.1
2237.74686	4566.4
2240.65128	4573.8
2243.55385	4557.2
2246.45456	4550
2249.35343	4544.1
2252.25044	4533.2
2255.14561	4525.2
2258.03893	4522.7
2260.93041	4543.8
2263.82004	4519.9
2266.70783	4501.3
2269.59378	4482.5
2272.4779	4471.9
2275.36017	4462
2278.24061	4454.3
2281.11922	4455
2283.996	4437.1
2286.87094	4430.8
2289.74405	4424.3
2292.61534	4417.5
2295.4848	4416.5
2298.35243	4396
2301.21824	4400.8
2304.08223	4405.9
2306.94439	4389.5
2309.80474	4393.2
2312.66327	4388.9
2315.51999	4369.2
2318.37489	4377.3
2321.22797	4369.2
2324.07925	4367.3
2326.92871	4361.1
2329.77637	4343.3
2332.62222	4337.2
2335.46626	4325.1
2338.3085	4325.8
2341.14893	4325
2343.98756	4303.3
2346.8244	4314.1
2349.65943	4298.2
2352.49267	4297.6
2355.32411	4312.3
2358.15376	4298.7
2360.98161	4282.4
2363.80768	4286
2366.63195	4289.4
2369.45444	4277.1
2372.27514	4261.6
2375.09405	4269.4
2377.91118	4255.8
2380.72652	4243.9
2383.54009	4240.6
2386.35187	4238.9
2389.16188	4223.5
2391.97011	4229.2
2394.77657	4205.3
2397.58125	4196.2
2400.38416	4182.5
2403.18529	4185.1
2405.98466	4186.9
2408.78226	4174.8
2411.57809	4159.1
2414.37216	4160.8
2417.16446	4151.3
2419.955	4161.2
2422.74378	4150
2425.5308	4149.8
2428.31606	4136.1
2431.09956	4128.1
2433.88131	4116.3
2436.6613	4116.2
2439.43954	4116.6
2442.21603	4103.6
2444.99077	4114.1
2447.76377	4098.1
2450.53501	4096.7
2453.30451	4103
2456.07226	4080.9
2458.83827	4082.4
2461.60254	4097.5
2464.36507	4081
2467.12586	4066.3
2469.88492	4066.1
2472.64224	4058.5
2475.39782	4077.7
2478.15167	4061.3
2480.90379	4054.2
2483.65417	4041
2486.40283	4047.5
2489.14976	4057.9
2491.89497	4038.9
2494.63845	4043.9
2497.3802	4039.2
2500.12024	4038.2
2502.85855	4019.4
2505.59514	4006.6
2508.33002	4003.9
2511.06318	4005.2
2513.79462	4001.3
2516.52435	3994.7
2519.25237	3999
2521.97867	3994.5
2524.70327	3985.6
2527.42616	3972.7
2530.14734	3976.8
2532.86681	3950.9
2535.58458	3958.8
2538.30065	3944.3
2541.01501	3957.9
2543.72768	3942.7
2546.43864	3923
2549.14791	3915.6
2551.85548	3914.6
2554.56136	3916.4
2557.26554	3911.7
2559.96803	3901.1
2562.66883	3902.4
2565.36794	3870.6
2568.06536	3875.3
2570.7611	3875.1
2573.45514	3861.1
2576.14751	3855
2578.83819	3860.1
2581.52719	3847.4
2584.21451	3823.6
2586.90015	3834.9
2589.58411	3819.9
2592.2664	3817.1
2594.94701	3792.7
2597.62594	3795.7
2600.30321	3781.5
2602.9788	3775.8
2605.65273	3760.6
2608.32498	3770.8
2610.99557	3770.8
2613.66449	3754.8
2616.33175	3765.8
2618.99734	3761.3
2621.66128	3755.4
2624.32355	3734.9
2626.98416	3738.7
2629.64311	3737.3
2632.30041	3720.3
2634.95605	3718.3
2637.61004	3728
2640.26238	3715.7
2642.91306	3709.1
2645.56209	3705.2
2648.20948	3695.2
2650.85521	3712.5
2653.4993	3698.1
2656.14175	3698.2
2658.78255	3698.7
2661.42171	3686.5
2664.05923	3684.7
2666.6951	3689.8
2669.32934	3677.9
2671.96194	3686.7
2674.59291	3680.5
2677.22224	3692.8
2679.84993	3687.1
2682.476	3680.1
2685.10043	3679.6
2687.72324	3681.6
2690.34441	3675.3
2692.96396	3680.2
2695.58188	3689.6
2698.19818	3678.7
2700.81285	3678.3
2703.4259	3695.8
2706.03733	3716.6
2708.64714	3714.8
2711.25533	3697
2713.86191	3689.7
2716.46687	3699.1
2719.07021	3705.6
2721.67194	3690.4
2724.27206	3676.3
2726.87057	3681.4
2729.46747	3686.7
2732.06276	3693.5
2734.65644	3675.1
2737.24852	3674.5
2739.83899	3659.8
2742.42786	3671.2
2745.01513	3666.1
2747.60079	3661.5
2750.18486	3653.7
2752.76733	3634.8
2755.3482	3631.5
2757.92747	3640
2760.50515	3630.9
2763.08123	3632.4
2765.65573	3633.2
2768.22863	3639.3
2770.79994	3617.4
2773.36967	3635.8
2775.9378	3619.7
2778.50435	3594.4
2781.06932	3589.4
2783.6327	3600.2
2786.1945	3590.6
2788.75471	3581.9
2791.31335	3580
2793.87041	3549.5
2796.42589	3549.2
2798.97979	3550.9
2801.53212	3540.1
2804.08288	3550
2806.63206	3539.1
2809.17967	3524.3
2811.72571	3522.4
2814.27018	3515
2816.81308	3514.7
2819.35442	3510.1
2821.89419	3515.9
2824.43239	3494
2826.96904	3475.4
2829.50412	3484.1
2832.03763	3486
2834.56959	3483.1
2837.1	3481.1
2839.62884	3482.9
2842.15613	3471.6
2844.68186	3491.3
2847.20604	3485.8
2849.72867	3473
2852.24974	3487.8
2854.76927	3481.1
2857.28724	3491.2
2859.80367	3461.9
2862.31855	3473.1
2864.83189	3485
2867.34368	3453
2869.85393	3461.6
2872.36264	3456.5
2874.8698	3457.5
2877.37543	3454.5
2879.87952	3451.6
2882.38207	3448.8
2884.88308	3463.4
2887.38256	3473.1
2889.88051	3474.4
2892.37692	3461.8
2894.8718	3443.1
2897.36515	3468.3
2899.85698	3450.3
2902.34727	3467.3
2904.83604	3459.7
2907.32328	3466.8
2909.809	3464.7
2912.29319	3458.4
2914.77587	3460.5
2917.25702	3458.4
2919.73665	3467.6
2922.21476	3465.2
2924.69136	3468.1
2927.16644	3466.3
2929.64	3474.3
2932.11205	3478.4
2934.58258	3465.8
2937.05161	3457.7
2939.51912	3451.1
2941.98513	3442.3
2944.44962	3454.1
2946.91261	3439.9
2949.37409	3450.8
2951.83407	3444.7
2954.29254	3450.6
2956.74951	3431.6
2959.20498	3431.6
2961.65895	3422.2
2964.11142	3434.3
2966.56239	3420.1
2969.01186	3434.1
2971.45984	3409
2973.90632	3413.4
2976.35131	3397.5
2978.7948	3390.7
2981.23681	3381.1
2983.67732	3395
2986.11635	3389.5
2988.55388	3374.8
2990.98993	3364.8
2993.4245	3374.2
2995.85758	3358.1
2998.28917	3368.7
3000.71928	3353.9
3003.14791	3356
3005.57506	3348.7
3008.00073	3360.7
3010.42493	3355.8
3012.84764	3346
3015.26888	3347.7
3017.68865	3342
3020.10694	3338.7
3022.52376	3343.1
3024.9391	3335.9
3027.35298	3341.6
3029.76539	3328
3032.17632	3331.7
3034.5858	3326.5
3036.9938	3329.8
3039.40034	3332.1
3041.80542	3320
3044.20903	3331
3046.61118	3317.9
3049.01187	3319
3051.4111	3322.5
3053.80888	3315.3
3056.20519	3317.9
3058.60005	3315.8
3060.99345	3326.1
3063.3854	3304.5
3065.7759	3304.4
3068.16494	3303.9
3070.55254	3297.2
3072.93868	3287.7
3075.32338	3301.6
3077.70662	3290.3
3080.08842	3301.3
3082.46878	3311.8
3084.84769	3293.1
3087.22515	3312.1
3089.60118	3319.8
3091.97576	3315.7
3094.3489	3315.2
3096.72061	3318.8
3099.09087	3320.9
3101.4597	3327.2
3103.82709	3324.6
3106.19305	3331.5
3108.55757	3335.2
3110.92066	3325.4
3113.28232	3318.8
3115.64255	3316.8
3118.00134	3330.5
3120.35871	3322.5
3122.71466	3317.7
3125.06917	3315.3
3127.42226	3316
3129.77393	3339.2
3132.12417	3333.2
3134.47299	3332.5
3136.82039	3337.4
3139.16636	3358.3
3141.51092	3367.5
3143.85406	3362.9
3146.19579	3372.6
3148.53609	3383.9
3150.87499	3384.8
3153.21246	3397.7
3155.54853	3409.5
3157.88318	3409.5
3160.21642	3410.1
3162.54826	3410
3164.87868	3417.7
3167.2077	3431.8
3169.5353	3417.1
3171.86151	3430.3
3174.18631	3434.4
3176.5097	3442.1
3178.83169	3444.4
3181.15228	3431.9
3183.47147	3443.1
3185.78926	3447.7
3188.10565	3441.3
3190.42065	3444
3192.73424	3441.3
3195.04645	3453.6
3197.35725	3445.6
3199.66667	3476.2
3201.97469	3471.4
3204.28132	3464.2
3206.58656	3474.7
3208.8904	3490.3
3211.19287	3495.3
3213.49394	3490.9
3215.79363	3485.1
3218.09193	3496.6
3220.38884	3507
3222.68438	3512.9
3224.97853	3498.4
3227.2713	3493.8
3229.56269	3491.4
3231.8527	3493.5
3234.14133	3489.9
3236.42858	3472
3238.71446	3465.7
3240.99896	3477.7
3243.28209	3484.4
3245.56384	3474.5
3247.84423	3472.8
3250.12324	3478.9
3252.40088	3476.5
3254.67715	3474
3256.95205	3466.6
3259.22558	3478.2
3261.49775	3474.5
3263.76855	3467.1
3266.03799	3442.1
3268.30606	3440.7
3270.57277	3437.3
3272.83812	3426.2
3275.10211	3423.7
3277.36474	3423.3
3279.62601	3426.2
3281.88593	3431.6
3284.14448	3429.8
3286.40168	3439.5
3288.65753	3418.4
3290.91202	3407.2
3293.16516	3405.1
3295.41695	3388.2
3297.66738	3377
3299.91647	3352.9
3302.16421	3353.2
3304.4106	3316.9
3306.65564	3308.6
3308.89933	3311.5
3311.14169	3293.2
3313.38269	3267.8
3315.62236	3246.1
3317.86068	3222.1
3320.09766	3196.1
3322.3333	3171.5
3324.5676	3188.6
3326.80056	3128.8
3329.03219	3113.7
3331.26248	-0.7
3333.49143	-0.2
3335.71905	-0.5
