Data from AgNPs_FTO_APTES_UA_0.1mM_CRN_20uM_NaF_0.1M_Addition_RamanShift__18__12-17-57-600.txt Node

Date: Mon Dec 20 12:17:57 GMT 2021
User: TCL
Spectrometer: QEP01345
Trigger mode: 4
Integration Time (sec): 7.000000E0
Scans to average: 10
Electric dark correction enabled: true
Nonlinearity correction enabled: false
Boxcar width: 0
XAxis mode: Raman Shifts
Number of Pixels in Spectrum: 1044
>>>>>Begin Spectral Data<<<<<
46.04893	0.2
50.45542	-0.3
54.85868	-0.6
59.25871	0.1
63.6555	35.6
68.04907	36.3
72.43941	35.1
76.82654	39.8
81.21044	39.9
85.59113	47.6
89.96862	42.6
94.34289	45.8
98.71396	48.2
103.08183	48.3
107.4465	49.4
111.80798	53
116.16626	52.4
120.52136	58.2
124.87327	58.2
129.222	55.9
133.56755	59.2
137.90993	65.2
142.24913	70
146.58517	70.2
150.91804	82.6
155.24774	103.3
159.57429	116.9
163.89768	150.5
168.21792	195
172.53501	253.1
176.84895	346.8
181.15975	482.9
185.46741	673.8
189.77193	931.2
194.07331	1237.9
198.37157	1607.7
202.6667	1998
206.9587	2388.2
211.24758	2776
215.53334	3181.2
219.81599	3604.2
224.09553	4026.6
228.37195	4516.4
232.64527	5022.7
236.91549	5561.6
241.18261	6088.9
245.44663	6542.8
249.70755	6984.5
253.96539	7358
258.22014	7631.5
262.4718	7824.4
266.72039	7938.1
270.96589	7972.6
275.20832	7909.3
279.44768	7783.3
283.68397	7653.1
287.91719	7514.4
292.14735	7403.1
296.37445	7344
300.59849	7342
304.81948	7312.1
309.03742	7290.5
313.25231	7238.6
317.46415	7115.1
321.67296	6954.7
325.87872	6845.5
330.08145	6786.3
334.28114	6771
338.47781	6821.6
342.67145	6871.6
346.86207	6950.3
351.04966	7061.1
355.23424	7186.8
359.4158	7322.1
363.59435	7395.3
367.76989	7470.2
371.94243	7556.8
376.11196	7624.8
380.27849	7703.5
384.44203	7757.4
388.60257	7825.5
392.76012	7860.7
396.91468	7960.4
401.06626	8046.4
405.21485	8125.8
409.36047	8083.8
413.50311	8006.1
417.64277	7904
421.77947	7874.8
425.9132	7876.4
430.04396	7906.8
434.17176	7926.2
438.2966	7977.7
442.41849	8052.9
446.53742	8132.9
450.6534	8233.8
454.76644	8341.6
458.87653	8379.7
462.98368	8424.1
467.08789	8401.4
471.18916	8404.3
475.2875	8440.5
479.38291	8443.6
483.4754	8496.1
487.56496	8556.5
491.6516	8650.9
495.73531	8713.8
499.81612	8712.4
503.89401	8690.5
507.96899	8637.1
512.04106	8572.2
516.11023	8551.5
520.1765	8527.6
524.23987	8508
528.30034	8506.9
532.35792	8494.4
536.41261	8463.7
540.46441	8387
544.51333	8330.9
548.55936	8288.7
552.60252	8300.5
556.64279	8357
560.6802	8390.2
564.71473	8423.3
568.7464	8486.6
572.7752	8576.8
576.80114	8582.8
580.82422	8606.4
584.84444	8666.2
588.86181	8793.5
592.87633	8867.1
596.888	8866.2
600.89682	8862.6
604.9028	9020.7
608.90594	9532.4
612.90624	10286.7
616.90371	10198.9
620.89834	9373.9
624.89015	9136.8
628.87913	9405.9
632.86528	9784.7
636.84862	10088.2
640.82913	10099.2
644.80683	9826.2
648.78172	9449.7
652.75379	9161.5
656.72306	9004.5
660.68952	8996.5
664.65319	8915.7
668.61405	8842.2
672.57211	8864.3
676.52738	8925.8
680.47986	8965.7
684.42955	8982.3
688.37646	8967.9
692.32058	8900.3
696.26192	8803.5
700.20048	8724.8
704.13626	8670.9
708.06928	8571
711.99952	8508.2
715.927	8448.4
719.85171	8412.8
723.77365	8435
727.69284	8429.9
731.60928	8367.4
735.52295	8306.2
739.43388	8286.6
743.34206	8285.5
747.24749	8300
751.15017	8282.9
755.05012	8334
758.94733	8413.9
762.8418	8617.1
766.73354	8968.1
770.62254	9339.5
774.50882	9525.8
778.39237	9362.8
782.27321	8927.9
786.15132	8542.7
790.02671	8328.4
793.89938	8243.5
797.76935	8241.4
801.6366	8291.4
805.50115	8388.5
809.36299	8532.4
813.22213	8611.3
817.07857	8517.5
820.93231	8365.4
824.78336	8175
828.63172	8024.5
832.47738	7942.4
836.32036	7898.3
840.16066	7883
843.99827	7857.3
847.8332	7845.7
851.66546	7842.1
855.49504	7840.1
859.32195	7823.2
863.1462	7870.6
866.96777	7922.9
870.78668	7993.5
874.60293	8063.9
878.41652	8178
882.22745	8260.8
886.03573	8347.6
889.84136	8319.7
893.64433	8239.7
897.44466	8118.6
901.24235	7944.4
905.0374	7820.1
908.8298	7750.5
912.61957	7686.6
916.40671	7690.7
920.19121	7680.4
923.97308	7697.9
927.75233	7698.2
931.52895	7661.1
935.30295	7627.9
939.07433	7543
942.84309	7497.2
946.60924	7468.8
950.37278	7452.9
954.13371	7454.1
957.89203	7409.2
961.64774	7400.5
965.40086	7388.4
969.15137	7352.5
972.89929	7327.1
976.64461	7293.5
980.38733	7275.9
984.12747	7280.5
987.86502	7302
991.59999	7311
995.33237	7351.6
999.06217	7452.7
1002.78939	7548.4
1006.51404	7607.9
1010.23611	7672.7
1013.95561	7748.3
1017.67255	7766.1
1021.38692	7738.9
1025.09872	7652.6
1028.80796	7578.7
1032.51465	7510.9
1036.21877	7526.2
1039.92035	7511.6
1043.61937	7494.8
1047.31584	7465.8
1051.00976	7458.8
1054.70114	7493
1058.38998	7502.2
1062.07627	7558.7
1065.76003	7626
1069.44126	7660.5
1073.11995	7721.4
1076.79611	7756.4
1080.46974	7765
1084.14085	7760.3
1087.80943	7743.2
1091.47549	7713.6
1095.13903	7652.5
1098.80005	7594.9
1102.45857	7571.8
1106.11456	7526.8
1109.76805	7525.6
1113.41903	7632.4
1117.06751	7795.6
1120.71348	8049.1
1124.35696	8404.2
1127.99793	8807.5
1131.63641	9171.2
1135.2724	9352.1
1138.90589	9304.8
1142.5369	9143
1146.16542	8835.9
1149.79145	8509.9
1153.415	8224.3
1157.03607	8003.6
1160.65467	7898.4
1164.27079	7876.4
1167.88443	7967.2
1171.49561	8155.5
1175.10432	8441.4
1178.71056	8814.8
1182.31434	9179.4
1185.91565	9360.5
1189.51451	9376
1193.11091	9331.5
1196.70485	9194.6
1200.29634	9121
1203.88538	9067
1207.47197	8941.3
1211.05612	8768.3
1214.63782	8604.7
1218.21708	8411.8
1221.79391	8251.7
1225.36829	8142.8
1228.94024	8040.7
1232.50976	7961.7
1236.07685	7924.8
1239.6415	7915.1
1243.20374	7917.6
1246.76355	7940.8
1250.32093	7978.5
1253.8759	8077.1
1257.42845	8183.8
1260.97859	8248.7
1264.52631	8336.3
1268.07163	8422.7
1271.61453	8518.8
1275.15503	8593.8
1278.69312	8669.8
1282.22882	8706.3
1285.76211	8780.8
1289.29301	8932.7
1292.82151	9089.8
1296.34761	9328.4
1299.87133	9626.2
1303.39266	9954.1
1306.9116	10346.7
1310.42815	10724.3
1313.94233	11001.9
1317.45412	11038.9
1320.96354	10888.8
1324.47058	10717.3
1327.97525	10535.2
1331.47754	10378.2
1334.97747	10308.5
1338.47502	10349.5
1341.97022	10427.8
1345.46305	10519.9
1348.95352	10673.7
1352.44163	10911.2
1355.92738	11197.8
1359.41078	11689.7
1362.89183	12170.9
1366.37053	12091.4
1369.84688	11364.6
1373.32088	10472.4
1376.79254	9897.2
1380.26186	9594
1383.72883	9462.3
1387.19347	9351.2
1390.65578	9216.5
1394.11575	9094.1
1397.57339	9033.5
1401.0287	8956.2
1404.48168	8912.2
1407.93234	8805.7
1411.38068	8687.5
1414.82669	8503.9
1418.27039	8288.4
1421.71177	8096.3
1425.15083	7922.6
1428.58758	7803.5
1432.02203	7728
1435.45416	7767.1
1438.88399	7819.6
1442.31151	7849.7
1445.73673	7914.9
1449.15965	7968.6
1452.58027	8008.4
1455.9986	8053.1
1459.41463	8085.4
1462.82837	8169.1
1466.23982	8254
1469.64898	8334.9
1473.05586	8402.4
1476.46045	8422.6
1479.86276	8388.4
1483.26279	8390.6
1486.66054	8379.8
1490.05602	8417.3
1493.44922	8497.1
1496.84016	8644.3
1500.22882	8892.2
1503.61521	9266.3
1506.99934	9721.5
1510.38121	10069
1513.76081	10166.7
1517.13816	9957.9
1520.51324	9483.9
1523.88607	9064.3
1527.25665	8793.3
1530.62498	8682.8
1533.99105	8630.7
1537.35488	8609.3
1540.71647	8616.8
1544.07581	8558.3
1547.4329	8529
1550.78776	8535.5
1554.14038	8552.5
1557.49077	8603.9
1560.83892	8641.6
1564.18484	8701.4
1567.52853	8765.4
1570.86999	8835.2
1574.20922	8925.4
1577.54624	8942
1580.88103	8894.5
1584.2136	8766.5
1587.54395	8712.8
1590.87208	8760.3
1594.19801	8914.5
1597.52172	9143.6
1600.84321	9240.1
1604.16251	9130.4
1607.47959	8885
1610.79447	8640.9
1614.10715	8369.7
1617.41763	8137.2
1620.7259	7992.3
1624.03199	7908.2
1627.33587	7936.8
1630.63757	8026.5
1633.93707	8206.4
1637.23439	8505.5
1640.52951	8945.6
1643.82246	9512.1
1647.11321	10032.1
1650.40179	10292
1653.68819	10111.2
1656.97241	9549.8
1660.25446	8884.3
1663.53433	8377.4
1666.81203	8053.5
1670.08756	7858
1673.36092	7707.8
1676.63211	7601.8
1679.90115	7520.7
1683.16801	7410.6
1686.43272	7279.2
1689.69527	7115.1
1692.95567	6973.1
1696.2139	6837.8
1699.46999	6718.6
1702.72392	6617.6
1705.97571	6527
1709.22535	6440.6
1712.47284	6384.3
1715.71819	6325.1
1718.96139	6252.8
1722.20246	6216.4
1725.44139	6163.3
1728.67818	6075.1
1731.91284	6015.1
1735.14537	5947.5
1738.37576	5906.4
1741.60403	5860.5
1744.83017	5828.4
1748.05418	5813.6
1751.27607	5787.5
1754.49584	5773.1
1757.71349	5772.7
1760.92903	5755.3
1764.14244	5749.5
1767.35375	5725.4
1770.56294	5706.7
1773.77002	5677
1776.97499	5648.9
1780.17785	5607.7
1783.37861	5603.1
1786.57727	5567.9
1789.77382	5540
1792.96828	5517
1796.16064	5492.8
1799.3509	5487.6
1802.53907	5470.4
1805.72514	5446.6
1808.90913	5428.1
1812.09102	5399
1815.27083	5402.2
1818.44856	5393.6
1821.6242	5373.8
1824.79776	5350.8
1827.96924	5351.7
1831.13864	5340.5
1834.30597	5335.7
1837.47122	5352.1
1840.6344	5320.2
1843.7955	5311.2
1846.95454	5314.3
1850.11151	5321.2
1853.26642	5311.5
1856.41926	5307.8
1859.57004	5295.7
1862.71876	5296.4
1865.86542	5288.1
1869.01003	5276.7
1872.15258	5263.3
1875.29308	5277.2
1878.43152	5246.3
1881.56792	5232
1884.70227	5222.8
1887.83457	5221.2
1890.96482	5213.4
1894.09304	5197.5
1897.21921	5203.9
1900.34335	5216.4
1903.46544	5186.6
1906.58551	5185.5
1909.70353	5155
1912.81953	5167.7
1915.93349	5139.7
1919.04543	5152.8
1922.15534	5128.7
1925.26322	5126.8
1928.36908	5111.3
1931.47292	5104.3
1934.57473	5097.9
1937.67453	5069.7
1940.77232	5068.4
1943.86808	5056.3
1946.96184	5017.7
1950.05358	5026.1
1953.14331	5012.2
1956.23103	5001.7
1959.31675	4967.9
1962.40046	4962.6
1965.48217	4967.4
1968.56188	4937.3
1971.63959	4929.1
1974.7153	4905.7
1977.78901	4886.6
1980.86073	4879.7
1983.93046	4855.6
1986.99819	4854.6
1990.06394	4839
1993.1277	4811.8
1996.18947	4806.8
1999.24925	4790.4
2002.30706	4776.9
2005.36288	4740.1
2008.41672	4746.8
2011.46859	4728.3
2014.51848	4716.6
2017.56639	4703.7
2020.61233	4700.2
2023.6563	4682.6
2026.6983	4666.4
2029.73833	4650
2032.7764	4647.7
2035.8125	4633
2038.84664	4622.8
2041.87881	4630.5
2044.90903	4598.9
2047.93729	4600.9
2050.96359	4593.3
2053.98794	4587
2057.01034	4592.2
2060.03078	4569.7
2063.04927	4576.1
2066.06582	4567.1
2069.08042	4591.8
2072.09307	4567
2075.10378	4564.7
2078.11255	4561.3
2081.11938	4572.1
2084.12426	4565.2
2087.12722	4560.3
2090.12824	4556.3
2093.12732	4547
2096.12447	4556.7
2099.11969	4547.4
2102.11299	4546.1
2105.10435	4536.8
2108.09379	4558.3
2111.08131	4542.2
2114.0669	4546.1
2117.05057	4572.8
2120.03233	4548.8
2123.01216	4563.5
2125.99008	4582.8
2128.96609	4558.4
2131.94018	4574.6
2134.91236	4569.3
2137.88263	4574.5
2140.851	4574.5
2143.81746	4577.8
2146.78201	4596.2
2149.74466	4586.7
2152.7054	4577.6
2155.66425	4582.8
2158.6212	4581.9
2161.57625	4573.1
2164.52941	4562.5
2167.48067	4566.9
2170.43004	4569.5
2173.37752	4564.9
2176.32311	4558.2
2179.26681	4571.4
2182.20863	4557.1
2185.14856	4573.3
2188.08661	4546.4
2191.02278	4555.9
2193.95707	4546.1
2196.88948	4535.6
2199.82001	4544.4
2202.74867	4526.2
2205.67545	4531.5
2208.60037	4530.5
2211.52341	4502.5
2214.44458	4504.5
2217.36388	4490.7
2220.28132	4503
2223.1969	4465.2
2226.11061	4463.8
2229.02246	4456.1
2231.93245	4450.5
2234.84058	4437.5
2237.74686	4428.9
2240.65128	4426.1
2243.55385	4415.3
2246.45456	4418.7
2249.35343	4408.6
2252.25044	4392.4
2255.14561	4399.9
2258.03893	4390.4
2260.93041	4376.4
2263.82004	4367.1
2266.70783	4363.4
2269.59378	4348.1
2272.4779	4348.8
2275.36017	4337.3
2278.24061	4330.3
2281.11922	4315.2
2283.996	4312.4
2286.87094	4316.4
2289.74405	4314.8
2292.61534	4298.1
2295.4848	4283.1
2298.35243	4275.9
2301.21824	4270.6
2304.08223	4280
2306.94439	4270.4
2309.80474	4272.6
2312.66327	4242.9
2315.51999	4269.2
2318.37489	4267.4
2321.22797	4239.9
2324.07925	4232.7
2326.92871	4239.7
2329.77637	4219.8
2332.62222	4217.1
2335.46626	4218.6
2338.3085	4212.7
2341.14893	4207.7
2343.98756	4199.1
2346.8244	4182.3
2349.65943	4188.7
2352.49267	4190.4
2355.32411	4186.9
2358.15376	4192.5
2360.98161	4182.2
2363.80768	4170
2366.63195	4176.6
2369.45444	4178.6
2372.27514	4171.4
2375.09405	4153.1
2377.91118	4151.9
2380.72652	4152.1
2383.54009	4133.1
2386.35187	4138.8
2389.16188	4115.8
2391.97011	4115.6
2394.77657	4114.7
2397.58125	4095.6
2400.38416	4096.8
2403.18529	4075.5
2405.98466	4086.3
2408.78226	4064.7
2411.57809	4061.4
2414.37216	4051.7
2417.16446	4059.3
2419.955	4039.9
2422.74378	4043.4
2425.5308	4033.3
2428.31606	4049.5
2431.09956	4022.6
2433.88131	4020.8
2436.6613	4015.1
2439.43954	4020.7
2442.21603	4001.2
2444.99077	4009
2447.76377	4001.2
2450.53501	4017.7
2453.30451	4011
2456.07226	4003
2458.83827	3997.5
2461.60254	4000.7
2464.36507	3968.4
2467.12586	3984.4
2469.88492	3977.5
2472.64224	3989.7
2475.39782	3974.8
2478.15167	3970.1
2480.90379	3960.8
2483.65417	3966.3
2486.40283	3970
2489.14976	3969.4
2491.89497	3956.7
2494.63845	3973.5
2497.3802	3960.9
2500.12024	3947.8
2502.85855	3951.2
2505.59514	3930
2508.33002	3941.2
2511.06318	3929.5
2513.79462	3921
2516.52435	3911.2
2519.25237	3911.9
2521.97867	3918.1
2524.70327	3909.3
2527.42616	3895.7
2530.14734	3892.7
2532.86681	3887.9
2535.58458	3895
2538.30065	3882.2
2541.01501	3880.8
2543.72768	3884.5
2546.43864	3852.1
2549.14791	3867.5
2551.85548	3851.3
2554.56136	3855
2557.26554	3835.8
2559.96803	3825.2
2562.66883	3826.5
2565.36794	3812.6
2568.06536	3825
2570.7611	3819.3
2573.45514	3815.1
2576.14751	3813.3
2578.83819	3808.6
2581.52719	3798.8
2584.21451	3778.9
2586.90015	3769.1
2589.58411	3773.2
2592.2664	3754.8
2594.94701	3748
2597.62594	3744.5
2600.30321	3733
2602.9788	3743.4
2605.65273	3733.5
2608.32498	3738.6
2610.99557	3725.2
2613.66449	3716.6
2616.33175	3698.9
2618.99734	3711.2
2621.66128	3716.9
2624.32355	3714.1
2626.98416	3718.1
2629.64311	3700.5
2632.30041	3708.6
2634.95605	3692.6
2637.61004	3695.1
2640.26238	3687.8
2642.91306	3688.2
2645.56209	3688.4
2648.20948	3676.8
2650.85521	3667.7
2653.4993	3666.9
2656.14175	3669.7
2658.78255	3664.5
2661.42171	3665
2664.05923	3669.5
2666.6951	3665.1
2669.32934	3659.1
2671.96194	3669.5
2674.59291	3661.4
2677.22224	3663.4
2679.84993	3666.2
2682.476	3662.3
2685.10043	3674.3
2687.72324	3662.5
2690.34441	3665.4
2692.96396	3669.7
2695.58188	3671.1
2698.19818	3678.6
2700.81285	3675.3
2703.4259	3693.2
2706.03733	3700.2
2708.64714	3700.7
2711.25533	3684.8
2713.86191	3685.5
2716.46687	3677.5
2719.07021	3688.5
2721.67194	3695.9
2724.27206	3682.2
2726.87057	3686
2729.46747	3684.6
2732.06276	3681.8
2734.65644	3672.1
2737.24852	3669.9
2739.83899	3671.3
2742.42786	3673.2
2745.01513	3653.6
2747.60079	3652
2750.18486	3627.5
2752.76733	3656.5
2755.3482	3643.6
2757.92747	3656.2
2760.50515	3632.7
2763.08123	3652.2
2765.65573	3641.5
2768.22863	3636.4
2770.79994	3629.2
2773.36967	3631.2
2775.9378	3617.2
2778.50435	3620.1
2781.06932	3605.5
2783.6327	3603.1
2786.1945	3581.7
2788.75471	3596.9
2791.31335	3593
2793.87041	3574.1
2796.42589	3554.5
2798.97979	3573.1
2801.53212	3569.8
2804.08288	3558
2806.63206	3533.3
2809.17967	3535.6
2811.72571	3536.9
2814.27018	3537.2
2816.81308	3517.3
2819.35442	3506.2
2821.89419	3501.3
2824.43239	3495.7
2826.96904	3520.7
2829.50412	3503.4
2832.03763	3499
2834.56959	3512.8
2837.1	3504.2
2839.62884	3482.3
2842.15613	3495.4
2844.68186	3490.2
2847.20604	3497.9
2849.72867	3517.1
2852.24974	3489.8
2854.76927	3490.3
2857.28724	3494.5
2859.80367	3497.1
2862.31855	3483.2
2864.83189	3488.7
2867.34368	3474.5
2869.85393	3479.3
2872.36264	3482.9
2874.8698	3499.6
2877.37543	3483.8
2879.87952	3468.4
2882.38207	3491.2
2884.88308	3492
2887.38256	3482.2
2889.88051	3491.4
2892.37692	3492.7
2894.8718	3492.9
2897.36515	3497.3
2899.85698	3504.8
2902.34727	3512.6
2904.83604	3507.1
2907.32328	3515.4
2909.809	3515.8
2912.29319	3503.5
2914.77587	3517.7
2917.25702	3525.7
2919.73665	3522
2922.21476	3531.6
2924.69136	3513.4
2927.16644	3534.9
2929.64	3524.1
2932.11205	3526.7
2934.58258	3511.1
2937.05161	3532.3
2939.51912	3519
2941.98513	3513
2944.44962	3518.6
2946.91261	3487.4
2949.37409	3509.4
2951.83407	3516.4
2954.29254	3504.2
2956.74951	3491.5
2959.20498	3489.6
2961.65895	3486.8
2964.11142	3490.2
2966.56239	3475.9
2969.01186	3477.4
2971.45984	3476.5
2973.90632	3451.8
2976.35131	3454.4
2978.7948	3444
2981.23681	3439
2983.67732	3448.4
2986.11635	3432.1
2988.55388	3422.8
2990.98993	3435
2993.4245	3422.5
2995.85758	3402.9
2998.28917	3415.3
3000.71928	3410.7
3003.14791	3403.2
3005.57506	3415
3008.00073	3396.7
3010.42493	3410.4
3012.84764	3387.6
3015.26888	3391.6
3017.68865	3386.8
3020.10694	3386.2
3022.52376	3378.1
3024.9391	3375.2
3027.35298	3371
3029.76539	3370.5
3032.17632	3379.1
3034.5858	3368.2
3036.9938	3355.8
3039.40034	3359.1
3041.80542	3357.9
3044.20903	3359.6
3046.61118	3359.5
3049.01187	3357.4
3051.4111	3346
3053.80888	3351.1
3056.20519	3365.8
3058.60005	3332.4
3060.99345	3345.3
3063.3854	3333.1
3065.7759	3337.8
3068.16494	3331.6
3070.55254	3329.2
3072.93868	3326.3
3075.32338	3329
3077.70662	3333.1
3080.08842	3320.1
3082.46878	3324.3
3084.84769	3325.2
3087.22515	3327.7
3089.60118	3339.4
3091.97576	3336.4
3094.3489	3341.2
3096.72061	3342.6
3099.09087	3338.3
3101.4597	3349.3
3103.82709	3350.7
3106.19305	3353.8
3108.55757	3355.9
3110.92066	3327
3113.28232	3348.4
3115.64255	3345.8
3118.00134	3335.6
3120.35871	3341.3
3122.71466	3344.3
3125.06917	3346.5
3127.42226	3323.7
3129.77393	3352.4
3132.12417	3343.6
3134.47299	3367.6
3136.82039	3368.7
3139.16636	3385
3141.51092	3380.9
3143.85406	3392
3146.19579	3388.3
3148.53609	3395.2
3150.87499	3397.8
3153.21246	3407.1
3155.54853	3418.9
3157.88318	3428
3160.21642	3422.1
3162.54826	3444.3
3164.87868	3440.8
3167.2077	3437.5
3169.5353	3438
3171.86151	3453.4
3174.18631	3459.8
3176.5097	3459.6
3178.83169	3453.9
3181.15228	3454.5
3183.47147	3451.4
3185.78926	3465.6
3188.10565	3461.2
3190.42065	3468.4
3192.73424	3474
3195.04645	3465.9
3197.35725	3465.8
3199.66667	3473
3201.97469	3486.6
3204.28132	3504.4
3206.58656	3502
3208.8904	3503.4
3211.19287	3512.4
3213.49394	3514.4
3215.79363	3526.1
3218.09193	3539.7
3220.38884	3536.7
3222.68438	3534.1
3224.97853	3531.4
3227.2713	3527.9
3229.56269	3527.2
3231.8527	3526.6
3234.14133	3519.3
3236.42858	3518.1
3238.71446	3503.9
3240.99896	3501.5
3243.28209	3506.3
3245.56384	3507.1
3247.84423	3510.7
3250.12324	3499.1
3252.40088	3510.8
3254.67715	3506.2
3256.95205	3493.6
3259.22558	3494.4
3261.49775	3491.7
3263.76855	3506.9
3266.03799	3479.8
3268.30606	3473.2
3270.57277	3462.5
3272.83812	3479.1
3275.10211	3469.1
3277.36474	3462.1
3279.62601	3464.9
3281.88593	3466.1
3284.14448	3463.9
3286.40168	3464.4
3288.65753	3454.5
3290.91202	3454.6
3293.16516	3431.2
3295.41695	3424.2
3297.66738	3417.9
3299.91647	3398.3
3302.16421	3399.4
3304.4106	3376.1
3306.65564	3383
3308.89933	3356.8
3311.14169	3343.1
3313.38269	3305.6
3315.62236	3286
3317.86068	3264.5
3320.09766	3226.9
3322.3333	3210.2
3324.5676	3208.5
3326.80056	3163.4
3329.03219	3154.3
3331.26248	1.4
3333.49143	-0.1
3335.71905	-0.3
