Data from AgNPs_FTO_APTES_UA_0.1mM_CRN_10uM_NaF_0.1M_Addition_RamanShift__19__11-40-37-557.txt Node

Date: Mon Dec 20 11:40:37 GMT 2021
User: TCL
Spectrometer: QEP01345
Trigger mode: 4
Integration Time (sec): 7.000000E0
Scans to average: 10
Electric dark correction enabled: true
Nonlinearity correction enabled: false
Boxcar width: 0
XAxis mode: Raman Shifts
Number of Pixels in Spectrum: 1044
>>>>>Begin Spectral Data<<<<<
46.04893	0.2
50.45542	-0.8
54.85868	-1.1
59.25871	1.6
63.6555	32.9
68.04907	35.6
72.43941	36.6
76.82654	39.2
81.21044	37.6
85.59113	43.8
89.96862	43.2
94.34289	43.4
98.71396	43.1
103.08183	42.4
107.4465	45.1
111.80798	52.3
116.16626	48.2
120.52136	50.7
124.87327	52.2
129.222	54.3
133.56755	57.7
137.90993	62.3
142.24913	65.9
146.58517	70.8
150.91804	82.8
155.24774	96.2
159.57429	114.4
163.89768	147.8
168.21792	188.3
172.53501	245.6
176.84895	341
181.15975	475.4
185.46741	654.7
189.77193	908.6
194.07331	1214.4
198.37157	1576.6
202.6667	1957.9
206.9587	2339.6
211.24758	2724.1
215.53334	3101.7
219.81599	3501.2
224.09553	3930
228.37195	4380.7
232.64527	4877.6
236.91549	5392.4
241.18261	5886.9
245.44663	6383.5
249.70755	6793.7
253.96539	7142.4
258.22014	7427.1
262.4718	7637.4
266.72039	7752.1
270.96589	7789.9
275.20832	7736
279.44768	7653.2
283.68397	7523.3
287.91719	7402.2
292.14735	7303.4
296.37445	7250.9
300.59849	7223.6
304.81948	7225.7
309.03742	7183.7
313.25231	7118.8
317.46415	7013.4
321.67296	6847.7
325.87872	6744.9
330.08145	6673.5
334.28114	6672.4
338.47781	6713.4
342.67145	6735
346.86207	6834.9
351.04966	6939.5
355.23424	7069.4
359.4158	7187.6
363.59435	7283.9
367.76989	7343.4
371.94243	7430
376.11196	7527.7
380.27849	7560.6
384.44203	7648.6
388.60257	7682.6
392.76012	7767.4
396.91468	7822.4
401.06626	7925.2
405.21485	7976.2
409.36047	7954.9
413.50311	7885.6
417.64277	7817.4
421.77947	7780.9
425.9132	7755.7
430.04396	7781.4
434.17176	7812.9
438.2966	7886.6
442.41849	7950.6
446.53742	8054.4
450.6534	8160.8
454.76644	8275.5
458.87653	8325.1
462.98368	8349.3
467.08789	8330.6
471.18916	8326.9
475.2875	8330.8
479.38291	8361.7
483.4754	8397.7
487.56496	8484.7
491.6516	8548.6
495.73531	8604.8
499.81612	8612.5
503.89401	8588.1
507.96899	8509.1
512.04106	8462.6
516.11023	8404.7
520.1765	8393.1
524.23987	8373.9
528.30034	8366.2
532.35792	8364.8
536.41261	8323.7
540.46441	8257.9
544.51333	8188.2
548.55936	8158
552.60252	8157
556.64279	8211.9
560.6802	8263.6
564.71473	8297.9
568.7464	8338.3
572.7752	8432.4
576.80114	8476.6
580.82422	8524.7
584.84444	8615.1
588.86181	8750.2
592.87633	8810.8
596.888	8837.6
600.89682	8791.7
604.9028	8917.4
608.90594	9413.9
612.90624	10127
616.90371	10042.5
620.89834	9183.2
624.89015	8955.9
628.87913	9215.6
632.86528	9631.8
636.84862	9923.8
640.82913	9896.9
644.80683	9625.9
648.78172	9250.2
652.75379	8952.8
656.72306	8799
660.68952	8762.6
664.65319	8670.5
668.61405	8588.5
672.57211	8592.4
676.52738	8663.7
680.47986	8688.9
684.42955	8736.6
688.37646	8765.5
692.32058	8684.5
696.26192	8583.2
700.20048	8481.5
704.13626	8400.5
708.06928	8342.5
711.99952	8269.6
715.927	8209.9
719.85171	8183.7
723.77365	8200.9
727.69284	8178
731.60928	8132.9
735.52295	8067.3
739.43388	8031.6
743.34206	8047.8
747.24749	8080.4
751.15017	8064.5
755.05012	8102.2
758.94733	8202.8
762.8418	8405.5
766.73354	8772
770.62254	9164.8
774.50882	9343.3
778.39237	9151.3
782.27321	8708.9
786.15132	8338.9
790.02671	8116.8
793.89938	8016.3
797.76935	8004.3
801.6366	8070
805.50115	8165.1
809.36299	8296.1
813.22213	8372.6
817.07857	8265
820.93231	8083.7
824.78336	7894.7
828.63172	7770.8
832.47738	7710.3
836.32036	7661.6
840.16066	7636.7
843.99827	7628.2
847.8332	7596.3
851.66546	7604.3
855.49504	7598.6
859.32195	7601.4
863.1462	7627.6
866.96777	7661.6
870.78668	7734.3
874.60293	7823.2
878.41652	7887
882.22745	7999.6
886.03573	8082.1
889.84136	8081.4
893.64433	7960.9
897.44466	7809.4
901.24235	7671.7
905.0374	7529.9
908.8298	7452.9
912.61957	7414.8
916.40671	7384.5
920.19121	7388.1
923.97308	7430.7
927.75233	7417.1
931.52895	7387.8
935.30295	7332.8
939.07433	7270.5
942.84309	7213.5
946.60924	7180.7
950.37278	7156.4
954.13371	7153.2
957.89203	7157.3
961.64774	7107.6
965.40086	7087
969.15137	7057.3
972.89929	7037.5
976.64461	6995.2
980.38733	6979.4
984.12747	6980.5
987.86502	7012.2
991.59999	7012.9
995.33237	7088
999.06217	7138.7
1002.78939	7239.2
1006.51404	7327.7
1010.23611	7398.8
1013.95561	7484.1
1017.67255	7491.9
1021.38692	7453.8
1025.09872	7390
1028.80796	7281.4
1032.51465	7238.4
1036.21877	7203
1039.92035	7207.7
1043.61937	7185.5
1047.31584	7160.9
1051.00976	7150.6
1054.70114	7177.1
1058.38998	7184.2
1062.07627	7269.1
1065.76003	7313.8
1069.44126	7381.5
1073.11995	7407.8
1076.79611	7454.3
1080.46974	7481.4
1084.14085	7439.8
1087.80943	7420.6
1091.47549	7394.4
1095.13903	7355.7
1098.80005	7290
1102.45857	7222.4
1106.11456	7189.9
1109.76805	7208.8
1113.41903	7302.2
1117.06751	7445
1120.71348	7704.8
1124.35696	8056.8
1127.99793	8440.1
1131.63641	8809
1135.2724	9023.6
1138.90589	8995
1142.5369	8811.2
1146.16542	8531.7
1149.79145	8195.9
1153.415	7894.6
1157.03607	7669
1160.65467	7610
1164.27079	7619.7
1167.88443	7737.2
1171.49561	7925.8
1175.10432	8239
1178.71056	8633.2
1182.31434	9034.3
1185.91565	9240.2
1189.51451	9233.2
1193.11091	9178.4
1196.70485	9077.1
1200.29634	8995
1203.88538	8928.1
1207.47197	8798.3
1211.05612	8626.7
1214.63782	8411.8
1218.21708	8210.1
1221.79391	8033.4
1225.36829	7899.6
1228.94024	7812
1232.50976	7711
1236.07685	7634.8
1239.6415	7607.8
1243.20374	7621.1
1246.76355	7665.1
1250.32093	7717.8
1253.8759	7783
1257.42845	7879.1
1260.97859	7988
1264.52631	8122.8
1268.07163	8177.9
1271.61453	8290.5
1275.15503	8374.8
1278.69312	8469.8
1282.22882	8537.4
1285.76211	8643.2
1289.29301	8800.3
1292.82151	9022
1296.34761	9307.3
1299.87133	9627.8
1303.39266	10022.5
1306.9116	10388.3
1310.42815	10811.3
1313.94233	11078.6
1317.45412	11129.3
1320.96354	10971
1324.47058	10796.9
1327.97525	10593.2
1331.47754	10488.9
1334.97747	10438.4
1338.47502	10436.8
1341.97022	10497.9
1345.46305	10539.8
1348.95352	10666
1352.44163	10880.2
1355.92738	11202.6
1359.41078	11687.5
1362.89183	12156.4
1366.37053	12112
1369.84688	11337.6
1373.32088	10384.4
1376.79254	9744.7
1380.26186	9441.6
1383.72883	9300.1
1387.19347	9230.5
1390.65578	9103.8
1394.11575	9017.5
1397.57339	8945.7
1401.0287	8912.9
1404.48168	8910.9
1407.93234	8843.3
1411.38068	8694.6
1414.82669	8484.6
1418.27039	8234.4
1421.71177	7987.4
1425.15083	7766.9
1428.58758	7603.2
1432.02203	7568.9
1435.45416	7607.2
1438.88399	7692.5
1442.31151	7772.4
1445.73673	7821.5
1449.15965	7907.4
1452.58027	7948.1
1455.9986	7980.1
1459.41463	8040.3
1462.82837	8097.5
1466.23982	8198.3
1469.64898	8299.1
1473.05586	8339.2
1476.46045	8354.6
1479.86276	8354.1
1483.26279	8307.4
1486.66054	8341.8
1490.05602	8360.1
1493.44922	8442.8
1496.84016	8569.3
1500.22882	8811.4
1503.61521	9135.6
1506.99934	9520.1
1510.38121	9879
1513.76081	10009.9
1517.13816	9769.4
1520.51324	9348.7
1523.88607	8918.5
1527.25665	8680.5
1530.62498	8582.7
1533.99105	8541.7
1537.35488	8531.8
1540.71647	8492.1
1544.07581	8455
1547.4329	8407.6
1550.78776	8401
1554.14038	8382.1
1557.49077	8422.4
1560.83892	8456.9
1564.18484	8505.3
1567.52853	8559.8
1570.86999	8643.3
1574.20922	8700.2
1577.54624	8742.8
1580.88103	8684.1
1584.2136	8602
1587.54395	8591.3
1590.87208	8677.7
1594.19801	8903.5
1597.52172	9164.6
1600.84321	9293.3
1604.16251	9139.4
1607.47959	8879.1
1610.79447	8536.8
1614.10715	8236.4
1617.41763	7948
1620.7259	7775.3
1624.03199	7696.6
1627.33587	7703.7
1630.63757	7821.8
1633.93707	8018.2
1637.23439	8372.7
1640.52951	8876.3
1643.82246	9489.6
1647.11321	10068.5
1650.40179	10345.4
1653.68819	10140.1
1656.97241	9475.7
1660.25446	8732.9
1663.53433	8162.4
1666.81203	7750.3
1670.08756	7495.2
1673.36092	7332.2
1676.63211	7219.7
1679.90115	7111.3
1683.16801	6972.9
1686.43272	6848.1
1689.69527	6708.5
1692.95567	6572.7
1696.2139	6429.9
1699.46999	6336.7
1702.72392	6209.7
1705.97571	6107.3
1709.22535	6038.6
1712.47284	5975.7
1715.71819	5929.5
1718.96139	5867
1722.20246	5811.7
1725.44139	5759.1
1728.67818	5678.8
1731.91284	5599.4
1735.14537	5554.1
1738.37576	5500.7
1741.60403	5455.3
1744.83017	5437
1748.05418	5404.2
1751.27607	5407.3
1754.49584	5373.8
1757.71349	5377.4
1760.92903	5337.8
1764.14244	5350.6
1767.35375	5316.8
1770.56294	5312.5
1773.77002	5276.4
1776.97499	5248.1
1780.17785	5216.8
1783.37861	5195.4
1786.57727	5179.3
1789.77382	5164.5
1792.96828	5140.8
1796.16064	5119.2
1799.3509	5095.2
1802.53907	5105
1805.72514	5065.8
1808.90913	5047.8
1812.09102	5020
1815.27083	5015.1
1818.44856	4998.9
1821.6242	4993.3
1824.79776	4994.7
1827.96924	4977.5
1831.13864	4963.9
1834.30597	4958.4
1837.47122	4957.4
1840.6344	4945.4
1843.7955	4946.5
1846.95454	4940.8
1850.11151	4946.3
1853.26642	4930.8
1856.41926	4910.9
1859.57004	4908.9
1862.71876	4912.8
1865.86542	4902.3
1869.01003	4877.4
1872.15258	4902
1875.29308	4886.9
1878.43152	4882.3
1881.56792	4849.5
1884.70227	4854.2
1887.83457	4856.7
1890.96482	4833.4
1894.09304	4828.9
1897.21921	4823.6
1900.34335	4816.7
1903.46544	4810.2
1906.58551	4813.4
1909.70353	4789.5
1912.81953	4776.3
1915.93349	4775.1
1919.04543	4765.2
1922.15534	4759.4
1925.26322	4743.6
1928.36908	4717.3
1931.47292	4726.1
1934.57473	4712.3
1937.67453	4687.9
1940.77232	4694.3
1943.86808	4671.8
1946.96184	4667.4
1950.05358	4611.9
1953.14331	4638.2
1956.23103	4627.7
1959.31675	4600
1962.40046	4599.7
1965.48217	4566.2
1968.56188	4546.6
1971.63959	4552.4
1974.7153	4544
1977.78901	4524.8
1980.86073	4506.9
1983.93046	4504.1
1986.99819	4466
1990.06394	4464.7
1993.1277	4450.9
1996.18947	4438.1
1999.24925	4434.2
2002.30706	4416.2
2005.36288	4396.1
2008.41672	4378.5
2011.46859	4364.2
2014.51848	4360.9
2017.56639	4329.8
2020.61233	4332.1
2023.6563	4313.4
2026.6983	4305.5
2029.73833	4301.1
2032.7764	4288.6
2035.8125	4286.8
2038.84664	4283.1
2041.87881	4270.5
2044.90903	4250
2047.93729	4236.9
2050.96359	4243.2
2053.98794	4233.5
2057.01034	4238.2
2060.03078	4219.4
2063.04927	4223.5
2066.06582	4213.3
2069.08042	4214.7
2072.09307	4209.3
2075.10378	4201.1
2078.11255	4212.8
2081.11938	4202.1
2084.12426	4200.5
2087.12722	4186.2
2090.12824	4188.8
2093.12732	4179.6
2096.12447	4192.1
2099.11969	4183.2
2102.11299	4181.2
2105.10435	4182.1
2108.09379	4187.9
2111.08131	4193
2114.0669	4197.5
2117.05057	4205.4
2120.03233	4201.1
2123.01216	4193.5
2125.99008	4209.9
2128.96609	4218.7
2131.94018	4207.1
2134.91236	4197.7
2137.88263	4220.9
2140.851	4212.8
2143.81746	4217.7
2146.78201	4203.8
2149.74466	4209.3
2152.7054	4213.9
2155.66425	4216.5
2158.6212	4195.1
2161.57625	4196.4
2164.52941	4191.5
2167.48067	4202.6
2170.43004	4197.9
2173.37752	4182
2176.32311	4178.7
2179.26681	4189.8
2182.20863	4185.7
2185.14856	4195.7
2188.08661	4181.8
2191.02278	4185.3
2193.95707	4190.1
2196.88948	4177.2
2199.82001	4159.6
2202.74867	4144.8
2205.67545	4149.7
2208.60037	4135.9
2211.52341	4122.2
2214.44458	4136.7
2217.36388	4132.4
2220.28132	4105.6
2223.1969	4096
2226.11061	4098
2229.02246	4085.4
2231.93245	4094.7
2234.84058	4075.3
2237.74686	4048.2
2240.65128	4064.8
2243.55385	4049.4
2246.45456	4041.3
2249.35343	4040.4
2252.25044	4033.3
2255.14561	4023
2258.03893	4021
2260.93041	4013.4
2263.82004	4000.7
2266.70783	3993.1
2269.59378	3988.5
2272.4779	3971.7
2275.36017	3966.9
2278.24061	3956.6
2281.11922	3940.4
2283.996	3958.3
2286.87094	3943.2
2289.74405	3932.6
2292.61534	3905.1
2295.4848	3914
2298.35243	3896.8
2301.21824	3899.4
2304.08223	3891.5
2306.94439	3903.1
2309.80474	3898.3
2312.66327	3886.8
2315.51999	3892
2318.37489	3880.4
2321.22797	3869.4
2324.07925	3871.4
2326.92871	3880
2329.77637	3863.9
2332.62222	3853.1
2335.46626	3863.7
2338.3085	3843.8
2341.14893	3828.6
2343.98756	3846.7
2346.8244	3837.2
2349.65943	3815.5
2352.49267	3845.6
2355.32411	3817.5
2358.15376	3814.6
2360.98161	3820.6
2363.80768	3815.2
2366.63195	3812.5
2369.45444	3809.6
2372.27514	3798.7
2375.09405	3805.1
2377.91118	3794.1
2380.72652	3774.4
2383.54009	3767.6
2386.35187	3761.4
2389.16188	3760.3
2391.97011	3749.9
2394.77657	3738.8
2397.58125	3725.3
2400.38416	3740.1
2403.18529	3727.4
2405.98466	3706.4
2408.78226	3708.9
2411.57809	3694.7
2414.37216	3682.8
2417.16446	3675.8
2419.955	3678.7
2422.74378	3678.3
2425.5308	3660.4
2428.31606	3661.7
2431.09956	3667.3
2433.88131	3673.4
2436.6613	3660.1
2439.43954	3661.4
2442.21603	3645.1
2444.99077	3646.8
2447.76377	3650.7
2450.53501	3659.9
2453.30451	3642.9
2456.07226	3632.9
2458.83827	3627.4
2461.60254	3617.8
2464.36507	3606.2
2467.12586	3618.4
2469.88492	3618.8
2472.64224	3615.1
2475.39782	3611.2
2478.15167	3624.7
2480.90379	3620.9
2483.65417	3612
2486.40283	3612.4
2489.14976	3613.5
2491.89497	3596.6
2494.63845	3612.6
2497.3802	3598
2500.12024	3591.4
2502.85855	3589.3
2505.59514	3586.5
2508.33002	3580.7
2511.06318	3566.7
2513.79462	3574.8
2516.52435	3587
2519.25237	3544.6
2521.97867	3555.3
2524.70327	3549.9
2527.42616	3544.3
2530.14734	3555.9
2532.86681	3521.9
2535.58458	3517.4
2538.30065	3532.9
2541.01501	3511.6
2543.72768	3513.3
2546.43864	3508.6
2549.14791	3500.8
2551.85548	3478.6
2554.56136	3477.8
2557.26554	3481.6
2559.96803	3476.9
2562.66883	3472
2565.36794	3466.4
2568.06536	3464.4
2570.7611	3468.5
2573.45514	3459.1
2576.14751	3449.6
2578.83819	3448.7
2581.52719	3435.1
2584.21451	3435.4
2586.90015	3430
2589.58411	3415.4
2592.2664	3404.9
2594.94701	3404.5
2597.62594	3407.9
2600.30321	3388.9
2602.9788	3396
2605.65273	3390
2608.32498	3386.9
2610.99557	3381.9
2613.66449	3381.9
2616.33175	3365.4
2618.99734	3368
2621.66128	3365.6
2624.32355	3359.3
2626.98416	3356.4
2629.64311	3348.8
2632.30041	3363
2634.95605	3353.4
2637.61004	3343.1
2640.26238	3349.9
2642.91306	3346.3
2645.56209	3347.7
2648.20948	3335.6
2650.85521	3330.2
2653.4993	3334.6
2656.14175	3317.5
2658.78255	3313.4
2661.42171	3321.8
2664.05923	3328.5
2666.6951	3339.8
2669.32934	3333.4
2671.96194	3324.7
2674.59291	3335.3
2677.22224	3328.3
2679.84993	3343.6
2682.476	3323.2
2685.10043	3327.6
2687.72324	3326.6
2690.34441	3311.5
2692.96396	3337
2695.58188	3327.4
2698.19818	3320.6
2700.81285	3327.9
2703.4259	3331.9
2706.03733	3345.7
2708.64714	3337.4
2711.25533	3339.4
2713.86191	3324
2716.46687	3338.9
2719.07021	3331.6
2721.67194	3324
2724.27206	3328.4
2726.87057	3332.4
2729.46747	3337.7
2732.06276	3325.2
2734.65644	3334.5
2737.24852	3320.5
2739.83899	3305.3
2742.42786	3316.6
2745.01513	3314
2747.60079	3314
2750.18486	3311.9
2752.76733	3312.7
2755.3482	3303.9
2757.92747	3304.2
2760.50515	3293.7
2763.08123	3297.5
2765.65573	3288.9
2768.22863	3290.9
2770.79994	3272.3
2773.36967	3293.2
2775.9378	3267.6
2778.50435	3277.9
2781.06932	3263.5
2783.6327	3264.9
2786.1945	3263.3
2788.75471	3271.4
2791.31335	3242.4
2793.87041	3247.6
2796.42589	3242.4
2798.97979	3237.5
2801.53212	3230.8
2804.08288	3225.9
2806.63206	3210.2
2809.17967	3203.5
2811.72571	3200.1
2814.27018	3185.2
2816.81308	3191.8
2819.35442	3187.5
2821.89419	3169.1
2824.43239	3179
2826.96904	3182
2829.50412	3178
2832.03763	3168.9
2834.56959	3181.1
2837.1	3172.5
2839.62884	3169.4
2842.15613	3168.4
2844.68186	3165.1
2847.20604	3164.7
2849.72867	3162.4
2852.24974	3168.1
2854.76927	3167.8
2857.28724	3171.6
2859.80367	3161.3
2862.31855	3157.6
2864.83189	3155.4
2867.34368	3143.4
2869.85393	3168.9
2872.36264	3144.8
2874.8698	3172.1
2877.37543	3169.4
2879.87952	3171.3
2882.38207	3162.5
2884.88308	3154.3
2887.38256	3172.3
2889.88051	3159.9
2892.37692	3162.3
2894.8718	3174.9
2897.36515	3185.1
2899.85698	3186.5
2902.34727	3178.2
2904.83604	3180.6
2907.32328	3187.4
2909.809	3184.5
2912.29319	3191.5
2914.77587	3189.3
2917.25702	3196.2
2919.73665	3182.2
2922.21476	3190
2924.69136	3187.7
2927.16644	3190.3
2929.64	3206.8
2932.11205	3198
2934.58258	3190.5
2937.05161	3188.4
2939.51912	3189.8
2941.98513	3183.8
2944.44962	3189.9
2946.91261	3187.8
2949.37409	3172.8
2951.83407	3165.8
2954.29254	3183
2956.74951	3178.6
2959.20498	3167.4
2961.65895	3162.9
2964.11142	3147.6
2966.56239	3144.2
2969.01186	3134.8
2971.45984	3123.6
2973.90632	3126
2976.35131	3119.4
2978.7948	3129.2
2981.23681	3101.4
2983.67732	3103.4
2986.11635	3102.8
2988.55388	3094.3
2990.98993	3106.8
2993.4245	3077.6
2995.85758	3085.1
2998.28917	3082.4
3000.71928	3076.3
3003.14791	3082.8
3005.57506	3061.3
3008.00073	3057
3010.42493	3068.2
3012.84764	3066.8
3015.26888	3069.5
3017.68865	3053.8
3020.10694	3065.6
3022.52376	3034.6
3024.9391	3057.5
3027.35298	3028.1
3029.76539	3045.7
3032.17632	3033.7
3034.5858	3033.2
3036.9938	3041.3
3039.40034	3034.5
3041.80542	3038.3
3044.20903	3029.6
3046.61118	3038.7
3049.01187	3016.4
3051.4111	3023.5
3053.80888	3024.3
3056.20519	3032
3058.60005	3015.2
3060.99345	3014.4
3063.3854	3008.8
3065.7759	3007.7
3068.16494	3003.4
3070.55254	3005.5
3072.93868	2996.2
3075.32338	2994.5
3077.70662	2990.9
3080.08842	3009.3
3082.46878	3008
3084.84769	3004.5
3087.22515	3000.9
3089.60118	3017.7
3091.97576	3013.6
3094.3489	3013.7
3096.72061	3019.8
3099.09087	3029.8
3101.4597	3039
3103.82709	3041.9
3106.19305	3036.9
3108.55757	3047.2
3110.92066	3027.6
3113.28232	3034
3115.64255	3029.9
3118.00134	3025.2
3120.35871	3017.6
3122.71466	3031.9
3125.06917	3024.9
3127.42226	3028
3129.77393	3042.4
3132.12417	3034.7
3134.47299	3043.3
3136.82039	3043.2
3139.16636	3051.5
3141.51092	3054.7
3143.85406	3064.8
3146.19579	3071.4
3148.53609	3066.8
3150.87499	3094.8
3153.21246	3083.9
3155.54853	3094.9
3157.88318	3097.4
3160.21642	3095.3
3162.54826	3125.6
3164.87868	3111.8
3167.2077	3117.6
3169.5353	3126.8
3171.86151	3124.1
3174.18631	3128
3176.5097	3125.5
3178.83169	3120.3
3181.15228	3128.6
3183.47147	3130.2
3185.78926	3145
3188.10565	3136.5
3190.42065	3141.1
3192.73424	3150
3195.04645	3152.9
3197.35725	3160.9
3199.66667	3160.9
3201.97469	3172.8
3204.28132	3175.5
3206.58656	3194.1
3208.8904	3184.9
3211.19287	3196.4
3213.49394	3193.3
3215.79363	3198.2
3218.09193	3215.7
3220.38884	3206.6
3222.68438	3214.3
3224.97853	3195.1
3227.2713	3198
3229.56269	3216.6
3231.8527	3200.1
3234.14133	3196
3236.42858	3201.6
3238.71446	3193.9
3240.99896	3183.2
3243.28209	3192.5
3245.56384	3188.7
3247.84423	3189.2
3250.12324	3192.8
3252.40088	3186.7
3254.67715	3174.1
3256.95205	3180.6
3259.22558	3185.9
3261.49775	3174.8
3263.76855	3186.1
3266.03799	3173.3
3268.30606	3154.6
3270.57277	3163.2
3272.83812	3151.5
3275.10211	3152.2
3277.36474	3147.3
3279.62601	3166.2
3281.88593	3140.3
3284.14448	3160.2
3286.40168	3151.9
3288.65753	3146.1
3290.91202	3146.2
3293.16516	3130.8
3295.41695	3131.2
3297.66738	3116.7
3299.91647	3088
3302.16421	3078.4
3304.4106	3069.7
3306.65564	3058.9
3308.89933	3034.4
3311.14169	3009.6
3313.38269	3005.3
3315.62236	2994.1
3317.86068	2953
3320.09766	2925.4
3322.3333	2911.3
3324.5676	2932.1
3326.80056	2867.2
3329.03219	2856.4
3331.26248	0.9
3333.49143	-0.3
3335.71905	0.3
