Data from AgNPs_FTO_APTES_UA_0.1mM_CRN_100uM_NaF_0.1M_Addition_RamanShift__6__13-23-17-673.txt Node

Date: Mon Dec 20 13:23:17 GMT 2021
User: TCL
Spectrometer: QEP01345
Trigger mode: 4
Integration Time (sec): 7.000000E0
Scans to average: 10
Electric dark correction enabled: true
Nonlinearity correction enabled: false
Boxcar width: 0
XAxis mode: Raman Shifts
Number of Pixels in Spectrum: 1044
>>>>>Begin Spectral Data<<<<<
46.04893	0.3375
50.45542	-0.0625
54.85868	-1.8625
59.25871	1.6375
63.6555	31.0375
68.04907	29.8375
72.43941	34.2375
76.82654	34.6375
81.21044	34.7375
85.59113	38.3375
89.96862	35.1375
94.34289	38.5375
98.71396	40.8375
103.08183	40.5375
107.4465	43.2375
111.80798	42.9375
116.16626	44.1375
120.52136	45.9375
124.87327	48.2375
129.222	47.1375
133.56755	51.0375
137.90993	51.0375
142.24913	56.7375
146.58517	61.6375
150.91804	73.0375
155.24774	83.9375
159.57429	97.4375
163.89768	124.9375
168.21792	159.8375
172.53501	210.4375
176.84895	288.6375
181.15975	396.6375
185.46741	555.5375
189.77193	767.7375
194.07331	1011.9375
198.37157	1316.9375
202.6667	1636.1375
206.9587	1965.8375
211.24758	2285.0375
215.53334	2616.2375
219.81599	2964.3375
224.09553	3358.4375
228.37195	3793.1375
232.64527	4270.3375
236.91549	4778.1375
241.18261	5273.1375
245.44663	5699.3375
249.70755	6043.0375
253.96539	6331.2375
258.22014	6512.4375
262.4718	6615.6375
266.72039	6681.8375
270.96589	6652.7375
275.20832	6595.3375
279.44768	6491.9375
283.68397	6369.4375
287.91719	6269.3375
292.14735	6185.3375
296.37445	6113.9375
300.59849	6060.6375
304.81948	6015.4375
309.03742	5976.2375
313.25231	5929.0375
317.46415	5844.4375
321.67296	5749.3375
325.87872	5694.3375
330.08145	5654.3375
334.28114	5651.9375
338.47781	5658.4375
342.67145	5666.8375
346.86207	5706.5375
351.04966	5785.1375
355.23424	5841.1375
359.4158	5927.5375
363.59435	5982.0375
367.76989	6034.8375
371.94243	6105.5375
376.11196	6172.0375
380.27849	6238.1375
384.44203	6287.3375
388.60257	6328.0375
392.76012	6418.9375
396.91468	6465.8375
401.06626	6527.6375
405.21485	6571.4375
409.36047	6578.7375
413.50311	6556.4375
417.64277	6527.4375
421.77947	6523.9375
425.9132	6520.0375
430.04396	6554.8375
434.17176	6569.9375
438.2966	6616.7375
442.41849	6636.8375
446.53742	6696.9375
450.6534	6745.2375
454.76644	6820.3375
458.87653	6852.3375
462.98368	6858.0375
467.08789	6882.3375
471.18916	6897.8375
475.2875	6891.7375
479.38291	6961.4375
483.4754	7030.2375
487.56496	7133.0375
491.6516	7240.7375
495.73531	7344.8375
499.81612	7384.2375
503.89401	7390.4375
507.96899	7321.4375
512.04106	7224.6375
516.11023	7179.4375
520.1765	7157.4375
524.23987	7168.7375
528.30034	7196.7375
532.35792	7197.7375
536.41261	7187.8375
540.46441	7128.0375
544.51333	7061.1375
548.55936	6980.7375
552.60252	6959.7375
556.64279	6955.4375
560.6802	6976.4375
564.71473	6976.5375
568.7464	7008.6375
572.7752	7052.4375
576.80114	7113.2375
580.82422	7185.3375
584.84444	7310.1375
588.86181	7477.4375
592.87633	7551.3375
596.888	7493.4375
600.89682	7459.8375
604.9028	7457.1375
608.90594	7695.6375
612.90624	8012.2375
616.90371	8038.5375
620.89834	7756.0375
624.89015	7857.0375
628.87913	8294.9375
632.86528	8837.8375
636.84862	9264.5375
640.82913	9326.5375
644.80683	9039.9375
648.78172	8572.6375
652.75379	8161.5375
656.72306	7849.4375
660.68952	7637.0375
664.65319	7480.5375
668.61405	7376.8375
672.57211	7317.1375
676.52738	7347.3375
680.47986	7390.8375
684.42955	7389.5375
688.37646	7355.9375
692.32058	7270.9375
696.26192	7232.9375
700.20048	7173.8375
704.13626	7120.5375
708.06928	7105.4375
711.99952	7087.3375
715.927	7082.8375
719.85171	7133.8375
723.77365	7234.5375
727.69284	7275.9375
731.60928	7258.9375
735.52295	7170.6375
739.43388	7076.6375
743.34206	7034.9375
747.24749	7064.8375
751.15017	7054.2375
755.05012	7051.3375
758.94733	7129.0375
762.8418	7261.8375
766.73354	7417.6375
770.62254	7566.4375
774.50882	7613.6375
778.39237	7482.8375
782.27321	7276.9375
786.15132	7070.6375
790.02671	6973.0375
793.89938	6939.7375
797.76935	6951.9375
801.6366	7021.6375
805.50115	7192.1375
809.36299	7423.2375
813.22213	7598.4375
817.07857	7588.1375
820.93231	7445.2375
824.78336	7195.0375
828.63172	6980.0375
832.47738	6828.6375
836.32036	6776.7375
840.16066	6728.6375
843.99827	6722.1375
847.8332	6701.5375
851.66546	6717.7375
855.49504	6710.4375
859.32195	6726.8375
863.1462	6768.4375
866.96777	6813.1375
870.78668	6874.2375
874.60293	7010.3375
878.41652	7140.3375
882.22745	7293.1375
886.03573	7403.9375
889.84136	7497.0375
893.64433	7470.8375
897.44466	7287.1375
901.24235	7081.5375
905.0374	6887.4375
908.8298	6748.6375
912.61957	6677.4375
916.40671	6630.4375
920.19121	6620.9375
923.97308	6605.2375
927.75233	6595.0375
931.52895	6581.4375
935.30295	6542.0375
939.07433	6492.8375
942.84309	6471.0375
946.60924	6433.9375
950.37278	6410.1375
954.13371	6417.3375
957.89203	6415.5375
961.64774	6373.8375
965.40086	6368.7375
969.15137	6368.3375
972.89929	6341.3375
976.64461	6318.8375
980.38733	6331.1375
984.12747	6327.3375
987.86502	6346.5375
991.59999	6347.7375
995.33237	6387.3375
999.06217	6461.2375
1002.78939	6541.6375
1006.51404	6617.9375
1010.23611	6698.4375
1013.95561	6764.4375
1017.67255	6812.0375
1021.38692	6808.7375
1025.09872	6793.5375
1028.80796	6713.4375
1032.51465	6642.9375
1036.21877	6580.1375
1039.92035	6534.2375
1043.61937	6491.2375
1047.31584	6486.6375
1051.00976	6472.6375
1054.70114	6501.0375
1058.38998	6517.4375
1062.07627	6569.4375
1065.76003	6640.0375
1069.44126	6712.3375
1073.11995	6795.4375
1076.79611	6859.0375
1080.46974	6850.0375
1084.14085	6782.1375
1087.80943	6744.2375
1091.47549	6702.9375
1095.13903	6665.1375
1098.80005	6637.4375
1102.45857	6589.5375
1106.11456	6585.8375
1109.76805	6626.6375
1113.41903	6746.6375
1117.06751	6981.0375
1120.71348	7335.3375
1124.35696	7853.1375
1127.99793	8400.6375
1131.63641	8883.6375
1135.2724	9056.2375
1138.90589	9015.2375
1142.5369	8715.3375
1146.16542	8325.0375
1149.79145	7873.4375
1153.415	7468.7375
1157.03607	7132.4375
1160.65467	6916.6375
1164.27079	6817.4375
1167.88443	6827.1375
1171.49561	6899.7375
1175.10432	7013.7375
1178.71056	7213.4375
1182.31434	7420.7375
1185.91565	7535.4375
1189.51451	7612.4375
1193.11091	7656.2375
1196.70485	7734.6375
1200.29634	7797.1375
1203.88538	7847.6375
1207.47197	7849.1375
1211.05612	7799.1375
1214.63782	7648.8375
1218.21708	7475.8375
1221.79391	7251.4375
1225.36829	7090.1375
1228.94024	6977.5375
1232.50976	6890.0375
1236.07685	6839.3375
1239.6415	6821.6375
1243.20374	6855.7375
1246.76355	6891.1375
1250.32093	6954.7375
1253.8759	7024.5375
1257.42845	7118.4375
1260.97859	7165.1375
1264.52631	7229.4375
1268.07163	7275.4375
1271.61453	7312.5375
1275.15503	7346.3375
1278.69312	7360.2375
1282.22882	7331.8375
1285.76211	7377.6375
1289.29301	7404.3375
1292.82151	7487.2375
1296.34761	7630.5375
1299.87133	7748.7375
1303.39266	7931.5375
1306.9116	8102.1375
1310.42815	8285.4375
1313.94233	8369.8375
1317.45412	8444.9375
1320.96354	8400.8375
1324.47058	8366.1375
1327.97525	8334.3375
1331.47754	8288.3375
1334.97747	8290.8375
1338.47502	8363.5375
1341.97022	8445.3375
1345.46305	8554.1375
1348.95352	8672.6375
1352.44163	8826.0375
1355.92738	8998.5375
1359.41078	9226.2375
1362.89183	9460.9375
1366.37053	9468.6375
1369.84688	9133.4375
1373.32088	8709.5375
1376.79254	8405.3375
1380.26186	8189.1375
1383.72883	8054.7375
1387.19347	7934.1375
1390.65578	7827.5375
1394.11575	7674.4375
1397.57339	7553.3375
1401.0287	7455.6375
1404.48168	7385.7375
1407.93234	7273.8375
1411.38068	7147.0375
1414.82669	6983.7375
1418.27039	6817.8375
1421.71177	6654.3375
1425.15083	6540.9375
1428.58758	6457.1375
1432.02203	6440.4375
1435.45416	6423.8375
1438.88399	6469.4375
1442.31151	6470.1375
1445.73673	6495.4375
1449.15965	6499.8375
1452.58027	6517.7375
1455.9986	6529.2375
1459.41463	6540.3375
1462.82837	6584.1375
1466.23982	6617.3375
1469.64898	6691.7375
1473.05586	6722.2375
1476.46045	6741.0375
1479.86276	6754.6375
1483.26279	6740.0375
1486.66054	6771.9375
1490.05602	6806.5375
1493.44922	6909.9375
1496.84016	7016.9375
1500.22882	7199.9375
1503.61521	7406.0375
1506.99934	7645.3375
1510.38121	7820.3375
1513.76081	7898.5375
1517.13816	7776.3375
1520.51324	7584.6375
1523.88607	7408.9375
1527.25665	7334.0375
1530.62498	7303.4375
1533.99105	7294.5375
1537.35488	7299.1375
1540.71647	7328.4375
1544.07581	7345.2375
1547.4329	7325.2375
1550.78776	7323.5375
1554.14038	7299.8375
1557.49077	7306.5375
1560.83892	7321.6375
1564.18484	7325.3375
1567.52853	7325.0375
1570.86999	7369.8375
1574.20922	7389.8375
1577.54624	7416.1375
1580.88103	7376.6375
1584.2136	7339.9375
1587.54395	7273.1375
1590.87208	7262.4375
1594.19801	7317.9375
1597.52172	7392.0375
1600.84321	7428.5375
1604.16251	7368.7375
1607.47959	7243.0375
1610.79447	7126.9375
1614.10715	6966.3375
1617.41763	6856.6375
1620.7259	6781.7375
1624.03199	6740.4375
1627.33587	6771.6375
1630.63757	6823.7375
1633.93707	6949.8375
1637.23439	7180.6375
1640.52951	7427.3375
1643.82246	7752.8375
1647.11321	8107.9375
1650.40179	8275.8375
1653.68819	8197.5375
1656.97241	7936.5375
1660.25446	7585.8375
1663.53433	7347.4375
1666.81203	7193.6375
1670.08756	7084.7375
1673.36092	7082.5375
1676.63211	7040.1375
1679.90115	7067.7375
1683.16801	7047.0375
1686.43272	6997.4375
1689.69527	6915.7375
1692.95567	6828.8375
1696.2139	6741.6375
1699.46999	6636.1375
1702.72392	6521.9375
1705.97571	6402.6375
1709.22535	6214.0375
1712.47284	6042.3375
1715.71819	5881.2375
1718.96139	5744.6375
1722.20246	5606.4375
1725.44139	5497.6375
1728.67818	5406.1375
1731.91284	5335.6375
1735.14537	5284.8375
1738.37576	5228.8375
1741.60403	5198.7375
1744.83017	5163.8375
1748.05418	5140.9375
1751.27607	5131.0375
1754.49584	5099.8375
1757.71349	5099.0375
1760.92903	5096.8375
1764.14244	5051.9375
1767.35375	5063.2375
1770.56294	5037.5375
1773.77002	5011.9375
1776.97499	4998.2375
1780.17785	4989.9375
1783.37861	4969.0375
1786.57727	4960.0375
1789.77382	4933.9375
1792.96828	4935.3375
1796.16064	4905.0375
1799.3509	4895.1375
1802.53907	4875.4375
1805.72514	4858.5375
1808.90913	4858.7375
1812.09102	4844.9375
1815.27083	4839.4375
1818.44856	4809.0375
1821.6242	4794.1375
1824.79776	4788.6375
1827.96924	4790.8375
1831.13864	4775.3375
1834.30597	4781.4375
1837.47122	4760.1375
1840.6344	4744.8375
1843.7955	4760.3375
1846.95454	4756.9375
1850.11151	4745.4375
1853.26642	4734.2375
1856.41926	4711.6375
1859.57004	4718.7375
1862.71876	4725.9375
1865.86542	4717.8375
1869.01003	4696.6375
1872.15258	4688.6375
1875.29308	4684.4375
1878.43152	4671.5375
1881.56792	4654.9375
1884.70227	4661.5375
1887.83457	4657.7375
1890.96482	4636.1375
1894.09304	4631.9375
1897.21921	4610.4375
1900.34335	4622.2375
1903.46544	4599.9375
1906.58551	4610.0375
1909.70353	4592.7375
1912.81953	4599.9375
1915.93349	4592.6375
1919.04543	4571.3375
1922.15534	4571.6375
1925.26322	4557.7375
1928.36908	4552.0375
1931.47292	4543.8375
1934.57473	4523.5375
1937.67453	4511.5375
1940.77232	4495.7375
1943.86808	4509.5375
1946.96184	4480.8375
1950.05358	4456.5375
1953.14331	4463.2375
1956.23103	4438.2375
1959.31675	4427.8375
1962.40046	4412.9375
1965.48217	4386.2375
1968.56188	4373.5375
1971.63959	4356.4375
1974.7153	4336.5375
1977.78901	4344.8375
1980.86073	4320.3375
1983.93046	4314.2375
1986.99819	4292.7375
1990.06394	4286.1375
1993.1277	4274.5375
1996.18947	4262.9375
1999.24925	4242.6375
2002.30706	4253.4375
2005.36288	4206.1375
2008.41672	4199.6375
2011.46859	4191.6375
2014.51848	4181.7375
2017.56639	4167.8375
2020.61233	4143.9375
2023.6563	4148.4375
2026.6983	4132.2375
2029.73833	4113.6375
2032.7764	4114.6375
2035.8125	4101.8375
2038.84664	4091.9375
2041.87881	4090.2375
2044.90903	4071.1375
2047.93729	4062.8375
2050.96359	4070.6375
2053.98794	4050.3375
2057.01034	4048.5375
2060.03078	4048.9375
2063.04927	4026.8375
2066.06582	4031.6375
2069.08042	4027.0375
2072.09307	4028.5375
2075.10378	4015.0375
2078.11255	4021.2375
2081.11938	4030.8375
2084.12426	4018.3375
2087.12722	4022.7375
2090.12824	4019.5375
2093.12732	4015.3375
2096.12447	4017.7375
2099.11969	4006.6375
2102.11299	4026.7375
2105.10435	4010.0375
2108.09379	4001.3375
2111.08131	3999.6375
2114.0669	4013.4375
2117.05057	4024.7375
2120.03233	4026.4375
2123.01216	4032.9375
2125.99008	4020.1375
2128.96609	4026.3375
2131.94018	4028.0375
2134.91236	4037.2375
2137.88263	4020.5375
2140.851	4023.4375
2143.81746	4028.2375
2146.78201	4030.8375
2149.74466	4022.9375
2152.7054	4034.3375
2155.66425	4040.9375
2158.6212	4018.9375
2161.57625	4016.3375
2164.52941	4015.8375
2167.48067	4016.1375
2170.43004	4014.6375
2173.37752	4011.2375
2176.32311	4012.8375
2179.26681	3998.1375
2182.20863	3988.1375
2185.14856	3995.7375
2188.08661	3981.6375
2191.02278	3987.7375
2193.95707	3981.8375
2196.88948	3978.1375
2199.82001	3975.3375
2202.74867	3970.8375
2205.67545	3968.5375
2208.60037	3972.6375
2211.52341	3944.7375
2214.44458	3942.8375
2217.36388	3941.1375
2220.28132	3920.6375
2223.1969	3915.3375
2226.11061	3903.1375
2229.02246	3890.9375
2231.93245	3879.7375
2234.84058	3874.6375
2237.74686	3866.0375
2240.65128	3858.9375
2243.55385	3868.6375
2246.45456	3852.8375
2249.35343	3843.2375
2252.25044	3840.0375
2255.14561	3826.5375
2258.03893	3837.4375
2260.93041	3838.9375
2263.82004	3801.4375
2266.70783	3807.2375
2269.59378	3777.2375
2272.4779	3785.7375
2275.36017	3766.9375
2278.24061	3758.4375
2281.11922	3758.2375
2283.996	3745.1375
2286.87094	3748.2375
2289.74405	3734.8375
2292.61534	3727.0375
2295.4848	3709.4375
2298.35243	3717.7375
2301.21824	3708.7375
2304.08223	3706.4375
2306.94439	3694.4375
2309.80474	3700.7375
2312.66327	3685.7375
2315.51999	3678.7375
2318.37489	3683.3375
2321.22797	3679.2375
2324.07925	3667.6375
2326.92871	3665.9375
2329.77637	3661.1375
2332.62222	3659.2375
2335.46626	3642.0375
2338.3085	3630.0375
2341.14893	3630.0375
2343.98756	3633.0375
2346.8244	3615.8375
2349.65943	3625.6375
2352.49267	3610.3375
2355.32411	3612.4375
2358.15376	3612.6375
2360.98161	3591.2375
2363.80768	3593.1375
2366.63195	3595.6375
2369.45444	3581.1375
2372.27514	3581.5375
2375.09405	3572.1375
2377.91118	3568.8375
2380.72652	3564.6375
2383.54009	3562.0375
2386.35187	3553.1375
2389.16188	3537.0375
2391.97011	3531.2375
2394.77657	3540.9375
2397.58125	3529.1375
2400.38416	3504.8375
2403.18529	3511.3375
2405.98466	3496.3375
2408.78226	3509.8375
2411.57809	3490.0375
2414.37216	3473.7375
2417.16446	3478.3375
2419.955	3470.8375
2422.74378	3471.1375
2425.5308	3466.6375
2428.31606	3464.2375
2431.09956	3448.2375
2433.88131	3446.7375
2436.6613	3436.7375
2439.43954	3426.5375
2442.21603	3421.0375
2444.99077	3429.7375
2447.76377	3424.5375
2450.53501	3420.8375
2453.30451	3421.2375
2456.07226	3400.0375
2458.83827	3390.5375
2461.60254	3399.9375
2464.36507	3385.4375
2467.12586	3387.5375
2469.88492	3389.3375
2472.64224	3379.2375
2475.39782	3376.2375
2478.15167	3384.2375
2480.90379	3378.0375
2483.65417	3361.8375
2486.40283	3356.6375
2489.14976	3358.2375
2491.89497	3347.5375
2494.63845	3361.2375
2497.3802	3363.1375
2500.12024	3336.8375
2502.85855	3339.5375
2505.59514	3342.7375
2508.33002	3340.3375
2511.06318	3329.5375
2513.79462	3313.6375
2516.52435	3316.9375
2519.25237	3315.3375
2521.97867	3312.2375
2524.70327	3305.8375
2527.42616	3308.6375
2530.14734	3283.2375
2532.86681	3284.1375
2535.58458	3285.4375
2538.30065	3273.2375
2541.01501	3268.7375
2543.72768	3263.0375
2546.43864	3256.0375
2549.14791	3257.5375
2551.85548	3250.0375
2554.56136	3233.3375
2557.26554	3217.1375
2559.96803	3226.3375
2562.66883	3232.8375
2565.36794	3210.8375
2568.06536	3206.8375
2570.7611	3205.6375
2573.45514	3201.7375
2576.14751	3190.5375
2578.83819	3185.8375
2581.52719	3171.5375
2584.21451	3180.7375
2586.90015	3164.1375
2589.58411	3167.1375
2592.2664	3150.0375
2594.94701	3137.8375
2597.62594	3142.9375
2600.30321	3121.0375
2602.9788	3123.5375
2605.65273	3114.5375
2608.32498	3119.3375
2610.99557	3102.0375
2613.66449	3092.7375
2616.33175	3101.7375
2618.99734	3090.6375
2621.66128	3083.8375
2624.32355	3080.5375
2626.98416	3077.7375
2629.64311	3078.4375
2632.30041	3073.6375
2634.95605	3062.7375
2637.61004	3063.5375
2640.26238	3055.1375
2642.91306	3054.1375
2645.56209	3047.8375
2648.20948	3046.1375
2650.85521	3044.8375
2653.4993	3042.2375
2656.14175	3047.7375
2658.78255	3039.6375
2661.42171	3032.4375
2664.05923	3030.8375
2666.6951	3028.6375
2669.32934	3038.5375
2671.96194	3035.2375
2674.59291	3030.5375
2677.22224	3031.7375
2679.84993	3022.5375
2682.476	3032.4375
2685.10043	3035.6375
2687.72324	3024.9375
2690.34441	3023.1375
2692.96396	3025.4375
2695.58188	3022.1375
2698.19818	3030.5375
2700.81285	3027.3375
2703.4259	3036.9375
2706.03733	3047.6375
2708.64714	3035.3375
2711.25533	3041.2375
2713.86191	3033.4375
2716.46687	3029.2375
2719.07021	3026.3375
2721.67194	3028.5375
2724.27206	3033.6375
2726.87057	3028.1375
2729.46747	3014.1375
2732.06276	3015.7375
2734.65644	3016.9375
2737.24852	3022.0375
2739.83899	3009.6375
2742.42786	3002.6375
2745.01513	3002.0375
2747.60079	3006.4375
2750.18486	2992.4375
2752.76733	2986.9375
2755.3482	2983.5375
2757.92747	2981.3375
2760.50515	2967.0375
2763.08123	2979.5375
2765.65573	2959.4375
2768.22863	2962.9375
2770.79994	2955.5375
2773.36967	2974.6375
2775.9378	2946.7375
2778.50435	2944.2375
2781.06932	2955.1375
2783.6327	2927.7375
2786.1945	2936.4375
2788.75471	2926.7375
2791.31335	2927.8375
2793.87041	2914.3375
2796.42589	2913.4375
2798.97979	2901.8375
2801.53212	2885.0375
2804.08288	2885.7375
2806.63206	2889.6375
2809.17967	2879.8375
2811.72571	2869.2375
2814.27018	2865.4375
2816.81308	2860.6375
2819.35442	2850.6375
2821.89419	2847.2375
2824.43239	2843.3375
2826.96904	2854.1375
2829.50412	2840.0375
2832.03763	2846.8375
2834.56959	2839.6375
2837.1	2832.6375
2839.62884	2839.4375
2842.15613	2826.6375
2844.68186	2831.9375
2847.20604	2834.0375
2849.72867	2842.6375
2852.24974	2812.4375
2854.76927	2820.6375
2857.28724	2826.2375
2859.80367	2825.2375
2862.31855	2822.0375
2864.83189	2830.4375
2867.34368	2820.1375
2869.85393	2817.4375
2872.36264	2798.6375
2874.8698	2808.5375
2877.37543	2806.7375
2879.87952	2812.1375
2882.38207	2809.7375
2884.88308	2802.6375
2887.38256	2815.1375
2889.88051	2805.0375
2892.37692	2804.0375
2894.8718	2820.1375
2897.36515	2810.7375
2899.85698	2809.1375
2902.34727	2809.0375
2904.83604	2818.0375
2907.32328	2816.8375
2909.809	2818.8375
2912.29319	2819.8375
2914.77587	2824.0375
2917.25702	2809.5375
2919.73665	2804.2375
2922.21476	2808.2375
2924.69136	2808.8375
2927.16644	2818.3375
2929.64	2811.9375
2932.11205	2804.9375
2934.58258	2810.5375
2937.05161	2812.9375
2939.51912	2803.2375
2941.98513	2796.6375
2944.44962	2805.4375
2946.91261	2791.7375
2949.37409	2811.1375
2951.83407	2797.0375
2954.29254	2792.8375
2956.74951	2802.0375
2959.20498	2807.1375
2961.65895	2801.5375
2964.11142	2796.1375
2966.56239	2794.4375
2969.01186	2773.7375
2971.45984	2769.4375
2973.90632	2767.0375
2976.35131	2759.3375
2978.7948	2749.7375
2981.23681	2746.3375
2983.67732	2750.2375
2986.11635	2739.9375
2988.55388	2736.4375
2990.98993	2746.7375
2993.4245	2726.5375
2995.85758	2723.1375
2998.28917	2725.9375
3000.71928	2734.8375
3003.14791	2716.0375
3005.57506	2715.0375
3008.00073	2713.9375
3010.42493	2713.0375
3012.84764	2718.3375
3015.26888	2721.5375
3017.68865	2703.3375
3020.10694	2720.1375
3022.52376	2710.9375
3024.9391	2708.0375
3027.35298	2710.2375
3029.76539	2716.3375
3032.17632	2714.9375
3034.5858	2715.7375
3036.9938	2711.6375
3039.40034	2694.3375
3041.80542	2701.0375
3044.20903	2693.5375
3046.61118	2697.2375
3049.01187	2690.8375
3051.4111	2691.9375
3053.80888	2708.5375
3056.20519	2694.3375
3058.60005	2688.8375
3060.99345	2694.6375
3063.3854	2684.8375
3065.7759	2670.5375
3068.16494	2691.8375
3070.55254	2681.0375
3072.93868	2682.1375
3075.32338	2682.5375
3077.70662	2685.2375
3080.08842	2687.8375
3082.46878	2691.4375
3084.84769	2691.6375
3087.22515	2693.5375
3089.60118	2691.3375
3091.97576	2700.9375
3094.3489	2704.8375
3096.72061	2713.6375
3099.09087	2716.6375
3101.4597	2714.4375
3103.82709	2722.2375
3106.19305	2718.8375
3108.55757	2721.7375
3110.92066	2706.9375
3113.28232	2720.4375
3115.64255	2705.2375
3118.00134	2720.5375
3120.35871	2722.7375
3122.71466	2734.5375
3125.06917	2727.0375
3127.42226	2711.3375
3129.77393	2727.3375
3132.12417	2729.2375
3134.47299	2743.8375
3136.82039	2747.9375
3139.16636	2741.9375
3141.51092	2754.4375
3143.85406	2768.5375
3146.19579	2771.0375
3148.53609	2775.1375
3150.87499	2783.8375
3153.21246	2788.7375
3155.54853	2796.2375
3157.88318	2813.6375
3160.21642	2808.2375
3162.54826	2814.0375
3164.87868	2816.1375
3167.2077	2820.1375
3169.5353	2824.4375
3171.86151	2832.1375
3174.18631	2824.9375
3176.5097	2837.1375
3178.83169	2845.9375
3181.15228	2848.6375
3183.47147	2852.2375
3185.78926	2842.2375
3188.10565	2837.0375
3190.42065	2856.6375
3192.73424	2851.3375
3195.04645	2854.9375
3197.35725	2862.8375
3199.66667	2862.0375
3201.97469	2872.9375
3204.28132	2873.4375
3206.58656	2889.8375
3208.8904	2910.4375
3211.19287	2902.4375
3213.49394	2892.7375
3215.79363	2904.5375
3218.09193	2908.0375
3220.38884	2904.4375
3222.68438	2915.3375
3224.97853	2892.4375
3227.2713	2905.9375
3229.56269	2895.3375
3231.8527	2888.4375
3234.14133	2889.5375
3236.42858	2886.0375
3238.71446	2887.6375
3240.99896	2883.0375
3243.28209	2885.8375
3245.56384	2876.4375
3247.84423	2881.1375
3250.12324	2872.5375
3252.40088	2868.7375
3254.67715	2870.2375
3256.95205	2865.4375
3259.22558	2873.7375
3261.49775	2876.2375
3263.76855	2851.2375
3266.03799	2855.3375
3268.30606	2864.2375
3270.57277	2850.3375
3272.83812	2833.9375
3275.10211	2845.0375
3277.36474	2833.1375
3279.62601	2833.5375
3281.88593	2845.3375
3284.14448	2847.7375
3286.40168	2842.8375
3288.65753	2822.9375
3290.91202	2826.3375
3293.16516	2808.1375
3295.41695	2805.1375
3297.66738	2797.6375
3299.91647	2795.6375
3302.16421	2768.5375
3304.4106	2754.0375
3306.65564	2748.0375
3308.89933	2736.5375
3311.14169	2721.4375
3313.38269	2705.2375
3315.62236	2684.5375
3317.86068	2655.0375
3320.09766	2638.9375
3322.3333	2624.8375
3324.5676	2627.1375
3326.80056	2587.3375
3329.03219	2574.7375
3331.26248	0.2375
3333.49143	0.6375
3335.71905	-0.7625
