Data from AgNPs_FTO_APTES_UA_0.1mM_CRN_10uM_NaF_0.1M_Addition_RamanShift__24__11-46-27-564.txt Node

Date: Mon Dec 20 11:46:27 GMT 2021
User: TCL
Spectrometer: QEP01345
Trigger mode: 4
Integration Time (sec): 7.000000E0
Scans to average: 10
Electric dark correction enabled: true
Nonlinearity correction enabled: false
Boxcar width: 0
XAxis mode: Raman Shifts
Number of Pixels in Spectrum: 1044
>>>>>Begin Spectral Data<<<<<
46.04893	1.1625
50.45542	-1.5375
54.85868	-0.9375
59.25871	1.6625
63.6555	35.3625
68.04907	35.4625
72.43941	40.5625
76.82654	44.0625
81.21044	42.9625
85.59113	49.5625
89.96862	44.3625
94.34289	47.3625
98.71396	48.1625
103.08183	49.4625
107.4465	49.6625
111.80798	58.0625
116.16626	55.9625
120.52136	57.4625
124.87327	58.1625
129.222	59.4625
133.56755	62.4625
137.90993	71.2625
142.24913	73.5625
146.58517	77.4625
150.91804	91.2625
155.24774	106.3625
159.57429	127.2625
163.89768	162.1625
168.21792	212.0625
172.53501	280.1625
176.84895	379.2625
181.15975	528.0625
185.46741	730.0625
189.77193	1010.7625
194.07331	1359.1625
198.37157	1751.2625
202.6667	2164.7625
206.9587	2582.5625
211.24758	2991.5625
215.53334	3399.4625
219.81599	3829.0625
224.09553	4258.6625
228.37195	4747.8625
232.64527	5258.4625
236.91549	5831.7625
241.18261	6344.4625
245.44663	6888.0625
249.70755	7346.6625
253.96539	7748.1625
258.22014	8089.9625
262.4718	8333.0625
266.72039	8495.6625
270.96589	8583.0625
275.20832	8546.1625
279.44768	8474.5625
283.68397	8354.2625
287.91719	8273.5625
292.14735	8198.5625
296.37445	8147.5625
300.59849	8149.7625
304.81948	8172.4625
309.03742	8185.4625
313.25231	8111.1625
317.46415	7971.3625
321.67296	7751.9625
325.87872	7600.0625
330.08145	7501.6625
334.28114	7495.5625
338.47781	7562.4625
342.67145	7655.1625
346.86207	7748.8625
351.04966	7893.6625
355.23424	8094.9625
359.4158	8253.0625
363.59435	8342.8625
367.76989	8452.7625
371.94243	8539.4625
376.11196	8612.6625
380.27849	8674.8625
384.44203	8732.5625
388.60257	8786.6625
392.76012	8849.9625
396.91468	8956.6625
401.06626	9054.6625
405.21485	9140.0625
409.36047	9117.9625
413.50311	8997.9625
417.64277	8893.7625
421.77947	8837.8625
425.9132	8805.6625
430.04396	8840.7625
434.17176	8879.6625
438.2966	8953.3625
442.41849	9047.2625
446.53742	9177.2625
450.6534	9325.0625
454.76644	9425.7625
458.87653	9502.9625
462.98368	9493.2625
467.08789	9416.3625
471.18916	9412.7625
475.2875	9391.9625
479.38291	9432.5625
483.4754	9507.7625
487.56496	9600.7625
491.6516	9729.2625
495.73531	9775.4625
499.81612	9694.2625
503.89401	9609.5625
507.96899	9526.3625
512.04106	9450.8625
516.11023	9436.5625
520.1765	9465.9625
524.23987	9523.0625
528.30034	9513.9625
532.35792	9520.7625
536.41261	9420.7625
540.46441	9292.3625
544.51333	9205.8625
548.55936	9149.8625
552.60252	9158.1625
556.64279	9240.2625
560.6802	9294.1625
564.71473	9319.8625
568.7464	9438.5625
572.7752	9547.4625
576.80114	9555.0625
580.82422	9577.9625
584.84444	9665.9625
588.86181	9791.1625
592.87633	9896.8625
596.888	9963.5625
600.89682	9962.8625
604.9028	10125.3625
608.90594	10847.7625
612.90624	11849.1625
616.90371	11836.5625
620.89834	10764.3625
624.89015	10531.6625
628.87913	10905.5625
632.86528	11406.4625
636.84862	11682.0625
640.82913	11515.8625
644.80683	11028.5625
648.78172	10460.5625
652.75379	10065.0625
656.72306	9845.8625
660.68952	9792.7625
664.65319	9723.2625
668.61405	9622.7625
672.57211	9551.2625
676.52738	9584.8625
680.47986	9588.4625
684.42955	9569.1625
688.37646	9552.2625
692.32058	9520.6625
696.26192	9511.7625
700.20048	9464.9625
704.13626	9433.5625
708.06928	9331.7625
711.99952	9242.0625
715.927	9206.9625
719.85171	9214.2625
723.77365	9233.5625
727.69284	9234.8625
731.60928	9161.4625
735.52295	9065.4625
739.43388	9023.6625
743.34206	9032.3625
747.24749	9063.1625
751.15017	9086.7625
755.05012	9121.7625
758.94733	9233.5625
762.8418	9497.2625
766.73354	9945.0625
770.62254	10435.8625
774.50882	10685.0625
778.39237	10462.0625
782.27321	9923.0625
786.15132	9414.5625
790.02671	9169.1625
793.89938	9101.7625
797.76935	9109.0625
801.6366	9205.3625
805.50115	9455.8625
809.36299	9701.4625
813.22213	9797.2625
817.07857	9640.4625
820.93231	9386.1625
824.78336	9082.6625
828.63172	8889.5625
832.47738	8785.6625
836.32036	8712.8625
840.16066	8675.3625
843.99827	8668.7625
847.8332	8619.4625
851.66546	8603.5625
855.49504	8584.4625
859.32195	8596.6625
863.1462	8623.6625
866.96777	8680.6625
870.78668	8783.7625
874.60293	8954.4625
878.41652	9123.4625
882.22745	9269.5625
886.03573	9381.5625
889.84136	9365.7625
893.64433	9191.9625
897.44466	8926.6625
901.24235	8664.9625
905.0374	8504.0625
908.8298	8377.1625
912.61957	8312.8625
916.40671	8298.4625
920.19121	8300.2625
923.97308	8309.8625
927.75233	8283.0625
931.52895	8281.5625
935.30295	8237.7625
939.07433	8192.5625
942.84309	8112.6625
946.60924	8072.6625
950.37278	8056.1625
954.13371	8031.5625
957.89203	8020.5625
961.64774	7984.5625
965.40086	7950.8625
969.15137	7922.2625
972.89929	7904.1625
976.64461	7842.9625
980.38733	7821.8625
984.12747	7806.5625
987.86502	7827.6625
991.59999	7881.2625
995.33237	7950.5625
999.06217	8065.4625
1002.78939	8230.2625
1006.51404	8370.1625
1010.23611	8530.6625
1013.95561	8613.1625
1017.67255	8642.5625
1021.38692	8550.6625
1025.09872	8430.2625
1028.80796	8303.1625
1032.51465	8223.1625
1036.21877	8175.8625
1039.92035	8140.1625
1043.61937	8107.4625
1047.31584	8063.3625
1051.00976	8030.9625
1054.70114	8050.8625
1058.38998	8036.5625
1062.07627	8106.9625
1065.76003	8232.1625
1069.44126	8260.8625
1073.11995	8326.5625
1076.79611	8339.5625
1080.46974	8289.4625
1084.14085	8282.2625
1087.80943	8231.8625
1091.47549	8234.5625
1095.13903	8160.3625
1098.80005	8066.6625
1102.45857	7971.4625
1106.11456	7955.8625
1109.76805	7996.2625
1113.41903	8105.6625
1117.06751	8297.5625
1120.71348	8588.0625
1124.35696	8975.6625
1127.99793	9481.4625
1131.63641	9929.3625
1135.2724	10160.8625
1138.90589	10167.6625
1142.5369	9930.3625
1146.16542	9521.8625
1149.79145	9091.3625
1153.415	8725.5625
1157.03607	8453.9625
1160.65467	8336.5625
1164.27079	8387.2625
1167.88443	8495.7625
1171.49561	8725.9625
1175.10432	9096.3625
1178.71056	9645.5625
1182.31434	10148.4625
1185.91565	10407.2625
1189.51451	10471.2625
1193.11091	10428.6625
1196.70485	10386.2625
1200.29634	10397.2625
1203.88538	10335.8625
1207.47197	10139.3625
1211.05612	9841.8625
1214.63782	9504.9625
1218.21708	9209.3625
1221.79391	8934.1625
1225.36829	8746.2625
1228.94024	8624.4625
1232.50976	8484.9625
1236.07685	8423.4625
1239.6415	8371.7625
1243.20374	8371.3625
1246.76355	8449.9625
1250.32093	8492.3625
1253.8759	8594.9625
1257.42845	8676.7625
1260.97859	8766.2625
1264.52631	8884.3625
1268.07163	8954.1625
1271.61453	9069.4625
1275.15503	9171.2625
1278.69312	9230.4625
1282.22882	9287.9625
1285.76211	9397.4625
1289.29301	9570.3625
1292.82151	9794.5625
1296.34761	10095.5625
1299.87133	10459.1625
1303.39266	10931.1625
1306.9116	11528.7625
1310.42815	12121.4625
1313.94233	12533.6625
1317.45412	12591.9625
1320.96354	12377.7625
1324.47058	12070.1625
1327.97525	11817.0625
1331.47754	11628.7625
1334.97747	11617.3625
1338.47502	11673.5625
1341.97022	11780.5625
1345.46305	11868.7625
1348.95352	12018.3625
1352.44163	12239.8625
1355.92738	12623.1625
1359.41078	13241.7625
1362.89183	13891.7625
1366.37053	13785.9625
1369.84688	12778.2625
1373.32088	11628.0625
1376.79254	10811.3625
1380.26186	10448.5625
1383.72883	10276.6625
1387.19347	10189.2625
1390.65578	10060.6625
1394.11575	9930.3625
1397.57339	9912.3625
1401.0287	9939.1625
1404.48168	9987.3625
1407.93234	9967.8625
1411.38068	9830.8625
1414.82669	9607.0625
1418.27039	9277.5625
1421.71177	8949.4625
1425.15083	8652.6625
1428.58758	8482.9625
1432.02203	8379.4625
1435.45416	8430.4625
1438.88399	8500.3625
1442.31151	8572.1625
1445.73673	8632.1625
1449.15965	8701.2625
1452.58027	8779.0625
1455.9986	8767.9625
1459.41463	8814.7625
1462.82837	8854.7625
1466.23982	8964.5625
1469.64898	9092.2625
1473.05586	9165.8625
1476.46045	9168.4625
1479.86276	9156.3625
1483.26279	9178.4625
1486.66054	9219.1625
1490.05602	9259.6625
1493.44922	9396.0625
1496.84016	9526.6625
1500.22882	9796.5625
1503.61521	10188.5625
1506.99934	10690.1625
1510.38121	11136.0625
1513.76081	11330.1625
1517.13816	11044.7625
1520.51324	10470.8625
1523.88607	9885.5625
1527.25665	9535.1625
1530.62498	9380.4625
1533.99105	9326.6625
1537.35488	9318.8625
1540.71647	9340.5625
1544.07581	9353.9625
1547.4329	9332.3625
1550.78776	9329.5625
1554.14038	9315.1625
1557.49077	9337.5625
1560.83892	9382.2625
1564.18484	9402.7625
1567.52853	9458.6625
1570.86999	9535.8625
1574.20922	9603.3625
1577.54624	9656.4625
1580.88103	9589.0625
1584.2136	9485.9625
1587.54395	9486.6625
1590.87208	9663.2625
1594.19801	9935.7625
1597.52172	10308.9625
1600.84321	10528.5625
1604.16251	10402.4625
1607.47959	10057.0625
1610.79447	9629.9625
1614.10715	9214.4625
1617.41763	8889.7625
1620.7259	8667.3625
1624.03199	8547.4625
1627.33587	8534.7625
1630.63757	8658.0625
1633.93707	8915.6625
1637.23439	9257.1625
1640.52951	9826.8625
1643.82246	10520.2625
1647.11321	11226.6625
1650.40179	11610.4625
1653.68819	11398.9625
1656.97241	10581.3625
1660.25446	9656.9625
1663.53433	8914.1625
1666.81203	8429.4625
1670.08756	8085.5625
1673.36092	7844.1625
1676.63211	7676.2625
1679.90115	7543.0625
1683.16801	7404.8625
1686.43272	7272.0625
1689.69527	7196.4625
1692.95567	7093.0625
1696.2139	6993.4625
1699.46999	6860.0625
1702.72392	6754.8625
1705.97571	6626.8625
1709.22535	6537.2625
1712.47284	6488.7625
1715.71819	6422.0625
1718.96139	6363.7625
1722.20246	6292.0625
1725.44139	6236.4625
1728.67818	6177.8625
1731.91284	6109.9625
1735.14537	6031.3625
1738.37576	5989.5625
1741.60403	5951.6625
1744.83017	5936.1625
1748.05418	5917.4625
1751.27607	5906.7625
1754.49584	5883.8625
1757.71349	5863.0625
1760.92903	5850.7625
1764.14244	5845.7625
1767.35375	5835.4625
1770.56294	5810.0625
1773.77002	5771.7625
1776.97499	5747.9625
1780.17785	5723.2625
1783.37861	5696.2625
1786.57727	5660.4625
1789.77382	5638.1625
1792.96828	5624.1625
1796.16064	5593.5625
1799.3509	5574.7625
1802.53907	5552.5625
1805.72514	5541.1625
1808.90913	5531.7625
1812.09102	5514.8625
1815.27083	5498.7625
1818.44856	5473.7625
1821.6242	5470.3625
1824.79776	5450.6625
1827.96924	5446.1625
1831.13864	5422.7625
1834.30597	5422.4625
1837.47122	5403.9625
1840.6344	5404.6625
1843.7955	5392.0625
1846.95454	5388.9625
1850.11151	5394.5625
1853.26642	5377.2625
1856.41926	5373.2625
1859.57004	5376.1625
1862.71876	5369.5625
1865.86542	5363.0625
1869.01003	5350.9625
1872.15258	5350.3625
1875.29308	5338.2625
1878.43152	5311.7625
1881.56792	5313.3625
1884.70227	5314.1625
1887.83457	5304.6625
1890.96482	5292.8625
1894.09304	5290.5625
1897.21921	5250.4625
1900.34335	5261.5625
1903.46544	5268.7625
1906.58551	5267.1625
1909.70353	5263.0625
1912.81953	5233.8625
1915.93349	5219.7625
1919.04543	5212.4625
1922.15534	5217.4625
1925.26322	5175.6625
1928.36908	5200.4625
1931.47292	5173.5625
1934.57473	5152.5625
1937.67453	5140.7625
1940.77232	5123.8625
1943.86808	5111.2625
1946.96184	5101.1625
1950.05358	5072.8625
1953.14331	5047.3625
1956.23103	5036.2625
1959.31675	5036.5625
1962.40046	5021.7625
1965.48217	5010.5625
1968.56188	4993.7625
1971.63959	4963.1625
1974.7153	4965.6625
1977.78901	4940.6625
1980.86073	4925.6625
1983.93046	4910.2625
1986.99819	4896.7625
1990.06394	4890.8625
1993.1277	4834.9625
1996.18947	4844.8625
1999.24925	4833.0625
2002.30706	4798.4625
2005.36288	4788.4625
2008.41672	4793.9625
2011.46859	4778.9625
2014.51848	4750.7625
2017.56639	4748.5625
2020.61233	4730.6625
2023.6563	4703.3625
2026.6983	4703.9625
2029.73833	4693.8625
2032.7764	4683.1625
2035.8125	4679.8625
2038.84664	4675.2625
2041.87881	4660.8625
2044.90903	4661.2625
2047.93729	4644.4625
2050.96359	4628.1625
2053.98794	4622.9625
2057.01034	4629.6625
2060.03078	4597.7625
2063.04927	4601.0625
2066.06582	4597.2625
2069.08042	4589.7625
2072.09307	4588.2625
2075.10378	4586.7625
2078.11255	4580.0625
2081.11938	4560.5625
2084.12426	4571.1625
2087.12722	4574.1625
2090.12824	4579.9625
2093.12732	4564.8625
2096.12447	4568.9625
2099.11969	4559.0625
2102.11299	4544.9625
2105.10435	4561.0625
2108.09379	4579.9625
2111.08131	4572.8625
2114.0669	4562.2625
2117.05057	4568.0625
2120.03233	4558.7625
2123.01216	4571.2625
2125.99008	4564.0625
2128.96609	4569.7625
2131.94018	4572.2625
2134.91236	4585.4625
2137.88263	4567.5625
2140.851	4554.1625
2143.81746	4583.4625
2146.78201	4567.3625
2149.74466	4559.3625
2152.7054	4576.6625
2155.66425	4580.1625
2158.6212	4568.9625
2161.57625	4569.1625
2164.52941	4553.7625
2167.48067	4558.0625
2170.43004	4546.5625
2173.37752	4532.2625
2176.32311	4530.5625
2179.26681	4549.2625
2182.20863	4547.4625
2185.14856	4551.6625
2188.08661	4536.3625
2191.02278	4544.0625
2193.95707	4525.7625
2196.88948	4525.8625
2199.82001	4521.0625
2202.74867	4512.1625
2205.67545	4518.7625
2208.60037	4498.5625
2211.52341	4490.1625
2214.44458	4477.5625
2217.36388	4476.2625
2220.28132	4461.3625
2223.1969	4441.3625
2226.11061	4446.3625
2229.02246	4448.2625
2231.93245	4424.9625
2234.84058	4420.7625
2237.74686	4407.9625
2240.65128	4396.7625
2243.55385	4406.7625
2246.45456	4391.4625
2249.35343	4388.3625
2252.25044	4376.4625
2255.14561	4366.8625
2258.03893	4365.4625
2260.93041	4361.8625
2263.82004	4367.7625
2266.70783	4337.6625
2269.59378	4332.5625
2272.4779	4325.7625
2275.36017	4309.9625
2278.24061	4288.5625
2281.11922	4283.1625
2283.996	4281.2625
2286.87094	4281.1625
2289.74405	4262.8625
2292.61534	4258.0625
2295.4848	4233.7625
2298.35243	4232.5625
2301.21824	4227.2625
2304.08223	4224.0625
2306.94439	4218.2625
2309.80474	4202.3625
2312.66327	4220.0625
2315.51999	4205.2625
2318.37489	4221.4625
2321.22797	4204.4625
2324.07925	4193.1625
2326.92871	4201.7625
2329.77637	4192.3625
2332.62222	4173.5625
2335.46626	4165.2625
2338.3085	4168.7625
2341.14893	4155.9625
2343.98756	4144.9625
2346.8244	4140.2625
2349.65943	4144.7625
2352.49267	4146.2625
2355.32411	4138.6625
2358.15376	4133.0625
2360.98161	4122.6625
2363.80768	4135.8625
2366.63195	4132.1625
2369.45444	4118.3625
2372.27514	4123.9625
2375.09405	4124.9625
2377.91118	4106.1625
2380.72652	4091.1625
2383.54009	4095.1625
2386.35187	4085.7625
2389.16188	4071.0625
2391.97011	4064.2625
2394.77657	4051.2625
2397.58125	4045.9625
2400.38416	4036.1625
2403.18529	4029.9625
2405.98466	4015.5625
2408.78226	4007.3625
2411.57809	4000.5625
2414.37216	3986.7625
2417.16446	3980.2625
2419.955	3979.0625
2422.74378	3974.3625
2425.5308	3961.8625
2428.31606	3970.4625
2431.09956	3950.1625
2433.88131	3950.2625
2436.6613	3957.0625
2439.43954	3950.9625
2442.21603	3944.1625
2444.99077	3923.1625
2447.76377	3932.0625
2450.53501	3938.5625
2453.30451	3925.8625
2456.07226	3910.2625
2458.83827	3906.4625
2461.60254	3925.2625
2464.36507	3907.2625
2467.12586	3896.2625
2469.88492	3890.7625
2472.64224	3896.2625
2475.39782	3889.1625
2478.15167	3898.5625
2480.90379	3889.5625
2483.65417	3888.4625
2486.40283	3879.3625
2489.14976	3880.6625
2491.89497	3883.6625
2494.63845	3900.7625
2497.3802	3884.7625
2500.12024	3879.4625
2502.85855	3871.3625
2505.59514	3870.7625
2508.33002	3865.4625
2511.06318	3865.0625
2513.79462	3847.5625
2516.52435	3832.9625
2519.25237	3842.4625
2521.97867	3818.5625
2524.70327	3829.3625
2527.42616	3800.4625
2530.14734	3820.3625
2532.86681	3807.5625
2535.58458	3794.9625
2538.30065	3790.5625
2541.01501	3780.3625
2543.72768	3764.6625
2546.43864	3769.4625
2549.14791	3753.4625
2551.85548	3765.9625
2554.56136	3754.4625
2557.26554	3740.0625
2559.96803	3748.6625
2562.66883	3732.9625
2565.36794	3727.9625
2568.06536	3717.5625
2570.7611	3721.3625
2573.45514	3726.2625
2576.14751	3706.8625
2578.83819	3707.8625
2581.52719	3689.2625
2584.21451	3691.9625
2586.90015	3689.0625
2589.58411	3686.1625
2592.2664	3677.0625
2594.94701	3661.6625
2597.62594	3654.8625
2600.30321	3636.7625
2602.9788	3642.4625
2605.65273	3646.2625
2608.32498	3639.3625
2610.99557	3627.7625
2613.66449	3628.3625
2616.33175	3635.5625
2618.99734	3624.7625
2621.66128	3635.1625
2624.32355	3612.2625
2626.98416	3607.4625
2629.64311	3612.9625
2632.30041	3590.0625
2634.95605	3601.9625
2637.61004	3585.4625
2640.26238	3587.2625
2642.91306	3574.7625
2645.56209	3585.6625
2648.20948	3576.6625
2650.85521	3581.1625
2653.4993	3571.2625
2656.14175	3571.9625
2658.78255	3574.5625
2661.42171	3568.6625
2664.05923	3578.3625
2666.6951	3576.4625
2669.32934	3578.4625
2671.96194	3563.5625
2674.59291	3574.7625
2677.22224	3582.0625
2679.84993	3573.7625
2682.476	3569.3625
2685.10043	3557.2625
2687.72324	3568.8625
2690.34441	3559.6625
2692.96396	3571.4625
2695.58188	3574.2625
2698.19818	3565.8625
2700.81285	3575.3625
2703.4259	3580.1625
2706.03733	3591.9625
2708.64714	3591.1625
2711.25533	3583.7625
2713.86191	3563.9625
2716.46687	3574.7625
2719.07021	3568.6625
2721.67194	3581.9625
2724.27206	3558.6625
2726.87057	3566.8625
2729.46747	3557.6625
2732.06276	3569.4625
2734.65644	3568.1625
2737.24852	3561.9625
2739.83899	3560.4625
2742.42786	3554.7625
2745.01513	3539.9625
2747.60079	3541.8625
2750.18486	3540.4625
2752.76733	3544.4625
2755.3482	3540.8625
2757.92747	3536.5625
2760.50515	3527.7625
2763.08123	3520.2625
2765.65573	3514.0625
2768.22863	3518.7625
2770.79994	3505.1625
2773.36967	3511.7625
2775.9378	3510.6625
2778.50435	3496.3625
2781.06932	3505.3625
2783.6327	3511.8625
2786.1945	3497.9625
2788.75471	3487.1625
2791.31335	3493.1625
2793.87041	3477.0625
2796.42589	3447.3625
2798.97979	3451.6625
2801.53212	3442.7625
2804.08288	3461.3625
2806.63206	3449.6625
2809.17967	3439.0625
2811.72571	3431.4625
2814.27018	3436.4625
2816.81308	3421.7625
2819.35442	3423.4625
2821.89419	3400.9625
2824.43239	3398.2625
2826.96904	3396.4625
2829.50412	3406.2625
2832.03763	3405.9625
2834.56959	3401.5625
2837.1	3396.2625
2839.62884	3390.6625
2842.15613	3401.8625
2844.68186	3395.1625
2847.20604	3403.4625
2849.72867	3395.5625
2852.24974	3394.4625
2854.76927	3388.5625
2857.28724	3372.3625
2859.80367	3392.6625
2862.31855	3377.5625
2864.83189	3374.5625
2867.34368	3385.1625
2869.85393	3375.8625
2872.36264	3383.3625
2874.8698	3380.7625
2877.37543	3384.0625
2879.87952	3392.9625
2882.38207	3384.8625
2884.88308	3384.5625
2887.38256	3372.8625
2889.88051	3388.1625
2892.37692	3385.4625
2894.8718	3383.6625
2897.36515	3396.5625
2899.85698	3392.3625
2902.34727	3399.7625
2904.83604	3405.0625
2907.32328	3407.4625
2909.809	3404.0625
2912.29319	3409.1625
2914.77587	3410.1625
2917.25702	3402.0625
2919.73665	3403.1625
2922.21476	3411.2625
2924.69136	3396.8625
2927.16644	3415.0625
2929.64	3409.5625
2932.11205	3399.4625
2934.58258	3388.8625
2937.05161	3388.6625
2939.51912	3390.8625
2941.98513	3395.9625
2944.44962	3394.3625
2946.91261	3368.2625
2949.37409	3386.9625
2951.83407	3375.1625
2954.29254	3375.3625
2956.74951	3362.6625
2959.20498	3357.5625
2961.65895	3351.0625
2964.11142	3355.6625
2966.56239	3349.8625
2969.01186	3342.8625
2971.45984	3327.8625
2973.90632	3321.7625
2976.35131	3314.6625
2978.7948	3305.4625
2981.23681	3297.6625
2983.67732	3300.0625
2986.11635	3304.6625
2988.55388	3286.5625
2990.98993	3287.2625
2993.4245	3270.5625
2995.85758	3264.8625
2998.28917	3262.0625
3000.71928	3274.2625
3003.14791	3251.3625
3005.57506	3259.9625
3008.00073	3261.3625
3010.42493	3264.5625
3012.84764	3265.2625
3015.26888	3263.9625
3017.68865	3251.6625
3020.10694	3242.1625
3022.52376	3229.8625
3024.9391	3241.6625
3027.35298	3227.6625
3029.76539	3225.1625
3032.17632	3226.2625
3034.5858	3228.9625
3036.9938	3239.0625
3039.40034	3238.6625
3041.80542	3223.3625
3044.20903	3238.4625
3046.61118	3234.5625
3049.01187	3220.1625
3051.4111	3225.4625
3053.80888	3205.5625
3056.20519	3204.1625
3058.60005	3200.4625
3060.99345	3204.3625
3063.3854	3201.4625
3065.7759	3204.1625
3068.16494	3200.2625
3070.55254	3182.4625
3072.93868	3177.9625
3075.32338	3179.1625
3077.70662	3181.5625
3080.08842	3191.9625
3082.46878	3204.5625
3084.84769	3185.8625
3087.22515	3192.2625
3089.60118	3196.7625
3091.97576	3204.8625
3094.3489	3199.1625
3096.72061	3201.5625
3099.09087	3205.6625
3101.4597	3216.1625
3103.82709	3210.8625
3106.19305	3196.9625
3108.55757	3209.9625
3110.92066	3209.4625
3113.28232	3207.6625
3115.64255	3208.3625
3118.00134	3208.0625
3120.35871	3199.8625
3122.71466	3215.7625
3125.06917	3205.1625
3127.42226	3204.8625
3129.77393	3232.3625
3132.12417	3215.9625
3134.47299	3222.9625
3136.82039	3228.6625
3139.16636	3229.8625
3141.51092	3235.2625
3143.85406	3246.7625
3146.19579	3242.8625
3148.53609	3254.4625
3150.87499	3258.4625
3153.21246	3275.0625
3155.54853	3276.5625
3157.88318	3278.1625
3160.21642	3293.2625
3162.54826	3291.1625
3164.87868	3296.9625
3167.2077	3301.3625
3169.5353	3306.8625
3171.86151	3301.9625
3174.18631	3296.1625
3176.5097	3312.7625
3178.83169	3319.5625
3181.15228	3321.4625
3183.47147	3315.7625
3185.78926	3325.0625
3188.10565	3319.7625
3190.42065	3318.4625
3192.73424	3340.4625
3195.04645	3333.7625
3197.35725	3337.5625
3199.66667	3347.8625
3201.97469	3368.2625
3204.28132	3369.7625
3206.58656	3390.7625
3208.8904	3380.8625
3211.19287	3379.3625
3213.49394	3396.4625
3215.79363	3401.5625
3218.09193	3405.4625
3220.38884	3394.9625
3222.68438	3409.2625
3224.97853	3392.2625
3227.2713	3383.5625
3229.56269	3395.8625
3231.8527	3384.9625
3234.14133	3382.6625
3236.42858	3374.9625
3238.71446	3373.1625
3240.99896	3355.7625
3243.28209	3376.8625
3245.56384	3376.2625
3247.84423	3377.3625
3250.12324	3362.2625
3252.40088	3372.4625
3254.67715	3379.8625
3256.95205	3362.6625
3259.22558	3387.1625
3261.49775	3372.2625
3263.76855	3365.7625
3266.03799	3358.5625
3268.30606	3360.0625
3270.57277	3344.3625
3272.83812	3340.4625
3275.10211	3326.2625
3277.36474	3329.7625
3279.62601	3336.1625
3281.88593	3324.0625
3284.14448	3335.3625
3286.40168	3335.5625
3288.65753	3329.1625
3290.91202	3323.3625
3293.16516	3319.7625
3295.41695	3304.4625
3297.66738	3279.1625
3299.91647	3269.5625
3302.16421	3241.4625
3304.4106	3240.8625
3306.65564	3222.3625
3308.89933	3205.6625
3311.14169	3180.3625
3313.38269	3168.2625
3315.62236	3151.6625
3317.86068	3123.6625
3320.09766	3093.1625
3322.3333	3076.9625
3324.5676	3084.8625
3326.80056	3032.1625
3329.03219	3007.5625
3331.26248	0.9625
3333.49143	0.4625
3335.71905	-1.1375
