Data from AgNPs_FTO_APTES_UA_0.1mM_CRN_0uM_NaF_0.1M_Addition_RamanShift__13__10-17-47-463.txt Node

Date: Mon Dec 20 10:17:47 GMT 2021
User: TCL
Spectrometer: QEP01345
Trigger mode: 4
Integration Time (sec): 7.000000E0
Scans to average: 10
Electric dark correction enabled: true
Nonlinearity correction enabled: false
Boxcar width: 0
XAxis mode: Raman Shifts
Number of Pixels in Spectrum: 1044
>>>>>Begin Spectral Data<<<<<
46.04893	0.1625
50.45542	-0.1375
54.85868	-0.6375
59.25871	1.8625
63.6555	25.1625
68.04907	22.6625
72.43941	24.0625
76.82654	26.7625
81.21044	26.3625
85.59113	35.0625
89.96862	30.3625
94.34289	32.4625
98.71396	30.0625
103.08183	28.4625
107.4465	33.7625
111.80798	34.7625
116.16626	35.0625
120.52136	38.5625
124.87327	36.2625
129.222	35.1625
133.56755	34.5625
137.90993	42.7625
142.24913	40.1625
146.58517	38.9625
150.91804	45.7625
155.24774	50.7625
159.57429	56.6625
163.89768	70.7625
168.21792	89.8625
172.53501	105.6625
176.84895	145.0625
181.15975	199.2625
185.46741	266.4625
189.77193	369.1625
194.07331	490.6625
198.37157	640.9625
202.6667	795.8625
206.9587	962.7625
211.24758	1130.2625
215.53334	1293.8625
219.81599	1459.3625
224.09553	1628.5625
228.37195	1812.7625
232.64527	2023.2625
236.91549	2232.6625
241.18261	2419.4625
245.44663	2585.8625
249.70755	2725.8625
253.96539	2851.0625
258.22014	2943.4625
262.4718	3025.3625
266.72039	3003.1625
270.96589	3011.4625
275.20832	2966.9625
279.44768	2886.2625
283.68397	2791.3625
287.91719	2717.5625
292.14735	2639.1625
296.37445	2564.6625
300.59849	2538.0625
304.81948	2493.5625
309.03742	2470.1625
313.25231	2429.2625
317.46415	2384.2625
321.67296	2324.3625
325.87872	2279.6625
330.08145	2259.1625
334.28114	2248.3625
338.47781	2253.4625
342.67145	2263.4625
346.86207	2283.0625
351.04966	2306.6625
355.23424	2342.3625
359.4158	2388.3625
363.59435	2421.0625
367.76989	2446.4625
371.94243	2473.2625
376.11196	2486.4625
380.27849	2505.5625
384.44203	2511.8625
388.60257	2525.5625
392.76012	2535.6625
396.91468	2559.5625
401.06626	2566.8625
405.21485	2582.1625
409.36047	2578.3625
413.50311	2549.2625
417.64277	2518.9625
421.77947	2519.2625
425.9132	2489.7625
430.04396	2506.3625
434.17176	2509.9625
438.2966	2532.8625
442.41849	2557.3625
446.53742	2573.9625
450.6534	2584.1625
454.76644	2611.0625
458.87653	2628.0625
462.98368	2636.4625
467.08789	2623.6625
471.18916	2646.1625
475.2875	2644.5625
479.38291	2658.2625
483.4754	2664.0625
487.56496	2707.1625
491.6516	2738.7625
495.73531	2770.9625
499.81612	2770.2625
503.89401	2761.5625
507.96899	2749.7625
512.04106	2746.2625
516.11023	2753.1625
520.1765	2740.3625
524.23987	2739.0625
528.30034	2713.4625
532.35792	2719.4625
536.41261	2688.4625
540.46441	2686.7625
544.51333	2660.2625
548.55936	2660.7625
552.60252	2663.4625
556.64279	2661.9625
560.6802	2685.5625
564.71473	2682.3625
568.7464	2683.7625
572.7752	2691.8625
576.80114	2685.2625
580.82422	2678.3625
584.84444	2687.3625
588.86181	2719.5625
592.87633	2723.9625
596.888	2713.4625
600.89682	2730.1625
604.9028	2790.0625
608.90594	2965.2625
612.90624	3249.6625
616.90371	3280.3625
620.89834	3036.6625
624.89015	2951.1625
628.87913	3020.8625
632.86528	3147.0625
636.84862	3231.4625
640.82913	3233.7625
644.80683	3149.8625
648.78172	3034.8625
652.75379	2959.7625
656.72306	2952.1625
660.68952	2977.0625
664.65319	2984.4625
668.61405	3007.5625
672.57211	3039.4625
676.52738	3077.5625
680.47986	3125.0625
684.42955	3205.0625
688.37646	3262.7625
692.32058	3266.3625
696.26192	3177.1625
700.20048	3090.4625
704.13626	3039.6625
708.06928	3010.5625
711.99952	2982.7625
715.927	2913.6625
719.85171	2871.8625
723.77365	2833.5625
727.69284	2812.8625
731.60928	2798.0625
735.52295	2778.5625
739.43388	2770.2625
743.34206	2756.3625
747.24749	2748.5625
751.15017	2738.6625
755.05012	2757.6625
758.94733	2768.2625
762.8418	2819.7625
766.73354	2935.9625
770.62254	3052.8625
774.50882	3133.5625
778.39237	3111.1625
782.27321	2995.8625
786.15132	2883.0625
790.02671	2841.8625
793.89938	2854.4625
797.76935	2862.6625
801.6366	2895.9625
805.50115	2932.5625
809.36299	2973.8625
813.22213	2995.5625
817.07857	2941.0625
820.93231	2872.5625
824.78336	2814.1625
828.63172	2756.3625
832.47738	2715.8625
836.32036	2700.7625
840.16066	2703.6625
843.99827	2678.8625
847.8332	2672.0625
851.66546	2653.8625
855.49504	2653.3625
859.32195	2641.2625
863.1462	2626.3625
866.96777	2637.6625
870.78668	2641.5625
874.60293	2666.1625
878.41652	2676.9625
882.22745	2725.0625
886.03573	2762.5625
889.84136	2785.2625
893.64433	2786.7625
897.44466	2762.2625
901.24235	2736.6625
905.0374	2720.9625
908.8298	2729.4625
912.61957	2776.1625
916.40671	2810.7625
920.19121	2877.9625
923.97308	2938.2625
927.75233	2973.4625
931.52895	2971.6625
935.30295	2956.5625
939.07433	2906.4625
942.84309	2855.0625
946.60924	2822.2625
950.37278	2801.4625
954.13371	2787.1625
957.89203	2744.8625
961.64774	2690.0625
965.40086	2667.7625
969.15137	2638.4625
972.89929	2592.7625
976.64461	2580.1625
980.38733	2565.5625
984.12747	2545.6625
987.86502	2543.4625
991.59999	2546.5625
995.33237	2564.0625
999.06217	2579.7625
1002.78939	2611.2625
1006.51404	2628.3625
1010.23611	2656.7625
1013.95561	2686.4625
1017.67255	2687.9625
1021.38692	2708.2625
1025.09872	2688.1625
1028.80796	2679.0625
1032.51465	2649.0625
1036.21877	2624.4625
1039.92035	2601.4625
1043.61937	2571.3625
1047.31584	2561.9625
1051.00976	2529.4625
1054.70114	2527.9625
1058.38998	2530.1625
1062.07627	2523.7625
1065.76003	2535.0625
1069.44126	2534.9625
1073.11995	2531.2625
1076.79611	2538.3625
1080.46974	2533.2625
1084.14085	2526.6625
1087.80943	2498.4625
1091.47549	2506.4625
1095.13903	2478.6625
1098.80005	2467.5625
1102.45857	2443.8625
1106.11456	2441.6625
1109.76805	2453.3625
1113.41903	2484.0625
1117.06751	2551.5625
1120.71348	2648.9625
1124.35696	2760.2625
1127.99793	2902.2625
1131.63641	3031.9625
1135.2724	3071.2625
1138.90589	3052.3625
1142.5369	2967.9625
1146.16542	2866.9625
1149.79145	2738.2625
1153.415	2648.9625
1157.03607	2586.7625
1160.65467	2553.6625
1164.27079	2527.5625
1167.88443	2537.1625
1171.49561	2569.4625
1175.10432	2635.0625
1178.71056	2711.8625
1182.31434	2808.4625
1185.91565	2845.5625
1189.51451	2830.5625
1193.11091	2802.2625
1196.70485	2782.8625
1200.29634	2769.3625
1203.88538	2776.0625
1207.47197	2734.6625
1211.05612	2668.0625
1214.63782	2618.2625
1218.21708	2576.5625
1221.79391	2550.6625
1225.36829	2530.2625
1228.94024	2512.0625
1232.50976	2534.8625
1236.07685	2541.1625
1239.6415	2565.2625
1243.20374	2571.4625
1246.76355	2586.2625
1250.32093	2602.0625
1253.8759	2620.9625
1257.42845	2650.4625
1260.97859	2664.0625
1264.52631	2695.5625
1268.07163	2721.1625
1271.61453	2749.4625
1275.15503	2771.7625
1278.69312	2792.8625
1282.22882	2799.1625
1285.76211	2829.6625
1289.29301	2874.1625
1292.82151	2929.1625
1296.34761	2995.5625
1299.87133	3072.3625
1303.39266	3167.5625
1306.9116	3282.3625
1310.42815	3410.1625
1313.94233	3455.8625
1317.45412	3458.9625
1320.96354	3368.5625
1324.47058	3272.6625
1327.97525	3215.4625
1331.47754	3184.6625
1334.97747	3195.4625
1338.47502	3238.7625
1341.97022	3311.8625
1345.46305	3412.9625
1348.95352	3558.3625
1352.44163	3738.4625
1355.92738	3955.4625
1359.41078	4202.2625
1362.89183	4461.7625
1366.37053	4515.7625
1369.84688	4275.4625
1373.32088	3984.0625
1376.79254	3766.7625
1380.26186	3649.2625
1383.72883	3543.9625
1387.19347	3489.0625
1390.65578	3416.9625
1394.11575	3351.3625
1397.57339	3295.6625
1401.0287	3230.9625
1404.48168	3178.3625
1407.93234	3121.1625
1411.38068	3056.4625
1414.82669	3004.0625
1418.27039	2969.0625
1421.71177	2930.8625
1425.15083	2890.5625
1428.58758	2836.5625
1432.02203	2788.7625
1435.45416	2752.0625
1438.88399	2727.7625
1442.31151	2696.9625
1445.73673	2668.9625
1449.15965	2668.7625
1452.58027	2660.3625
1455.9986	2652.9625
1459.41463	2630.0625
1462.82837	2645.4625
1466.23982	2661.0625
1469.64898	2696.2625
1473.05586	2722.7625
1476.46045	2724.8625
1479.86276	2753.4625
1483.26279	2774.7625
1486.66054	2793.8625
1490.05602	2810.2625
1493.44922	2848.6625
1496.84016	2896.8625
1500.22882	2985.6625
1503.61521	3128.1625
1506.99934	3287.6625
1510.38121	3449.5625
1513.76081	3499.4625
1517.13816	3399.7625
1520.51324	3216.2625
1523.88607	3023.3625
1527.25665	2906.9625
1530.62498	2842.7625
1533.99105	2812.8625
1537.35488	2800.7625
1540.71647	2799.2625
1544.07581	2813.8625
1547.4329	2835.1625
1550.78776	2849.5625
1554.14038	2848.7625
1557.49077	2876.5625
1560.83892	2873.9625
1564.18484	2886.3625
1567.52853	2894.7625
1570.86999	2906.8625
1574.20922	2914.6625
1577.54624	2883.6625
1580.88103	2837.4625
1584.2136	2751.3625
1587.54395	2704.8625
1590.87208	2655.5625
1594.19801	2655.8625
1597.52172	2673.2625
1600.84321	2670.0625
1604.16251	2668.0625
1607.47959	2656.6625
1610.79447	2645.8625
1614.10715	2624.5625
1617.41763	2603.3625
1620.7259	2583.2625
1624.03199	2573.0625
1627.33587	2568.4625
1630.63757	2573.0625
1633.93707	2597.1625
1637.23439	2614.6625
1640.52951	2654.8625
1643.82246	2712.1625
1647.11321	2802.2625
1650.40179	2900.7625
1653.68819	2914.0625
1656.97241	2814.5625
1660.25446	2674.9625
1663.53433	2579.7625
1666.81203	2526.8625
1670.08756	2497.4625
1673.36092	2476.1625
1676.63211	2457.9625
1679.90115	2433.3625
1683.16801	2412.4625
1686.43272	2370.4625
1689.69527	2338.3625
1692.95567	2281.2625
1696.2139	2228.3625
1699.46999	2178.8625
1702.72392	2135.1625
1705.97571	2090.2625
1709.22535	2064.3625
1712.47284	2030.2625
1715.71819	1988.6625
1718.96139	1954.8625
1722.20246	1922.6625
1725.44139	1883.4625
1728.67818	1858.0625
1731.91284	1815.5625
1735.14537	1775.9625
1738.37576	1749.3625
1741.60403	1707.9625
1744.83017	1703.9625
1748.05418	1671.5625
1751.27607	1643.4625
1754.49584	1633.1625
1757.71349	1625.6625
1760.92903	1607.3625
1764.14244	1605.3625
1767.35375	1594.4625
1770.56294	1582.3625
1773.77002	1581.1625
1776.97499	1571.8625
1780.17785	1564.0625
1783.37861	1554.8625
1786.57727	1549.4625
1789.77382	1537.0625
1792.96828	1528.3625
1796.16064	1510.9625
1799.3509	1502.2625
1802.53907	1498.4625
1805.72514	1493.1625
1808.90913	1485.6625
1812.09102	1476.6625
1815.27083	1471.4625
1818.44856	1466.7625
1821.6242	1458.1625
1824.79776	1466.5625
1827.96924	1461.2625
1831.13864	1447.8625
1834.30597	1442.3625
1837.47122	1444.6625
1840.6344	1437.2625
1843.7955	1432.6625
1846.95454	1431.0625
1850.11151	1440.4625
1853.26642	1427.5625
1856.41926	1426.7625
1859.57004	1433.0625
1862.71876	1430.3625
1865.86542	1420.6625
1869.01003	1413.8625
1872.15258	1412.1625
1875.29308	1404.5625
1878.43152	1403.0625
1881.56792	1392.0625
1884.70227	1395.0625
1887.83457	1399.0625
1890.96482	1395.7625
1894.09304	1391.0625
1897.21921	1387.1625
1900.34335	1384.6625
1903.46544	1376.9625
1906.58551	1388.1625
1909.70353	1374.1625
1912.81953	1370.2625
1915.93349	1372.4625
1919.04543	1365.6625
1922.15534	1361.7625
1925.26322	1361.7625
1928.36908	1359.4625
1931.47292	1347.0625
1934.57473	1347.9625
1937.67453	1341.3625
1940.77232	1334.2625
1943.86808	1333.9625
1946.96184	1331.4625
1950.05358	1323.4625
1953.14331	1329.4625
1956.23103	1310.3625
1959.31675	1314.8625
1962.40046	1309.8625
1965.48217	1306.3625
1968.56188	1302.9625
1971.63959	1293.4625
1974.7153	1290.2625
1977.78901	1287.1625
1980.86073	1285.3625
1983.93046	1278.0625
1986.99819	1268.6625
1990.06394	1262.6625
1993.1277	1265.3625
1996.18947	1258.6625
1999.24925	1260.7625
2002.30706	1251.1625
2005.36288	1243.3625
2008.41672	1237.9625
2011.46859	1241.8625
2014.51848	1232.0625
2017.56639	1230.6625
2020.61233	1229.7625
2023.6563	1225.5625
2026.6983	1219.8625
2029.73833	1211.5625
2032.7764	1213.8625
2035.8125	1193.9625
2038.84664	1205.0625
2041.87881	1209.3625
2044.90903	1199.5625
2047.93729	1199.0625
2050.96359	1194.1625
2053.98794	1192.8625
2057.01034	1196.4625
2060.03078	1193.9625
2063.04927	1193.9625
2066.06582	1196.6625
2069.08042	1196.3625
2072.09307	1195.0625
2075.10378	1188.0625
2078.11255	1189.0625
2081.11938	1186.3625
2084.12426	1195.9625
2087.12722	1195.7625
2090.12824	1192.6625
2093.12732	1196.0625
2096.12447	1197.6625
2099.11969	1192.5625
2102.11299	1197.1625
2105.10435	1206.2625
2108.09379	1198.6625
2111.08131	1199.2625
2114.0669	1193.7625
2117.05057	1198.7625
2120.03233	1196.1625
2123.01216	1203.3625
2125.99008	1202.9625
2128.96609	1198.3625
2131.94018	1197.9625
2134.91236	1197.3625
2137.88263	1191.9625
2140.851	1192.9625
2143.81746	1190.1625
2146.78201	1189.9625
2149.74466	1183.0625
2152.7054	1181.8625
2155.66425	1180.5625
2158.6212	1182.4625
2161.57625	1168.5625
2164.52941	1163.8625
2167.48067	1167.0625
2170.43004	1168.0625
2173.37752	1166.7625
2176.32311	1152.6625
2179.26681	1163.7625
2182.20863	1158.5625
2185.14856	1164.2625
2188.08661	1148.6625
2191.02278	1148.8625
2193.95707	1148.9625
2196.88948	1144.8625
2199.82001	1149.3625
2202.74867	1139.3625
2205.67545	1139.7625
2208.60037	1139.0625
2211.52341	1131.9625
2214.44458	1128.6625
2217.36388	1126.7625
2220.28132	1129.7625
2223.1969	1124.8625
2226.11061	1119.0625
2229.02246	1110.9625
2231.93245	1111.4625
2234.84058	1111.8625
2237.74686	1103.2625
2240.65128	1101.8625
2243.55385	1100.6625
2246.45456	1094.2625
2249.35343	1102.1625
2252.25044	1091.7625
2255.14561	1087.1625
2258.03893	1090.7625
2260.93041	1085.7625
2263.82004	1077.6625
2266.70783	1079.3625
2269.59378	1082.2625
2272.4779	1069.6625
2275.36017	1072.8625
2278.24061	1064.6625
2281.11922	1071.4625
2283.996	1062.6625
2286.87094	1061.2625
2289.74405	1058.6625
2292.61534	1045.3625
2295.4848	1050.4625
2298.35243	1046.1625
2301.21824	1046.9625
2304.08223	1043.8625
2306.94439	1039.4625
2309.80474	1042.9625
2312.66327	1043.0625
2315.51999	1040.4625
2318.37489	1034.1625
2321.22797	1039.1625
2324.07925	1025.7625
2326.92871	1035.5625
2329.77637	1027.4625
2332.62222	1029.4625
2335.46626	1025.0625
2338.3085	1013.9625
2341.14893	1017.9625
2343.98756	1015.7625
2346.8244	1020.4625
2349.65943	1017.4625
2352.49267	1012.3625
2355.32411	1013.5625
2358.15376	1006.7625
2360.98161	1008.5625
2363.80768	1012.8625
2366.63195	1009.1625
2369.45444	1002.4625
2372.27514	1005.7625
2375.09405	1010.1625
2377.91118	1000.2625
2380.72652	997.5625
2383.54009	997.5625
2386.35187	993.9625
2389.16188	987.9625
2391.97011	991.2625
2394.77657	987.4625
2397.58125	980.4625
2400.38416	973.0625
2403.18529	974.6625
2405.98466	974.1625
2408.78226	977.2625
2411.57809	968.5625
2414.37216	957.9625
2417.16446	968.4625
2419.955	958.0625
2422.74378	958.3625
2425.5308	952.1625
2428.31606	952.1625
2431.09956	954.5625
2433.88131	958.1625
2436.6613	952.2625
2439.43954	946.0625
2442.21603	941.8625
2444.99077	941.3625
2447.76377	950.2625
2450.53501	946.1625
2453.30451	950.0625
2456.07226	943.9625
2458.83827	943.6625
2461.60254	942.0625
2464.36507	938.3625
2467.12586	932.0625
2469.88492	933.3625
2472.64224	931.9625
2475.39782	930.1625
2478.15167	929.1625
2480.90379	931.4625
2483.65417	923.3625
2486.40283	925.6625
2489.14976	923.0625
2491.89497	925.7625
2494.63845	929.1625
2497.3802	921.2625
2500.12024	910.0625
2502.85855	912.5625
2505.59514	916.3625
2508.33002	920.5625
2511.06318	905.7625
2513.79462	910.7625
2516.52435	904.3625
2519.25237	906.3625
2521.97867	895.6625
2524.70327	894.6625
2527.42616	899.5625
2530.14734	901.6625
2532.86681	888.0625
2535.58458	891.1625
2538.30065	895.5625
2541.01501	891.7625
2543.72768	890.3625
2546.43864	880.5625
2549.14791	886.7625
2551.85548	876.5625
2554.56136	877.0625
2557.26554	874.0625
2559.96803	871.6625
2562.66883	875.9625
2565.36794	873.7625
2568.06536	871.4625
2570.7611	870.3625
2573.45514	869.0625
2576.14751	866.2625
2578.83819	860.9625
2581.52719	860.7625
2584.21451	855.8625
2586.90015	853.0625
2589.58411	857.4625
2592.2664	852.5625
2594.94701	853.8625
2597.62594	853.6625
2600.30321	842.6625
2602.9788	846.1625
2605.65273	842.2625
2608.32498	840.9625
2610.99557	848.4625
2613.66449	836.2625
2616.33175	837.9625
2618.99734	839.1625
2621.66128	832.9625
2624.32355	834.3625
2626.98416	836.8625
2629.64311	834.5625
2632.30041	829.3625
2634.95605	834.4625
2637.61004	823.3625
2640.26238	829.7625
2642.91306	827.9625
2645.56209	822.5625
2648.20948	832.8625
2650.85521	829.2625
2653.4993	827.3625
2656.14175	831.5625
2658.78255	820.5625
2661.42171	823.1625
2664.05923	822.7625
2666.6951	823.8625
2669.32934	827.0625
2671.96194	819.4625
2674.59291	826.8625
2677.22224	821.1625
2679.84993	825.8625
2682.476	818.4625
2685.10043	827.9625
2687.72324	828.3625
2690.34441	827.2625
2692.96396	825.2625
2695.58188	829.8625
2698.19818	824.1625
2700.81285	828.6625
2703.4259	822.7625
2706.03733	817.1625
2708.64714	825.0625
2711.25533	825.6625
2713.86191	825.0625
2716.46687	829.4625
2719.07021	831.6625
2721.67194	830.2625
2724.27206	821.4625
2726.87057	834.6625
2729.46747	825.1625
2732.06276	819.6625
2734.65644	828.3625
2737.24852	819.3625
2739.83899	823.3625
2742.42786	822.9625
2745.01513	819.6625
2747.60079	819.5625
2750.18486	819.9625
2752.76733	820.1625
2755.3482	815.6625
2757.92747	820.7625
2760.50515	814.2625
2763.08123	815.4625
2765.65573	804.0625
2768.22863	805.5625
2770.79994	799.9625
2773.36967	808.4625
2775.9378	804.6625
2778.50435	792.4625
2781.06932	796.5625
2783.6327	801.5625
2786.1945	795.2625
2788.75471	786.1625
2791.31335	791.4625
2793.87041	792.2625
2796.42589	795.7625
2798.97979	784.5625
2801.53212	782.8625
2804.08288	781.5625
2806.63206	781.3625
2809.17967	776.1625
2811.72571	774.3625
2814.27018	778.0625
2816.81308	772.7625
2819.35442	774.8625
2821.89419	772.5625
2824.43239	775.7625
2826.96904	777.4625
2829.50412	761.7625
2832.03763	772.9625
2834.56959	774.2625
2837.1	765.4625
2839.62884	769.6625
2842.15613	768.4625
2844.68186	760.5625
2847.20604	775.1625
2849.72867	771.5625
2852.24974	775.4625
2854.76927	778.2625
2857.28724	768.4625
2859.80367	771.0625
2862.31855	777.3625
2864.83189	780.5625
2867.34368	783.2625
2869.85393	782.1625
2872.36264	782.2625
2874.8698	788.5625
2877.37543	794.7625
2879.87952	801.5625
2882.38207	795.7625
2884.88308	804.6625
2887.38256	799.9625
2889.88051	802.2625
2892.37692	808.7625
2894.8718	811.2625
2897.36515	823.1625
2899.85698	826.3625
2902.34727	828.7625
2904.83604	825.9625
2907.32328	841.0625
2909.809	842.6625
2912.29319	847.2625
2914.77587	852.3625
2917.25702	866.3625
2919.73665	862.5625
2922.21476	871.4625
2924.69136	868.3625
2927.16644	875.4625
2929.64	875.6625
2932.11205	883.9625
2934.58258	883.7625
2937.05161	889.2625
2939.51912	880.6625
2941.98513	881.0625
2944.44962	877.6625
2946.91261	869.3625
2949.37409	863.1625
2951.83407	862.9625
2954.29254	850.9625
2956.74951	838.1625
2959.20498	842.9625
2961.65895	824.7625
2964.11142	821.5625
2966.56239	812.2625
2969.01186	810.1625
2971.45984	806.4625
2973.90632	800.8625
2976.35131	792.0625
2978.7948	795.2625
2981.23681	785.5625
2983.67732	793.3625
2986.11635	788.2625
2988.55388	783.8625
2990.98993	779.1625
2993.4245	778.8625
2995.85758	772.8625
2998.28917	773.7625
3000.71928	773.5625
3003.14791	774.0625
3005.57506	769.6625
3008.00073	773.3625
3010.42493	773.9625
3012.84764	773.9625
3015.26888	774.9625
3017.68865	776.5625
3020.10694	776.0625
3022.52376	777.6625
3024.9391	777.0625
3027.35298	771.8625
3029.76539	775.4625
3032.17632	773.8625
3034.5858	780.5625
3036.9938	777.9625
3039.40034	779.0625
3041.80542	784.1625
3044.20903	786.2625
3046.61118	785.0625
3049.01187	778.1625
3051.4111	780.9625
3053.80888	786.1625
3056.20519	790.2625
3058.60005	785.1625
3060.99345	792.2625
3063.3854	786.7625
3065.7759	791.0625
3068.16494	795.6625
3070.55254	791.7625
3072.93868	794.5625
3075.32338	805.0625
3077.70662	800.0625
3080.08842	802.5625
3082.46878	813.9625
3084.84769	805.1625
3087.22515	814.2625
3089.60118	825.1625
3091.97576	815.4625
3094.3489	823.8625
3096.72061	823.0625
3099.09087	832.1625
3101.4597	839.8625
3103.82709	844.9625
3106.19305	837.5625
3108.55757	846.6625
3110.92066	845.0625
3113.28232	851.9625
3115.64255	852.1625
3118.00134	857.8625
3120.35871	858.4625
3122.71466	863.5625
3125.06917	865.4625
3127.42226	868.9625
3129.77393	874.3625
3132.12417	879.3625
3134.47299	889.6625
3136.82039	899.9625
3139.16636	894.5625
3141.51092	907.1625
3143.85406	902.8625
3146.19579	917.8625
3148.53609	919.9625
3150.87499	922.1625
3153.21246	926.3625
3155.54853	939.5625
3157.88318	945.0625
3160.21642	951.2625
3162.54826	953.6625
3164.87868	962.3625
3167.2077	963.0625
3169.5353	971.9625
3171.86151	970.5625
3174.18631	982.7625
3176.5097	981.9625
3178.83169	989.3625
3181.15228	994.8625
3183.47147	994.2625
3185.78926	998.1625
3188.10565	1005.9625
3190.42065	1012.2625
3192.73424	1016.6625
3195.04645	1019.6625
3197.35725	1015.5625
3199.66667	1025.2625
3201.97469	1033.6625
3204.28132	1042.9625
3206.58656	1042.0625
3208.8904	1044.6625
3211.19287	1053.6625
3213.49394	1057.7625
3215.79363	1059.2625
3218.09193	1055.9625
3220.38884	1054.3625
3222.68438	1066.9625
3224.97853	1065.3625
3227.2713	1069.3625
3229.56269	1066.6625
3231.8527	1071.5625
3234.14133	1064.9625
3236.42858	1063.1625
3238.71446	1067.9625
3240.99896	1067.0625
3243.28209	1068.8625
3245.56384	1068.4625
3247.84423	1073.0625
3250.12324	1077.0625
3252.40088	1076.0625
3254.67715	1073.4625
3256.95205	1072.7625
3259.22558	1071.7625
3261.49775	1069.5625
3263.76855	1074.9625
3266.03799	1070.6625
3268.30606	1080.1625
3270.57277	1069.0625
3272.83812	1064.5625
3275.10211	1066.4625
3277.36474	1075.5625
3279.62601	1072.6625
3281.88593	1065.4625
3284.14448	1077.1625
3286.40168	1071.5625
3288.65753	1065.0625
3290.91202	1068.1625
3293.16516	1064.4625
3295.41695	1056.3625
3297.66738	1062.9625
3299.91647	1049.2625
3302.16421	1044.7625
3304.4106	1048.1625
3306.65564	1043.3625
3308.89933	1041.8625
3311.14169	1025.8625
3313.38269	1024.5625
3315.62236	1024.3625
3317.86068	1017.3625
3320.09766	1007.5625
3322.3333	1005.6625
3324.5676	1008.2625
3326.80056	974.6625
3329.03219	975.5625
3331.26248	-0.3375
3333.49143	-0.2375
3335.71905	-0.9375
