Data from AgNPs_FTO_APTES_UA_0.1mM_CRN_200uM_NaF_0.1M_Addition_RamanShift__4__13-59-27-714.txt Node

Date: Mon Dec 20 13:59:27 GMT 2021
User: TCL
Spectrometer: QEP01345
Trigger mode: 4
Integration Time (sec): 7.000000E0
Scans to average: 10
Electric dark correction enabled: true
Nonlinearity correction enabled: false
Boxcar width: 0
XAxis mode: Raman Shifts
Number of Pixels in Spectrum: 1044
>>>>>Begin Spectral Data<<<<<
46.04893	-0.0375
50.45542	1.0625
54.85868	-1.8375
59.25871	0.1625
63.6555	25.8625
68.04907	27.5625
72.43941	33.8625
76.82654	33.9625
81.21044	36.9625
85.59113	38.1625
89.96862	34.4625
94.34289	37.8625
98.71396	40.3625
103.08183	39.7625
107.4465	41.8625
111.80798	42.4625
116.16626	46.9625
120.52136	48.8625
124.87327	45.8625
129.222	46.3625
133.56755	47.2625
137.90993	52.9625
142.24913	49.8625
146.58517	55.3625
150.91804	66.1625
155.24774	76.8625
159.57429	88.8625
163.89768	109.1625
168.21792	145.2625
172.53501	181.9625
176.84895	249.4625
181.15975	338.9625
185.46741	470.5625
189.77193	649.0625
194.07331	861.0625
198.37157	1110.9625
202.6667	1376.6625
206.9587	1650.9625
211.24758	1916.7625
215.53334	2188.3625
219.81599	2474.0625
224.09553	2794.0625
228.37195	3158.9625
232.64527	3532.9625
236.91549	3910.7625
241.18261	4278.3625
245.44663	4604.6625
249.70755	4885.8625
253.96539	5089.3625
258.22014	5253.7625
262.4718	5350.2625
266.72039	5410.4625
270.96589	5408.2625
275.20832	5360.6625
279.44768	5284.7625
283.68397	5221.6625
287.91719	5149.2625
292.14735	5068.7625
296.37445	5039.4625
300.59849	5008.0625
304.81948	4980.0625
309.03742	4952.8625
313.25231	4899.8625
317.46415	4845.1625
321.67296	4755.1625
325.87872	4694.9625
330.08145	4644.3625
334.28114	4643.5625
338.47781	4643.3625
342.67145	4678.4625
346.86207	4718.1625
351.04966	4759.3625
355.23424	4814.4625
359.4158	4879.5625
363.59435	4921.6625
367.76989	4982.5625
371.94243	5053.6625
376.11196	5083.9625
380.27849	5142.5625
384.44203	5206.2625
388.60257	5248.1625
392.76012	5291.9625
396.91468	5330.3625
401.06626	5387.5625
405.21485	5428.1625
409.36047	5427.4625
413.50311	5403.3625
417.64277	5381.7625
421.77947	5363.4625
425.9132	5361.2625
430.04396	5366.5625
434.17176	5392.6625
438.2966	5420.2625
442.41849	5429.8625
446.53742	5505.2625
450.6534	5559.3625
454.76644	5620.0625
458.87653	5631.8625
462.98368	5659.7625
467.08789	5659.4625
471.18916	5693.1625
475.2875	5708.9625
479.38291	5765.7625
483.4754	5848.5625
487.56496	5976.5625
491.6516	6113.8625
495.73531	6229.6625
499.81612	6260.8625
503.89401	6195.2625
507.96899	6069.3625
512.04106	5992.8625
516.11023	5957.6625
520.1765	5949.9625
524.23987	5969.6625
528.30034	6011.9625
532.35792	6039.5625
536.41261	6018.5625
540.46441	5939.9625
544.51333	5855.5625
548.55936	5787.7625
552.60252	5747.5625
556.64279	5743.8625
560.6802	5720.7625
564.71473	5714.5625
568.7464	5758.0625
572.7752	5819.1625
576.80114	5857.4625
580.82422	5922.5625
584.84444	6056.7625
588.86181	6188.6625
592.87633	6283.1625
596.888	6267.8625
600.89682	6196.0625
604.9028	6223.2625
608.90594	6428.3625
612.90624	6747.9625
616.90371	6799.1625
620.89834	6655.1625
624.89015	6841.5625
628.87913	7334.9625
632.86528	7909.4625
636.84862	8333.6625
640.82913	8316.4625
644.80683	7978.9625
648.78172	7453.9625
652.75379	7005.0625
656.72306	6653.5625
660.68952	6445.2625
664.65319	6280.3625
668.61405	6165.3625
672.57211	6164.7625
676.52738	6171.1625
680.47986	6195.4625
684.42955	6200.5625
688.37646	6155.0625
692.32058	6092.2625
696.26192	5998.6625
700.20048	5956.0625
704.13626	5903.4625
708.06928	5889.9625
711.99952	5883.3625
715.927	5870.3625
719.85171	5937.6625
723.77365	6022.9625
727.69284	6053.0625
731.60928	6014.5625
735.52295	5922.6625
739.43388	5834.8625
743.34206	5803.8625
747.24749	5815.9625
751.15017	5796.1625
755.05012	5820.8625
758.94733	5876.5625
762.8418	5979.0625
766.73354	6128.8625
770.62254	6256.1625
774.50882	6284.1625
778.39237	6206.8625
782.27321	6006.3625
786.15132	5840.2625
790.02671	5780.6625
793.89938	5753.2625
797.76935	5758.5625
801.6366	5832.5625
805.50115	6003.0625
809.36299	6246.9625
813.22213	6396.3625
817.07857	6371.2625
820.93231	6185.6625
824.78336	5972.6625
828.63172	5752.9625
832.47738	5608.6625
836.32036	5554.3625
840.16066	5528.3625
843.99827	5513.0625
847.8332	5525.2625
851.66546	5500.8625
855.49504	5505.5625
859.32195	5521.2625
863.1462	5544.7625
866.96777	5596.0625
870.78668	5689.2625
874.60293	5842.2625
878.41652	5983.0625
882.22745	6140.7625
886.03573	6256.9625
889.84136	6310.1625
893.64433	6254.7625
897.44466	6068.2625
901.24235	5842.1625
905.0374	5625.8625
908.8298	5478.5625
912.61957	5411.5625
916.40671	5371.0625
920.19121	5368.7625
923.97308	5337.5625
927.75233	5340.8625
931.52895	5316.5625
935.30295	5307.1625
939.07433	5260.4625
942.84309	5235.4625
946.60924	5209.4625
950.37278	5193.1625
954.13371	5202.2625
957.89203	5188.4625
961.64774	5169.8625
965.40086	5161.7625
969.15137	5152.8625
972.89929	5128.1625
976.64461	5113.8625
980.38733	5101.3625
984.12747	5090.9625
987.86502	5113.9625
991.59999	5135.6625
995.33237	5188.8625
999.06217	5244.9625
1002.78939	5330.9625
1006.51404	5413.6625
1010.23611	5497.2625
1013.95561	5548.5625
1017.67255	5607.7625
1021.38692	5591.4625
1025.09872	5554.2625
1028.80796	5495.0625
1032.51465	5425.0625
1036.21877	5351.8625
1039.92035	5297.9625
1043.61937	5258.8625
1047.31584	5249.4625
1051.00976	5242.5625
1054.70114	5281.5625
1058.38998	5299.4625
1062.07627	5367.7625
1065.76003	5455.7625
1069.44126	5513.1625
1073.11995	5603.9625
1076.79611	5631.9625
1080.46974	5607.8625
1084.14085	5543.7625
1087.80943	5470.7625
1091.47549	5397.3625
1095.13903	5347.2625
1098.80005	5308.2625
1102.45857	5279.7625
1106.11456	5264.8625
1109.76805	5330.5625
1113.41903	5435.0625
1117.06751	5640.8625
1120.71348	6006.8625
1124.35696	6473.2625
1127.99793	7010.2625
1131.63641	7519.6625
1135.2724	7751.9625
1138.90589	7722.7625
1142.5369	7434.7625
1146.16542	6982.3625
1149.79145	6548.3625
1153.415	6120.1625
1157.03607	5803.1625
1160.65467	5621.8625
1164.27079	5506.5625
1167.88443	5505.3625
1171.49561	5568.7625
1175.10432	5712.0625
1178.71056	5885.1625
1182.31434	6072.6625
1185.91565	6198.9625
1189.51451	6277.4625
1193.11091	6331.3625
1196.70485	6410.9625
1200.29634	6485.3625
1203.88538	6555.6625
1207.47197	6550.3625
1211.05612	6437.2625
1214.63782	6273.8625
1218.21708	6100.0625
1221.79391	5891.1625
1225.36829	5750.2625
1228.94024	5629.3625
1232.50976	5548.1625
1236.07685	5512.5625
1239.6415	5516.5625
1243.20374	5533.7625
1246.76355	5565.4625
1250.32093	5600.4625
1253.8759	5662.4625
1257.42845	5745.2625
1260.97859	5800.1625
1264.52631	5845.9625
1268.07163	5888.5625
1271.61453	5907.9625
1275.15503	5927.9625
1278.69312	5922.6625
1282.22882	5897.5625
1285.76211	5943.6625
1289.29301	5950.7625
1292.82151	6006.3625
1296.34761	6115.0625
1299.87133	6238.8625
1303.39266	6386.6625
1306.9116	6541.9625
1310.42815	6724.9625
1313.94233	6860.1625
1317.45412	6904.7625
1320.96354	6881.1625
1324.47058	6831.7625
1327.97525	6827.5625
1331.47754	6822.1625
1334.97747	6814.3625
1338.47502	6861.6625
1341.97022	6952.9625
1345.46305	7040.6625
1348.95352	7154.4625
1352.44163	7290.6625
1355.92738	7455.7625
1359.41078	7699.7625
1362.89183	7942.5625
1366.37053	7942.6625
1369.84688	7670.2625
1373.32088	7298.8625
1376.79254	6988.0625
1380.26186	6787.0625
1383.72883	6639.6625
1387.19347	6529.7625
1390.65578	6385.0625
1394.11575	6277.4625
1397.57339	6168.5625
1401.0287	6100.2625
1404.48168	6025.4625
1407.93234	5922.5625
1411.38068	5799.7625
1414.82669	5657.1625
1418.27039	5533.3625
1421.71177	5406.0625
1425.15083	5279.5625
1428.58758	5203.5625
1432.02203	5171.6625
1435.45416	5161.4625
1438.88399	5169.1625
1442.31151	5171.7625
1445.73673	5191.4625
1449.15965	5186.7625
1452.58027	5182.7625
1455.9986	5201.2625
1459.41463	5215.4625
1462.82837	5246.3625
1466.23982	5273.3625
1469.64898	5313.4625
1473.05586	5331.7625
1476.46045	5360.0625
1479.86276	5387.0625
1483.26279	5409.6625
1486.66054	5445.1625
1490.05602	5509.9625
1493.44922	5612.2625
1496.84016	5743.7625
1500.22882	5890.3625
1503.61521	6092.3625
1506.99934	6312.3625
1510.38121	6477.9625
1513.76081	6517.8625
1517.13816	6395.9625
1520.51324	6182.9625
1523.88607	6013.1625
1527.25665	5918.8625
1530.62498	5884.4625
1533.99105	5922.1625
1537.35488	5937.0625
1540.71647	5967.4625
1544.07581	5971.0625
1547.4329	6014.5625
1550.78776	6013.1625
1554.14038	6010.2625
1557.49077	6032.5625
1560.83892	6045.0625
1564.18484	6055.8625
1567.52853	6069.3625
1570.86999	6101.4625
1574.20922	6132.8625
1577.54624	6152.0625
1580.88103	6135.0625
1584.2136	6061.0625
1587.54395	5997.3625
1590.87208	5982.3625
1594.19801	6009.0625
1597.52172	6092.4625
1600.84321	6114.3625
1604.16251	6069.0625
1607.47959	5996.2625
1610.79447	5903.1625
1614.10715	5812.7625
1617.41763	5757.8625
1620.7259	5702.4625
1624.03199	5726.2625
1627.33587	5749.7625
1630.63757	5809.8625
1633.93707	5968.8625
1637.23439	6135.8625
1640.52951	6399.1625
1643.82246	6699.3625
1647.11321	7011.5625
1650.40179	7172.3625
1653.68819	7126.8625
1656.97241	6892.9625
1660.25446	6579.0625
1663.53433	6339.9625
1666.81203	6154.3625
1670.08756	6017.5625
1673.36092	5952.8625
1676.63211	5918.9625
1679.90115	5894.7625
1683.16801	5824.9625
1686.43272	5758.2625
1689.69527	5670.2625
1692.95567	5571.0625
1696.2139	5501.5625
1699.46999	5388.2625
1702.72392	5268.0625
1705.97571	5138.5625
1709.22535	4966.1625
1712.47284	4808.0625
1715.71819	4676.5625
1718.96139	4572.9625
1722.20246	4479.3625
1725.44139	4394.2625
1728.67818	4336.0625
1731.91284	4269.5625
1735.14537	4216.8625
1738.37576	4164.0625
1741.60403	4143.0625
1744.83017	4115.9625
1748.05418	4088.6625
1751.27607	4079.6625
1754.49584	4084.8625
1757.71349	4064.1625
1760.92903	4052.1625
1764.14244	4056.3625
1767.35375	4025.4625
1770.56294	4028.6625
1773.77002	3999.4625
1776.97499	3985.8625
1780.17785	3967.9625
1783.37861	3951.3625
1786.57727	3927.5625
1789.77382	3908.1625
1792.96828	3889.7625
1796.16064	3873.7625
1799.3509	3865.5625
1802.53907	3834.9625
1805.72514	3829.8625
1808.90913	3818.6625
1812.09102	3824.2625
1815.27083	3813.8625
1818.44856	3798.9625
1821.6242	3788.8625
1824.79776	3771.9625
1827.96924	3777.3625
1831.13864	3755.7625
1834.30597	3750.8625
1837.47122	3751.3625
1840.6344	3737.7625
1843.7955	3736.5625
1846.95454	3736.3625
1850.11151	3741.7625
1853.26642	3730.7625
1856.41926	3717.9625
1859.57004	3705.6625
1862.71876	3709.9625
1865.86542	3710.0625
1869.01003	3692.1625
1872.15258	3691.0625
1875.29308	3696.0625
1878.43152	3674.3625
1881.56792	3681.3625
1884.70227	3661.2625
1887.83457	3668.1625
1890.96482	3640.2625
1894.09304	3649.5625
1897.21921	3627.7625
1900.34335	3638.4625
1903.46544	3622.8625
1906.58551	3635.6625
1909.70353	3621.4625
1912.81953	3620.5625
1915.93349	3605.4625
1919.04543	3602.0625
1922.15534	3597.4625
1925.26322	3588.4625
1928.36908	3573.6625
1931.47292	3573.2625
1934.57473	3551.6625
1937.67453	3550.5625
1940.77232	3547.7625
1943.86808	3534.1625
1946.96184	3517.3625
1950.05358	3510.2625
1953.14331	3499.4625
1956.23103	3501.4625
1959.31675	3490.1625
1962.40046	3463.8625
1965.48217	3464.5625
1968.56188	3461.7625
1971.63959	3442.8625
1974.7153	3419.2625
1977.78901	3422.9625
1980.86073	3391.4625
1983.93046	3402.8625
1986.99819	3384.3625
1990.06394	3376.8625
1993.1277	3368.0625
1996.18947	3358.4625
1999.24925	3351.5625
2002.30706	3340.7625
2005.36288	3329.6625
2008.41672	3320.5625
2011.46859	3301.6625
2014.51848	3287.6625
2017.56639	3287.8625
2020.61233	3267.9625
2023.6563	3257.9625
2026.6983	3250.9625
2029.73833	3241.7625
2032.7764	3236.1625
2035.8125	3232.5625
2038.84664	3226.1625
2041.87881	3226.8625
2044.90903	3214.6625
2047.93729	3214.1625
2050.96359	3215.0625
2053.98794	3202.8625
2057.01034	3194.5625
2060.03078	3188.5625
2063.04927	3184.2625
2066.06582	3177.8625
2069.08042	3181.9625
2072.09307	3182.1625
2075.10378	3170.1625
2078.11255	3163.3625
2081.11938	3178.5625
2084.12426	3186.3625
2087.12722	3177.9625
2090.12824	3166.7625
2093.12732	3171.3625
2096.12447	3164.8625
2099.11969	3158.7625
2102.11299	3173.6625
2105.10435	3179.3625
2108.09379	3163.1625
2111.08131	3149.9625
2114.0669	3186.7625
2117.05057	3178.8625
2120.03233	3175.7625
2123.01216	3180.8625
2125.99008	3187.7625
2128.96609	3164.5625
2131.94018	3174.9625
2134.91236	3190.1625
2137.88263	3172.8625
2140.851	3178.9625
2143.81746	3184.3625
2146.78201	3168.4625
2149.74466	3186.6625
2152.7054	3173.1625
2155.66425	3181.2625
2158.6212	3178.9625
2161.57625	3184.1625
2164.52941	3171.5625
2167.48067	3166.4625
2170.43004	3174.9625
2173.37752	3168.4625
2176.32311	3165.8625
2179.26681	3144.0625
2182.20863	3156.7625
2185.14856	3161.6625
2188.08661	3166.3625
2191.02278	3159.4625
2193.95707	3149.1625
2196.88948	3159.6625
2199.82001	3147.9625
2202.74867	3141.8625
2205.67545	3134.1625
2208.60037	3129.4625
2211.52341	3118.7625
2214.44458	3116.3625
2217.36388	3111.6625
2220.28132	3100.9625
2223.1969	3089.0625
2226.11061	3090.7625
2229.02246	3070.3625
2231.93245	3081.2625
2234.84058	3052.1625
2237.74686	3063.9625
2240.65128	3052.8625
2243.55385	3055.6625
2246.45456	3054.2625
2249.35343	3051.0625
2252.25044	3041.9625
2255.14561	3032.6625
2258.03893	3030.4625
2260.93041	3037.2625
2263.82004	3026.1625
2266.70783	3015.1625
2269.59378	2992.7625
2272.4779	2998.7625
2275.36017	2996.1625
2278.24061	2976.3625
2281.11922	2976.5625
2283.996	2965.2625
2286.87094	2968.1625
2289.74405	2961.2625
2292.61534	2946.5625
2295.4848	2949.1625
2298.35243	2951.8625
2301.21824	2939.4625
2304.08223	2928.6625
2306.94439	2936.1625
2309.80474	2939.8625
2312.66327	2923.6625
2315.51999	2923.3625
2318.37489	2915.3625
2321.22797	2909.2625
2324.07925	2919.6625
2326.92871	2901.2625
2329.77637	2908.0625
2332.62222	2899.4625
2335.46626	2889.4625
2338.3085	2881.9625
2341.14893	2879.4625
2343.98756	2867.0625
2346.8244	2871.4625
2349.65943	2869.2625
2352.49267	2874.9625
2355.32411	2857.5625
2358.15376	2848.8625
2360.98161	2856.9625
2363.80768	2850.3625
2366.63195	2845.0625
2369.45444	2841.4625
2372.27514	2848.3625
2375.09405	2850.1625
2377.91118	2831.1625
2380.72652	2828.1625
2383.54009	2830.8625
2386.35187	2821.8625
2389.16188	2807.2625
2391.97011	2805.5625
2394.77657	2810.1625
2397.58125	2801.3625
2400.38416	2789.2625
2403.18529	2788.9625
2405.98466	2801.9625
2408.78226	2778.8625
2411.57809	2773.8625
2414.37216	2761.0625
2417.16446	2765.0625
2419.955	2751.4625
2422.74378	2758.6625
2425.5308	2754.2625
2428.31606	2742.8625
2431.09956	2743.2625
2433.88131	2735.3625
2436.6613	2744.0625
2439.43954	2719.8625
2442.21603	2726.1625
2444.99077	2713.8625
2447.76377	2728.9625
2450.53501	2721.3625
2453.30451	2715.3625
2456.07226	2719.2625
2458.83827	2703.2625
2461.60254	2690.9625
2464.36507	2702.5625
2467.12586	2702.1625
2469.88492	2686.3625
2472.64224	2691.8625
2475.39782	2690.8625
2478.15167	2687.2625
2480.90379	2678.3625
2483.65417	2686.1625
2486.40283	2675.4625
2489.14976	2680.6625
2491.89497	2673.9625
2494.63845	2682.2625
2497.3802	2663.3625
2500.12024	2667.8625
2502.85855	2665.8625
2505.59514	2669.3625
2508.33002	2659.2625
2511.06318	2647.6625
2513.79462	2653.5625
2516.52435	2636.4625
2519.25237	2647.0625
2521.97867	2632.9625
2524.70327	2641.0625
2527.42616	2636.4625
2530.14734	2629.7625
2532.86681	2625.4625
2535.58458	2621.4625
2538.30065	2605.0625
2541.01501	2618.0625
2543.72768	2604.9625
2546.43864	2609.5625
2549.14791	2592.6625
2551.85548	2581.8625
2554.56136	2568.3625
2557.26554	2577.8625
2559.96803	2568.6625
2562.66883	2565.6625
2565.36794	2555.7625
2568.06536	2554.7625
2570.7611	2564.9625
2573.45514	2549.7625
2576.14751	2551.4625
2578.83819	2545.0625
2581.52719	2553.7625
2584.21451	2531.4625
2586.90015	2529.8625
2589.58411	2528.1625
2592.2664	2518.4625
2594.94701	2516.9625
2597.62594	2512.1625
2600.30321	2495.5625
2602.9788	2490.3625
2605.65273	2501.0625
2608.32498	2493.3625
2610.99557	2475.1625
2613.66449	2483.2625
2616.33175	2473.0625
2618.99734	2476.8625
2621.66128	2472.4625
2624.32355	2468.7625
2626.98416	2476.2625
2629.64311	2464.9625
2632.30041	2462.0625
2634.95605	2455.4625
2637.61004	2446.2625
2640.26238	2441.8625
2642.91306	2440.7625
2645.56209	2452.6625
2648.20948	2433.8625
2650.85521	2438.6625
2653.4993	2442.3625
2656.14175	2441.4625
2658.78255	2430.1625
2661.42171	2434.1625
2664.05923	2430.5625
2666.6951	2443.2625
2669.32934	2434.3625
2671.96194	2431.2625
2674.59291	2433.6625
2677.22224	2436.7625
2679.84993	2434.3625
2682.476	2435.1625
2685.10043	2425.8625
2687.72324	2430.0625
2690.34441	2420.2625
2692.96396	2430.5625
2695.58188	2438.1625
2698.19818	2427.7625
2700.81285	2441.8625
2703.4259	2447.5625
2706.03733	2463.3625
2708.64714	2454.3625
2711.25533	2438.2625
2713.86191	2447.0625
2716.46687	2435.8625
2719.07021	2436.2625
2721.67194	2442.3625
2724.27206	2423.2625
2726.87057	2435.8625
2729.46747	2442.1625
2732.06276	2430.0625
2734.65644	2439.3625
2737.24852	2427.5625
2739.83899	2428.8625
2742.42786	2423.4625
2745.01513	2411.3625
2747.60079	2423.3625
2750.18486	2412.2625
2752.76733	2407.5625
2755.3482	2411.8625
2757.92747	2419.1625
2760.50515	2403.7625
2763.08123	2389.9625
2765.65573	2391.5625
2768.22863	2392.7625
2770.79994	2388.3625
2773.36967	2385.1625
2775.9378	2380.4625
2778.50435	2386.5625
2781.06932	2373.9625
2783.6327	2379.8625
2786.1945	2381.0625
2788.75471	2365.4625
2791.31335	2359.5625
2793.87041	2350.8625
2796.42589	2339.7625
2798.97979	2348.4625
2801.53212	2340.1625
2804.08288	2333.7625
2806.63206	2330.3625
2809.17967	2322.9625
2811.72571	2327.4625
2814.27018	2312.6625
2816.81308	2317.8625
2819.35442	2308.3625
2821.89419	2304.7625
2824.43239	2295.0625
2826.96904	2306.1625
2829.50412	2303.2625
2832.03763	2297.9625
2834.56959	2310.5625
2837.1	2293.9625
2839.62884	2292.8625
2842.15613	2301.4625
2844.68186	2301.0625
2847.20604	2307.9625
2849.72867	2300.9625
2852.24974	2302.4625
2854.76927	2307.2625
2857.28724	2292.7625
2859.80367	2306.2625
2862.31855	2295.0625
2864.83189	2300.8625
2867.34368	2292.3625
2869.85393	2292.5625
2872.36264	2284.4625
2874.8698	2296.1625
2877.37543	2293.3625
2879.87952	2290.8625
2882.38207	2301.3625
2884.88308	2292.5625
2887.38256	2295.7625
2889.88051	2311.6625
2892.37692	2305.3625
2894.8718	2296.3625
2897.36515	2314.6625
2899.85698	2303.3625
2902.34727	2313.1625
2904.83604	2320.9625
2907.32328	2322.2625
2909.809	2322.5625
2912.29319	2302.9625
2914.77587	2320.0625
2917.25702	2314.4625
2919.73665	2321.3625
2922.21476	2320.7625
2924.69136	2317.9625
2927.16644	2335.0625
2929.64	2324.8625
2932.11205	2337.8625
2934.58258	2333.2625
2937.05161	2332.5625
2939.51912	2332.1625
2941.98513	2327.2625
2944.44962	2333.4625
2946.91261	2326.1625
2949.37409	2322.3625
2951.83407	2323.1625
2954.29254	2327.9625
2956.74951	2317.3625
2959.20498	2312.8625
2961.65895	2305.0625
2964.11142	2306.0625
2966.56239	2299.2625
2969.01186	2307.9625
2971.45984	2294.0625
2973.90632	2294.5625
2976.35131	2285.7625
2978.7948	2281.5625
2981.23681	2269.4625
2983.67732	2271.3625
2986.11635	2264.6625
2988.55388	2262.1625
2990.98993	2269.2625
2993.4245	2264.6625
2995.85758	2246.2625
2998.28917	2247.9625
3000.71928	2245.8625
3003.14791	2256.2625
3005.57506	2250.3625
3008.00073	2242.0625
3010.42493	2257.5625
3012.84764	2251.6625
3015.26888	2252.8625
3017.68865	2250.1625
3020.10694	2246.7625
3022.52376	2244.2625
3024.9391	2257.0625
3027.35298	2254.6625
3029.76539	2252.8625
3032.17632	2262.0625
3034.5858	2258.7625
3036.9938	2252.6625
3039.40034	2249.7625
3041.80542	2244.1625
3044.20903	2244.6625
3046.61118	2257.3625
3049.01187	2235.3625
3051.4111	2249.9625
3053.80888	2247.5625
3056.20519	2255.0625
3058.60005	2240.3625
3060.99345	2256.3625
3063.3854	2247.2625
3065.7759	2234.2625
3068.16494	2252.8625
3070.55254	2252.9625
3072.93868	2248.8625
3075.32338	2254.5625
3077.70662	2252.9625
3080.08842	2258.0625
3082.46878	2259.0625
3084.84769	2266.8625
3087.22515	2266.8625
3089.60118	2260.4625
3091.97576	2268.2625
3094.3489	2277.7625
3096.72061	2289.5625
3099.09087	2286.3625
3101.4597	2285.9625
3103.82709	2296.2625
3106.19305	2296.1625
3108.55757	2302.8625
3110.92066	2300.3625
3113.28232	2298.6625
3115.64255	2304.8625
3118.00134	2301.5625
3120.35871	2303.7625
3122.71466	2301.5625
3125.06917	2315.8625
3127.42226	2318.2625
3129.77393	2316.9625
3132.12417	2329.4625
3134.47299	2334.3625
3136.82039	2334.9625
3139.16636	2338.2625
3141.51092	2354.1625
3143.85406	2371.3625
3146.19579	2372.6625
3148.53609	2374.2625
3150.87499	2388.7625
3153.21246	2390.4625
3155.54853	2399.6625
3157.88318	2418.9625
3160.21642	2420.6625
3162.54826	2425.6625
3164.87868	2430.0625
3167.2077	2421.7625
3169.5353	2442.0625
3171.86151	2444.2625
3174.18631	2451.5625
3176.5097	2441.5625
3178.83169	2441.3625
3181.15228	2456.9625
3183.47147	2453.6625
3185.78926	2462.6625
3188.10565	2469.6625
3190.42065	2476.6625
3192.73424	2475.8625
3195.04645	2480.1625
3197.35725	2490.0625
3199.66667	2491.2625
3201.97469	2498.5625
3204.28132	2505.0625
3206.58656	2509.4625
3208.8904	2504.6625
3211.19287	2527.2625
3213.49394	2521.3625
3215.79363	2525.0625
3218.09193	2536.7625
3220.38884	2540.1625
3222.68438	2536.3625
3224.97853	2536.9625
3227.2713	2539.4625
3229.56269	2526.2625
3231.8527	2530.0625
3234.14133	2529.3625
3236.42858	2531.9625
3238.71446	2541.0625
3240.99896	2520.0625
3243.28209	2524.9625
3245.56384	2519.0625
3247.84423	2531.4625
3250.12324	2519.1625
3252.40088	2529.1625
3254.67715	2535.6625
3256.95205	2522.1625
3259.22558	2518.8625
3261.49775	2512.6625
3263.76855	2517.5625
3266.03799	2510.2625
3268.30606	2520.6625
3270.57277	2503.0625
3272.83812	2493.8625
3275.10211	2491.1625
3277.36474	2498.2625
3279.62601	2500.5625
3281.88593	2488.9625
3284.14448	2498.1625
3286.40168	2503.0625
3288.65753	2498.3625
3290.91202	2495.3625
3293.16516	2483.7625
3295.41695	2468.2625
3297.66738	2446.3625
3299.91647	2441.1625
3302.16421	2434.8625
3304.4106	2433.0625
3306.65564	2423.1625
3308.89933	2407.8625
3311.14169	2391.3625
3313.38269	2387.7625
3315.62236	2370.6625
3317.86068	2341.8625
3320.09766	2328.1625
3322.3333	2307.2625
3324.5676	2315.3625
3326.80056	2272.5625
3329.03219	2269.1625
3331.26248	0.3625
3333.49143	0.9625
3335.71905	-0.4375
