Data from AgNPs_FTO_APTES_UA_0.1mM_CRN_50uM_NaF_0.1M_Addition_RamanShift__25__13-05-47-654.txt Node

Date: Mon Dec 20 13:05:47 GMT 2021
User: TCL
Spectrometer: QEP01345
Trigger mode: 4
Integration Time (sec): 7.000000E0
Scans to average: 10
Electric dark correction enabled: true
Nonlinearity correction enabled: false
Boxcar width: 0
XAxis mode: Raman Shifts
Number of Pixels in Spectrum: 1044
>>>>>Begin Spectral Data<<<<<
46.04893	1.5
50.45542	-0
54.85868	-1.7
59.25871	1
63.6555	35.2
68.04907	30.8
72.43941	35
76.82654	34.6
81.21044	36.1
85.59113	43.4
89.96862	40.6
94.34289	42.8
98.71396	44.5
103.08183	42.9
107.4465	49.1
111.80798	52.2
116.16626	50.7
120.52136	52.6
124.87327	52.1
129.222	52.8
133.56755	57.7
137.90993	61.3
142.24913	64.1
146.58517	71.1
150.91804	81.6
155.24774	94.2
159.57429	118
163.89768	150.9
168.21792	193.7
172.53501	254.2
176.84895	355.6
181.15975	495.5
185.46741	690.3
189.77193	946.6
194.07331	1268.2
198.37157	1657
202.6667	2049
206.9587	2456.2
211.24758	2855
215.53334	3246.3
219.81599	3651.7
224.09553	4073.9
228.37195	4541.6
232.64527	5047.7
236.91549	5558.6
241.18261	6060.2
245.44663	6504.5
249.70755	6921.9
253.96539	7306.8
258.22014	7615.3
262.4718	7822.8
266.72039	7975.2
270.96589	8003
275.20832	7984.5
279.44768	7897.4
283.68397	7784.7
287.91719	7679.5
292.14735	7596.9
296.37445	7588.6
300.59849	7631
304.81948	7691.4
309.03742	7712.9
313.25231	7677.6
317.46415	7511.1
321.67296	7287.6
325.87872	7079.2
330.08145	6973.4
334.28114	6970.1
338.47781	7032.4
342.67145	7105.5
346.86207	7216.3
351.04966	7386.9
355.23424	7587.4
359.4158	7787.8
363.59435	7888.1
367.76989	7960.3
371.94243	8025
376.11196	8100.2
380.27849	8146.7
384.44203	8209.9
388.60257	8209.2
392.76012	8271.8
396.91468	8328.2
401.06626	8444.8
405.21485	8523.4
409.36047	8463.1
413.50311	8332.3
417.64277	8184.7
421.77947	8097.2
425.9132	8065.4
430.04396	8080.4
434.17176	8128.1
438.2966	8156.6
442.41849	8259.5
446.53742	8358.2
450.6534	8477
454.76644	8575.7
458.87653	8607.4
462.98368	8581.4
467.08789	8574.8
471.18916	8543.2
475.2875	8538.2
479.38291	8585.8
483.4754	8637.4
487.56496	8752.3
491.6516	8858
495.73531	8922.1
499.81612	8854
503.89401	8775.9
507.96899	8692.5
512.04106	8630.7
516.11023	8704.4
520.1765	8775.4
524.23987	8827
528.30034	8872.5
532.35792	8852.3
536.41261	8754.9
540.46441	8607.8
544.51333	8460.8
548.55936	8401.7
552.60252	8401.7
556.64279	8437.8
560.6802	8477.3
564.71473	8543
568.7464	8654.6
572.7752	8749.6
576.80114	8718.2
580.82422	8664.9
584.84444	8697.9
588.86181	8830.2
592.87633	8908.8
596.888	8947.4
600.89682	8970.7
604.9028	9214
608.90594	10044.5
612.90624	11286.3
616.90371	11358.3
620.89834	10246.8
624.89015	9952.9
628.87913	10424.4
632.86528	10982.7
636.84862	11301.5
640.82913	11099
644.80683	10524.8
648.78172	9858.2
652.75379	9404.8
656.72306	9157.5
660.68952	9114.1
664.65319	9041.1
668.61405	8864.1
672.57211	8811.3
676.52738	8813.7
680.47986	8825.7
684.42955	8800.7
688.37646	8748.1
692.32058	8726.5
696.26192	8694.8
700.20048	8670.4
704.13626	8627.6
708.06928	8551.7
711.99952	8495.2
715.927	8452.4
719.85171	8485.3
723.77365	8526.3
727.69284	8535.6
731.60928	8476.2
735.52295	8373.6
739.43388	8313.9
743.34206	8307.5
747.24749	8329.5
751.15017	8346.5
755.05012	8375.1
758.94733	8484.6
762.8418	8768.7
766.73354	9214.8
770.62254	9745.1
774.50882	9965.8
778.39237	9792.8
782.27321	9242.6
786.15132	8738.9
790.02671	8490.4
793.89938	8391.1
797.76935	8432.1
801.6366	8553.2
805.50115	8812.4
809.36299	9149.7
813.22213	9283
817.07857	9152.7
820.93231	8830.5
824.78336	8479.1
828.63172	8224
832.47738	8082.7
836.32036	8011.4
840.16066	7988.5
843.99827	7940.1
847.8332	7922.7
851.66546	7919.5
855.49504	7888.2
859.32195	7896.7
863.1462	7956.4
866.96777	8013.9
870.78668	8130.2
874.60293	8289.6
878.41652	8517.8
882.22745	8712.4
886.03573	8834.9
889.84136	8837
893.64433	8651.2
897.44466	8350.6
901.24235	8073.5
905.0374	7856.9
908.8298	7722.7
912.61957	7628.8
916.40671	7587.3
920.19121	7572.5
923.97308	7569.7
927.75233	7554.7
931.52895	7574.1
935.30295	7540
939.07433	7492.8
942.84309	7424
946.60924	7405.6
950.37278	7374.7
954.13371	7334.6
957.89203	7345
961.64774	7300.5
965.40086	7246.2
969.15137	7233.9
972.89929	7183.8
976.64461	7167.3
980.38733	7170
984.12747	7152.5
987.86502	7204.4
991.59999	7214.1
995.33237	7280.8
999.06217	7404.9
1002.78939	7531.6
1006.51404	7691.1
1010.23611	7853.1
1013.95561	7932.5
1017.67255	7970.5
1021.38692	7889.6
1025.09872	7756.8
1028.80796	7622
1032.51465	7525.7
1036.21877	7430.9
1039.92035	7389
1043.61937	7334.9
1047.31584	7320.5
1051.00976	7298.6
1054.70114	7320.8
1058.38998	7361.9
1062.07627	7437.6
1065.76003	7514.9
1069.44126	7561.7
1073.11995	7630.8
1076.79611	7624.6
1080.46974	7612.4
1084.14085	7548.4
1087.80943	7539.9
1091.47549	7515.7
1095.13903	7415.2
1098.80005	7329.2
1102.45857	7254.8
1106.11456	7240.8
1109.76805	7295.2
1113.41903	7400.8
1117.06751	7633.8
1120.71348	7957.9
1124.35696	8429.6
1127.99793	8984.2
1131.63641	9472.8
1135.2724	9699.9
1138.90589	9670.8
1142.5369	9398.4
1146.16542	8962.2
1149.79145	8455.3
1153.415	8029.5
1157.03607	7728.8
1160.65467	7580.4
1164.27079	7542.8
1167.88443	7629.4
1171.49561	7832
1175.10432	8162.9
1178.71056	8657.8
1182.31434	9118.5
1185.91565	9373.3
1189.51451	9407.1
1193.11091	9384.9
1196.70485	9393.1
1200.29634	9471.1
1203.88538	9452.1
1207.47197	9274
1211.05612	8967.9
1214.63782	8563.5
1218.21708	8262.2
1221.79391	8008.5
1225.36829	7808.2
1228.94024	7665.9
1232.50976	7534.2
1236.07685	7507.6
1239.6415	7466.7
1243.20374	7487.9
1246.76355	7532.7
1250.32093	7594
1253.8759	7652.5
1257.42845	7726.5
1260.97859	7821.4
1264.52631	7897.5
1268.07163	7965.6
1271.61453	8017.2
1275.15503	8061.4
1278.69312	8066
1282.22882	8087.3
1285.76211	8156.6
1289.29301	8297.7
1292.82151	8453.7
1296.34761	8679.6
1299.87133	8956.7
1303.39266	9381.1
1306.9116	9953.2
1310.42815	10570
1313.94233	10939.4
1317.45412	10856.4
1320.96354	10539.6
1324.47058	10241.8
1327.97525	9934
1331.47754	9778.7
1334.97747	9778.6
1338.47502	9873.6
1341.97022	10020
1345.46305	10232.2
1348.95352	10496.5
1352.44163	10878.7
1355.92738	11340.6
1359.41078	12067.6
1362.89183	12819.2
1366.37053	12645.3
1369.84688	11513.5
1373.32088	10436.5
1376.79254	9683.2
1380.26186	9280.5
1383.72883	9066.3
1387.19347	8903.4
1390.65578	8738.3
1394.11575	8637.9
1397.57339	8557.1
1401.0287	8522
1404.48168	8521.3
1407.93234	8460.1
1411.38068	8330.2
1414.82669	8166
1418.27039	7905.6
1421.71177	7674.6
1425.15083	7461.8
1428.58758	7339.9
1432.02203	7272.8
1435.45416	7274.9
1438.88399	7285.5
1442.31151	7287.1
1445.73673	7312.8
1449.15965	7352.8
1452.58027	7366.9
1455.9986	7378.4
1459.41463	7392.3
1462.82837	7422.6
1466.23982	7502.2
1469.64898	7595.7
1473.05586	7650.7
1476.46045	7650.6
1479.86276	7700.1
1483.26279	7723.2
1486.66054	7789.2
1490.05602	7914
1493.44922	8045.1
1496.84016	8270.5
1500.22882	8645.2
1503.61521	9188.6
1506.99934	9839.5
1510.38121	10384.6
1513.76081	10546.6
1517.13816	10156.1
1520.51324	9385.2
1523.88607	8703.6
1527.25665	8302.8
1530.62498	8072.5
1533.99105	8021.2
1537.35488	7990.3
1540.71647	8011.5
1544.07581	8072.2
1547.4329	8095.3
1550.78776	8126.1
1554.14038	8133.9
1557.49077	8182.4
1560.83892	8228.7
1564.18484	8304.8
1567.52853	8400.6
1570.86999	8484.8
1574.20922	8556.1
1577.54624	8595.6
1580.88103	8495.5
1584.2136	8289.3
1587.54395	8203.1
1590.87208	8271.8
1594.19801	8457.5
1597.52172	8758.7
1600.84321	8901.9
1604.16251	8831.3
1607.47959	8612.8
1610.79447	8342.4
1614.10715	8075.3
1617.41763	7861.5
1620.7259	7714.6
1624.03199	7652.5
1627.33587	7646.2
1630.63757	7750.9
1633.93707	7884
1637.23439	8166.7
1640.52951	8596.4
1643.82246	9115.3
1647.11321	9780.4
1650.40179	10194.1
1653.68819	10054.8
1656.97241	9371.3
1660.25446	8562.8
1663.53433	7985.6
1666.81203	7576.3
1670.08756	7324.3
1673.36092	7132
1676.63211	6969.3
1679.90115	6875.7
1683.16801	6797.8
1686.43272	6673.1
1689.69527	6574.8
1692.95567	6488.9
1696.2139	6374.5
1699.46999	6281
1702.72392	6182
1705.97571	6042.3
1709.22535	5935.2
1712.47284	5838.3
1715.71819	5781.9
1718.96139	5721.1
1722.20246	5656.9
1725.44139	5601
1728.67818	5534.6
1731.91284	5488.5
1735.14537	5454.1
1738.37576	5415.7
1741.60403	5383.1
1744.83017	5358.6
1748.05418	5325.7
1751.27607	5335.4
1754.49584	5313.4
1757.71349	5308.7
1760.92903	5291.8
1764.14244	5263.3
1767.35375	5258.7
1770.56294	5219.1
1773.77002	5187.5
1776.97499	5147.6
1780.17785	5110.5
1783.37861	5109.5
1786.57727	5074.9
1789.77382	5035.7
1792.96828	5018.5
1796.16064	4988.5
1799.3509	4976.4
1802.53907	4955.5
1805.72514	4946
1808.90913	4924
1812.09102	4915.9
1815.27083	4886.9
1818.44856	4889.7
1821.6242	4863.1
1824.79776	4850.1
1827.96924	4836
1831.13864	4821
1834.30597	4818.8
1837.47122	4815.6
1840.6344	4817
1843.7955	4805.9
1846.95454	4801.6
1850.11151	4803
1853.26642	4790.5
1856.41926	4789.8
1859.57004	4775.5
1862.71876	4783.1
1865.86542	4757.6
1869.01003	4744
1872.15258	4755.1
1875.29308	4742.6
1878.43152	4715.6
1881.56792	4715.3
1884.70227	4712.2
1887.83457	4705.7
1890.96482	4684.2
1894.09304	4684.1
1897.21921	4687.7
1900.34335	4677.4
1903.46544	4666.9
1906.58551	4668.7
1909.70353	4636.2
1912.81953	4654.5
1915.93349	4634.9
1919.04543	4615.1
1922.15534	4606.6
1925.26322	4594.5
1928.36908	4602.6
1931.47292	4575.6
1934.57473	4574
1937.67453	4557.7
1940.77232	4519.9
1943.86808	4520.3
1946.96184	4521.5
1950.05358	4494.1
1953.14331	4475.6
1956.23103	4458.2
1959.31675	4448.5
1962.40046	4439.3
1965.48217	4417.7
1968.56188	4441.5
1971.63959	4405.4
1974.7153	4372.9
1977.78901	4369.7
1980.86073	4350.8
1983.93046	4340
1986.99819	4314.4
1990.06394	4312.4
1993.1277	4284.4
1996.18947	4290.3
1999.24925	4288.7
2002.30706	4265.2
2005.36288	4250.1
2008.41672	4229.5
2011.46859	4213.2
2014.51848	4200.6
2017.56639	4190.7
2020.61233	4165.7
2023.6563	4174.1
2026.6983	4145.7
2029.73833	4139
2032.7764	4141.5
2035.8125	4119.6
2038.84664	4108.6
2041.87881	4111.7
2044.90903	4097.3
2047.93729	4091.8
2050.96359	4063.6
2053.98794	4070.8
2057.01034	4068.4
2060.03078	4059.8
2063.04927	4067.3
2066.06582	4064.6
2069.08042	4031.9
2072.09307	4038.3
2075.10378	4030.4
2078.11255	4033.9
2081.11938	4031
2084.12426	4016.2
2087.12722	4029.1
2090.12824	4026.2
2093.12732	4026.8
2096.12447	4014.7
2099.11969	4015
2102.11299	4031
2105.10435	4026.4
2108.09379	4013.7
2111.08131	4016.2
2114.0669	4024.6
2117.05057	4023.5
2120.03233	4022.6
2123.01216	4022.9
2125.99008	4023
2128.96609	4055.5
2131.94018	4032.5
2134.91236	4023.4
2137.88263	4027.5
2140.851	4018.7
2143.81746	4038.7
2146.78201	4023.3
2149.74466	4032.7
2152.7054	4031.6
2155.66425	4027.4
2158.6212	4013.1
2161.57625	4021.4
2164.52941	4013.8
2167.48067	4001.8
2170.43004	4007.5
2173.37752	4003.4
2176.32311	3992.4
2179.26681	4003.2
2182.20863	4005.3
2185.14856	3994
2188.08661	3987
2191.02278	3990
2193.95707	3980.8
2196.88948	3970.6
2199.82001	3966.9
2202.74867	3964
2205.67545	3968.9
2208.60037	3946.4
2211.52341	3938.8
2214.44458	3931.6
2217.36388	3937.1
2220.28132	3924.2
2223.1969	3898.6
2226.11061	3898.4
2229.02246	3884.8
2231.93245	3886
2234.84058	3871.9
2237.74686	3865.3
2240.65128	3862.5
2243.55385	3867.8
2246.45456	3852.5
2249.35343	3838.4
2252.25044	3835.8
2255.14561	3827.5
2258.03893	3830.9
2260.93041	3819.7
2263.82004	3801.3
2266.70783	3803
2269.59378	3791.8
2272.4779	3779.5
2275.36017	3757.3
2278.24061	3773
2281.11922	3760.2
2283.996	3740.2
2286.87094	3737.5
2289.74405	3732.2
2292.61534	3724.2
2295.4848	3701.3
2298.35243	3689.9
2301.21824	3701.4
2304.08223	3694.4
2306.94439	3688.3
2309.80474	3689
2312.66327	3688.1
2315.51999	3676.5
2318.37489	3677.8
2321.22797	3670
2324.07925	3667.6
2326.92871	3678.3
2329.77637	3669.7
2332.62222	3643.3
2335.46626	3640.7
2338.3085	3621.3
2341.14893	3621
2343.98756	3620.3
2346.8244	3616.1
2349.65943	3622
2352.49267	3629.2
2355.32411	3609.8
2358.15376	3612
2360.98161	3590.3
2363.80768	3600.4
2366.63195	3603.2
2369.45444	3603.5
2372.27514	3600.2
2375.09405	3588.2
2377.91118	3578
2380.72652	3575
2383.54009	3564.5
2386.35187	3550.9
2389.16188	3555.2
2391.97011	3539.8
2394.77657	3534.9
2397.58125	3527.7
2400.38416	3524.3
2403.18529	3515.7
2405.98466	3515.5
2408.78226	3498
2411.57809	3497.3
2414.37216	3473.2
2417.16446	3481.4
2419.955	3466.2
2422.74378	3464.8
2425.5308	3453.3
2428.31606	3459.5
2431.09956	3441.9
2433.88131	3432.9
2436.6613	3448
2439.43954	3431.4
2442.21603	3424.2
2444.99077	3423.2
2447.76377	3429.9
2450.53501	3414.4
2453.30451	3419.3
2456.07226	3420.6
2458.83827	3401
2461.60254	3396.9
2464.36507	3408.7
2467.12586	3380.2
2469.88492	3401.1
2472.64224	3388.7
2475.39782	3396.1
2478.15167	3393.2
2480.90379	3376.7
2483.65417	3384.3
2486.40283	3380.1
2489.14976	3363.6
2491.89497	3359.6
2494.63845	3364.4
2497.3802	3375.3
2500.12024	3364.2
2502.85855	3358.9
2505.59514	3337.4
2508.33002	3340.9
2511.06318	3332.3
2513.79462	3344.2
2516.52435	3338.7
2519.25237	3318.6
2521.97867	3319.5
2524.70327	3318
2527.42616	3309.6
2530.14734	3300.7
2532.86681	3297.1
2535.58458	3291.9
2538.30065	3278.8
2541.01501	3285.4
2543.72768	3269.7
2546.43864	3257.5
2549.14791	3244.7
2551.85548	3248.2
2554.56136	3240.3
2557.26554	3238.6
2559.96803	3237.5
2562.66883	3222.7
2565.36794	3217.5
2568.06536	3221.2
2570.7611	3210.6
2573.45514	3205.8
2576.14751	3198.2
2578.83819	3197.8
2581.52719	3192.3
2584.21451	3179.4
2586.90015	3170
2589.58411	3171
2592.2664	3153.4
2594.94701	3147.1
2597.62594	3148
2600.30321	3129.5
2602.9788	3145.8
2605.65273	3122.9
2608.32498	3128.3
2610.99557	3120.6
2613.66449	3111.9
2616.33175	3121.1
2618.99734	3111
2621.66128	3110.5
2624.32355	3099.4
2626.98416	3104.7
2629.64311	3112.9
2632.30041	3089.2
2634.95605	3088.6
2637.61004	3080.9
2640.26238	3077.8
2642.91306	3080.4
2645.56209	3077.7
2648.20948	3063.7
2650.85521	3064.5
2653.4993	3066.2
2656.14175	3058.9
2658.78255	3056.6
2661.42171	3057.4
2664.05923	3038.6
2666.6951	3043.5
2669.32934	3056.5
2671.96194	3045
2674.59291	3053.8
2677.22224	3053.6
2679.84993	3055.1
2682.476	3052.1
2685.10043	3046.1
2687.72324	3059.9
2690.34441	3060.8
2692.96396	3050.9
2695.58188	3063.8
2698.19818	3061.1
2700.81285	3062.5
2703.4259	3065.3
2706.03733	3082.4
2708.64714	3066.9
2711.25533	3058.9
2713.86191	3051.2
2716.46687	3055.5
2719.07021	3049
2721.67194	3052.8
2724.27206	3052.4
2726.87057	3058.4
2729.46747	3051
2732.06276	3049.3
2734.65644	3055.9
2737.24852	3026.9
2739.83899	3035.1
2742.42786	3038
2745.01513	3024.7
2747.60079	3026.9
2750.18486	3031.4
2752.76733	3011.5
2755.3482	3011.3
2757.92747	3013
2760.50515	3008.6
2763.08123	2998.3
2765.65573	2991
2768.22863	3000.5
2770.79994	3000.2
2773.36967	2992.6
2775.9378	2986.1
2778.50435	2974.1
2781.06932	2973.2
2783.6327	2979.4
2786.1945	2972.1
2788.75471	2957.7
2791.31335	2977.3
2793.87041	2960.8
2796.42589	2946.6
2798.97979	2931.9
2801.53212	2915.9
2804.08288	2923.3
2806.63206	2927.8
2809.17967	2927.5
2811.72571	2922.2
2814.27018	2911
2816.81308	2904.8
2819.35442	2909.6
2821.89419	2901.6
2824.43239	2902.3
2826.96904	2894.1
2829.50412	2903.8
2832.03763	2888.2
2834.56959	2885.3
2837.1	2887.1
2839.62884	2872.8
2842.15613	2883
2844.68186	2882.3
2847.20604	2889.7
2849.72867	2893.8
2852.24974	2905.3
2854.76927	2890.6
2857.28724	2881
2859.80367	2884.1
2862.31855	2868.2
2864.83189	2872.7
2867.34368	2882.6
2869.85393	2879.2
2872.36264	2874.9
2874.8698	2865.8
2877.37543	2873.9
2879.87952	2880.7
2882.38207	2886.1
2884.88308	2873.3
2887.38256	2880.5
2889.88051	2880.3
2892.37692	2873.5
2894.8718	2892.8
2897.36515	2876.6
2899.85698	2880.1
2902.34727	2886.1
2904.83604	2882
2907.32328	2903.2
2909.809	2896.1
2912.29319	2896.4
2914.77587	2888
2917.25702	2890.8
2919.73665	2892.4
2922.21476	2886.9
2924.69136	2894.2
2927.16644	2896.9
2929.64	2887.4
2932.11205	2889.6
2934.58258	2889.5
2937.05161	2889.1
2939.51912	2896.2
2941.98513	2890.5
2944.44962	2874.9
2946.91261	2865.8
2949.37409	2880.9
2951.83407	2868
2954.29254	2881.6
2956.74951	2864.9
2959.20498	2852.2
2961.65895	2849.9
2964.11142	2849.9
2966.56239	2836.2
2969.01186	2847.8
2971.45984	2823.6
2973.90632	2827
2976.35131	2822.1
2978.7948	2824.9
2981.23681	2819
2983.67732	2808.6
2986.11635	2801.5
2988.55388	2778.6
2990.98993	2802.9
2993.4245	2796
2995.85758	2786.8
2998.28917	2783.9
3000.71928	2783
3003.14791	2772.2
3005.57506	2777.6
3008.00073	2768.7
3010.42493	2774.6
3012.84764	2789.7
3015.26888	2785.8
3017.68865	2766.5
3020.10694	2771.2
3022.52376	2764.5
3024.9391	2768.6
3027.35298	2753.4
3029.76539	2763.6
3032.17632	2759.7
3034.5858	2766.5
3036.9938	2762.1
3039.40034	2759.9
3041.80542	2755.1
3044.20903	2752
3046.61118	2760.3
3049.01187	2749
3051.4111	2762.2
3053.80888	2745.1
3056.20519	2746.2
3058.60005	2741.3
3060.99345	2746.3
3063.3854	2740.3
3065.7759	2734.9
3068.16494	2741.8
3070.55254	2723.7
3072.93868	2729
3075.32338	2729.1
3077.70662	2737
3080.08842	2730.4
3082.46878	2746.7
3084.84769	2732.3
3087.22515	2749
3089.60118	2759.6
3091.97576	2748.1
3094.3489	2758.2
3096.72061	2747.5
3099.09087	2771.6
3101.4597	2772.8
3103.82709	2768.8
3106.19305	2765.5
3108.55757	2771.8
3110.92066	2762.5
3113.28232	2767.7
3115.64255	2763.5
3118.00134	2760.8
3120.35871	2766
3122.71466	2761.8
3125.06917	2765.2
3127.42226	2776.9
3129.77393	2780.7
3132.12417	2791
3134.47299	2793.2
3136.82039	2794.5
3139.16636	2795.7
3141.51092	2802.1
3143.85406	2826.2
3146.19579	2833
3148.53609	2847.7
3150.87499	2847.1
3153.21246	2853.7
3155.54853	2853.9
3157.88318	2887.2
3160.21642	2870.4
3162.54826	2872.7
3164.87868	2878.5
3167.2077	2886.3
3169.5353	2908.5
3171.86151	2898.9
3174.18631	2894.5
3176.5097	2901.5
3178.83169	2906
3181.15228	2904.7
3183.47147	2918.4
3185.78926	2919.2
3188.10565	2917.3
3190.42065	2926.6
3192.73424	2938.6
3195.04645	2941.2
3197.35725	2940.3
3199.66667	2948.6
3201.97469	2959.4
3204.28132	2970.3
3206.58656	2969.4
3208.8904	2963.6
3211.19287	2978.6
3213.49394	2986.5
3215.79363	2989
3218.09193	2986.2
3220.38884	2983.1
3222.68438	2999.9
3224.97853	2995.3
3227.2713	2983.3
3229.56269	2988.4
3231.8527	2995.1
3234.14133	2995.2
3236.42858	2995.4
3238.71446	2990.3
3240.99896	2984.7
3243.28209	3004.2
3245.56384	2987.5
3247.84423	2986.2
3250.12324	2985.5
3252.40088	2986.8
3254.67715	2992.3
3256.95205	2989
3259.22558	2984.2
3261.49775	2986.9
3263.76855	2987.4
3266.03799	2966.2
3268.30606	2973.4
3270.57277	2972.7
3272.83812	2964.5
3275.10211	2965.7
3277.36474	2960.8
3279.62601	2958.9
3281.88593	2958.5
3284.14448	2956.3
3286.40168	2955.4
3288.65753	2959
3290.91202	2938.4
3293.16516	2928.7
3295.41695	2925.5
3297.66738	2916.8
3299.91647	2907.6
3302.16421	2880.1
3304.4106	2868.5
3306.65564	2858.1
3308.89933	2850.7
3311.14169	2839.3
3313.38269	2812
3315.62236	2800.7
3317.86068	2764.7
3320.09766	2747
3322.3333	2725.3
3324.5676	2739.4
3326.80056	2691.4
3329.03219	2679.9
3331.26248	0.2
3333.49143	0.7
3335.71905	-1
