Data from AgNPs_FTO_APTES_UA_0.1mM_CRN_0uM_NaF_0.1M_Addition_RamanShift__58__11-10-17-523.txt Node

Date: Mon Dec 20 11:10:17 GMT 2021
User: TCL
Spectrometer: QEP01345
Trigger mode: 4
Integration Time (sec): 7.000000E0
Scans to average: 10
Electric dark correction enabled: true
Nonlinearity correction enabled: false
Boxcar width: 0
XAxis mode: Raman Shifts
Number of Pixels in Spectrum: 1044
>>>>>Begin Spectral Data<<<<<
46.04893	0.3625
50.45542	-0.5375
54.85868	-1.8375
59.25871	1.4625
63.6555	32.1625
68.04907	32.9625
72.43941	33.2625
76.82654	37.8625
81.21044	37.9625
85.59113	44.3625
89.96862	42.7625
94.34289	42.4625
98.71396	41.9625
103.08183	46.6625
107.4465	47.6625
111.80798	47.9625
116.16626	50.7625
120.52136	52.2625
124.87327	50.9625
129.222	56.5625
133.56755	56.0625
137.90993	59.7625
142.24913	65.4625
146.58517	65.8625
150.91804	80.8625
155.24774	93.4625
159.57429	111.5625
163.89768	139.0625
168.21792	183.7625
172.53501	236.4625
176.84895	323.2625
181.15975	443.9625
185.46741	612.0625
189.77193	847.5625
194.07331	1129.7625
198.37157	1466.2625
202.6667	1808.5625
206.9587	2157.6625
211.24758	2505.0625
215.53334	2837.0625
219.81599	3181.1625
224.09553	3548.4625
228.37195	3946.4625
232.64527	4371.9625
236.91549	4816.7625
241.18261	5254.9625
245.44663	5655.0625
249.70755	6016.6625
253.96539	6337.5625
258.22014	6599.7625
262.4718	6798.4625
266.72039	6895.9625
270.96589	6956.1625
275.20832	6940.8625
279.44768	6887.3625
283.68397	6781.8625
287.91719	6690.5625
292.14735	6651.0625
296.37445	6620.2625
300.59849	6655.6625
304.81948	6694.0625
309.03742	6726.3625
313.25231	6693.9625
317.46415	6551.2625
321.67296	6354.4625
325.87872	6184.3625
330.08145	6091.8625
334.28114	6083.2625
338.47781	6133.6625
342.67145	6190.0625
346.86207	6310.3625
351.04966	6426.3625
355.23424	6620.9625
359.4158	6763.8625
363.59435	6873.8625
367.76989	6963.1625
371.94243	7029.9625
376.11196	7056.6625
380.27849	7122.8625
384.44203	7168.7625
388.60257	7213.6625
392.76012	7271.3625
396.91468	7343.3625
401.06626	7418.5625
405.21485	7518.3625
409.36047	7475.9625
413.50311	7376.4625
417.64277	7259.3625
421.77947	7205.1625
425.9132	7186.1625
430.04396	7181.8625
434.17176	7256.5625
438.2966	7327.7625
442.41849	7417.4625
446.53742	7569.7625
450.6534	7768.4625
454.76644	7853.9625
458.87653	7872.6625
462.98368	7790.8625
467.08789	7739.9625
471.18916	7659.4625
475.2875	7643.0625
479.38291	7663.0625
483.4754	7732.3625
487.56496	7851.0625
491.6516	7975.5625
495.73531	8019.1625
499.81612	7954.2625
503.89401	7841.9625
507.96899	7759.3625
512.04106	7682.9625
516.11023	7679.3625
520.1765	7723.6625
524.23987	7791.2625
528.30034	7830.4625
532.35792	7811.0625
536.41261	7725.5625
540.46441	7571.6625
544.51333	7433.8625
548.55936	7377.0625
552.60252	7384.4625
556.64279	7461.6625
560.6802	7519.8625
564.71473	7580.3625
568.7464	7693.2625
572.7752	7808.2625
576.80114	7841.0625
580.82422	7845.3625
584.84444	7941.6625
588.86181	8161.3625
592.87633	8367.2625
596.888	8431.5625
600.89682	8333.2625
604.9028	8452.0625
608.90594	9137.1625
612.90624	10158.3625
616.90371	10178.1625
620.89834	9177.5625
624.89015	8962.7625
628.87913	9409.3625
632.86528	9930.0625
636.84862	10198.7625
640.82913	9987.9625
644.80683	9430.0625
648.78172	8825.5625
652.75379	8373.1625
656.72306	8148.7625
660.68952	8061.2625
664.65319	7952.8625
668.61405	7836.2625
672.57211	7767.9625
676.52738	7770.4625
680.47986	7758.5625
684.42955	7721.9625
688.37646	7724.8625
692.32058	7715.9625
696.26192	7676.1625
700.20048	7653.5625
704.13626	7611.3625
708.06928	7541.0625
711.99952	7462.0625
715.927	7442.7625
719.85171	7474.2625
723.77365	7548.1625
727.69284	7539.4625
731.60928	7455.5625
735.52295	7351.3625
739.43388	7327.6625
743.34206	7324.5625
747.24749	7358.7625
751.15017	7385.9625
755.05012	7420.5625
758.94733	7549.5625
762.8418	7798.9625
766.73354	8262.2625
770.62254	8729.4625
774.50882	8947.7625
778.39237	8728.6625
782.27321	8254.6625
786.15132	7777.8625
790.02671	7515.2625
793.89938	7430.6625
797.76935	7476.2625
801.6366	7601.8625
805.50115	7874.0625
809.36299	8192.5625
813.22213	8319.2625
817.07857	8158.9625
820.93231	7860.7625
824.78336	7525.7625
828.63172	7281.2625
832.47738	7161.3625
836.32036	7076.5625
840.16066	7065.6625
843.99827	7079.2625
847.8332	7049.0625
851.66546	7008.5625
855.49504	6981.0625
859.32195	6982.3625
863.1462	7017.3625
866.96777	7069.8625
870.78668	7198.0625
874.60293	7383.7625
878.41652	7590.3625
882.22745	7783.6625
886.03573	7893.6625
889.84136	7885.7625
893.64433	7688.0625
897.44466	7404.2625
901.24235	7138.7625
905.0374	6931.4625
908.8298	6804.4625
912.61957	6709.5625
916.40671	6693.3625
920.19121	6689.1625
923.97308	6716.7625
927.75233	6705.5625
931.52895	6711.9625
935.30295	6663.1625
939.07433	6585.0625
942.84309	6535.2625
946.60924	6497.6625
950.37278	6485.2625
954.13371	6487.6625
957.89203	6453.2625
961.64774	6440.1625
965.40086	6389.7625
969.15137	6383.4625
972.89929	6322.7625
976.64461	6322.3625
980.38733	6292.8625
984.12747	6308.4625
987.86502	6326.4625
991.59999	6399.3625
995.33237	6470.8625
999.06217	6606.1625
1002.78939	6832.5625
1006.51404	6982.6625
1010.23611	7126.7625
1013.95561	7234.4625
1017.67255	7267.8625
1021.38692	7173.2625
1025.09872	7035.2625
1028.80796	6902.1625
1032.51465	6830.4625
1036.21877	6770.9625
1039.92035	6724.9625
1043.61937	6668.5625
1047.31584	6587.5625
1051.00976	6556.6625
1054.70114	6527.6625
1058.38998	6562.0625
1062.07627	6631.9625
1065.76003	6698.5625
1069.44126	6754.6625
1073.11995	6801.4625
1076.79611	6821.5625
1080.46974	6807.2625
1084.14085	6784.5625
1087.80943	6778.7625
1091.47549	6755.7625
1095.13903	6685.7625
1098.80005	6585.5625
1102.45857	6510.1625
1106.11456	6487.8625
1109.76805	6534.8625
1113.41903	6668.2625
1117.06751	6840.7625
1120.71348	7185.0625
1124.35696	7625.0625
1127.99793	8147.4625
1131.63641	8642.8625
1135.2724	8903.2625
1138.90589	8877.2625
1142.5369	8634.3625
1146.16542	8227.1625
1149.79145	7769.5625
1153.415	7369.3625
1157.03607	7063.4625
1160.65467	6915.3625
1164.27079	6906.9625
1167.88443	7043.2625
1171.49561	7305.5625
1175.10432	7710.2625
1178.71056	8280.9625
1182.31434	8804.2625
1185.91565	9082.3625
1189.51451	9143.2625
1193.11091	9121.5625
1196.70485	9164.3625
1200.29634	9154.0625
1203.88538	9092.9625
1207.47197	8914.2625
1211.05612	8548.7625
1214.63782	8194.8625
1218.21708	7884.9625
1221.79391	7661.8625
1225.36829	7482.1625
1228.94024	7285.7625
1232.50976	7112.0625
1236.07685	7003.6625
1239.6415	6966.8625
1243.20374	6969.8625
1246.76355	7008.8625
1250.32093	7078.8625
1253.8759	7165.7625
1257.42845	7284.1625
1260.97859	7393.6625
1264.52631	7493.4625
1268.07163	7599.9625
1271.61453	7687.6625
1275.15503	7760.6625
1278.69312	7813.0625
1282.22882	7902.9625
1285.76211	8030.7625
1289.29301	8227.1625
1292.82151	8459.7625
1296.34761	8791.8625
1299.87133	9184.3625
1303.39266	9682.6625
1306.9116	10301.0625
1310.42815	11006.7625
1313.94233	11503.4625
1317.45412	11570.0625
1320.96354	11287.5625
1324.47058	10894.4625
1327.97525	10530.1625
1331.47754	10290.2625
1334.97747	10230.3625
1338.47502	10318.8625
1341.97022	10366.0625
1345.46305	10441.9625
1348.95352	10569.5625
1352.44163	10854.3625
1355.92738	11382.6625
1359.41078	12119.8625
1362.89183	12859.0625
1366.37053	12819.5625
1369.84688	11770.7625
1373.32088	10530.9625
1376.79254	9639.3625
1380.26186	9228.6625
1383.72883	9081.7625
1387.19347	8927.0625
1390.65578	8748.7625
1394.11575	8705.0625
1397.57339	8682.1625
1401.0287	8772.0625
1404.48168	8836.6625
1407.93234	8782.8625
1411.38068	8630.8625
1414.82669	8392.0625
1418.27039	8077.7625
1421.71177	7713.2625
1425.15083	7419.4625
1428.58758	7252.0625
1432.02203	7216.9625
1435.45416	7270.6625
1438.88399	7359.9625
1442.31151	7426.3625
1445.73673	7491.0625
1449.15965	7572.3625
1452.58027	7579.4625
1455.9986	7553.6625
1459.41463	7526.6625
1462.82837	7568.0625
1466.23982	7678.7625
1469.64898	7796.6625
1473.05586	7869.5625
1476.46045	7925.4625
1479.86276	7967.6625
1483.26279	8030.1625
1486.66054	8076.9625
1490.05602	8140.4625
1493.44922	8258.8625
1496.84016	8369.8625
1500.22882	8603.1625
1503.61521	8935.5625
1506.99934	9397.2625
1510.38121	9854.5625
1513.76081	10035.4625
1517.13816	9805.6625
1520.51324	9209.4625
1523.88607	8650.3625
1527.25665	8290.7625
1530.62498	8140.3625
1533.99105	8100.2625
1537.35488	8112.5625
1540.71647	8138.2625
1544.07581	8123.1625
1547.4329	8129.0625
1550.78776	8107.3625
1554.14038	8072.7625
1557.49077	8057.6625
1560.83892	8064.7625
1564.18484	8109.8625
1567.52853	8152.0625
1570.86999	8232.7625
1574.20922	8312.1625
1577.54624	8360.2625
1580.88103	8287.9625
1584.2136	8187.3625
1587.54395	8187.7625
1590.87208	8405.3625
1594.19801	8794.5625
1597.52172	9269.8625
1600.84321	9570.3625
1604.16251	9469.6625
1607.47959	9070.2625
1610.79447	8554.2625
1614.10715	8033.0625
1617.41763	7651.5625
1620.7259	7445.1625
1624.03199	7359.1625
1627.33587	7404.4625
1630.63757	7530.3625
1633.93707	7780.9625
1637.23439	8204.7625
1640.52951	8819.9625
1643.82246	9585.8625
1647.11321	10389.9625
1650.40179	10828.1625
1653.68819	10557.6625
1656.97241	9657.7625
1660.25446	8646.0625
1663.53433	7861.0625
1666.81203	7287.6625
1670.08756	6922.1625
1673.36092	6672.3625
1676.63211	6471.2625
1679.90115	6352.4625
1683.16801	6222.0625
1686.43272	6101.2625
1689.69527	6007.7625
1692.95567	5900.6625
1696.2139	5825.1625
1699.46999	5724.7625
1702.72392	5608.6625
1705.97571	5507.8625
1709.22535	5415.7625
1712.47284	5342.4625
1715.71819	5255.4625
1718.96139	5183.7625
1722.20246	5133.2625
1725.44139	5075.2625
1728.67818	5014.0625
1731.91284	4929.4625
1735.14537	4890.1625
1738.37576	4831.8625
1741.60403	4820.1625
1744.83017	4793.0625
1748.05418	4779.7625
1751.27607	4753.3625
1754.49584	4743.5625
1757.71349	4741.8625
1760.92903	4736.0625
1764.14244	4702.2625
1767.35375	4694.2625
1770.56294	4650.6625
1773.77002	4654.9625
1776.97499	4624.7625
1780.17785	4605.3625
1783.37861	4586.2625
1786.57727	4565.5625
1789.77382	4529.1625
1792.96828	4510.7625
1796.16064	4501.9625
1799.3509	4480.9625
1802.53907	4467.9625
1805.72514	4451.5625
1808.90913	4432.1625
1812.09102	4406.4625
1815.27083	4413.3625
1818.44856	4393.3625
1821.6242	4377.8625
1824.79776	4383.1625
1827.96924	4363.2625
1831.13864	4362.3625
1834.30597	4358.0625
1837.47122	4353.5625
1840.6344	4327.0625
1843.7955	4325.5625
1846.95454	4340.4625
1850.11151	4318.0625
1853.26642	4304.0625
1856.41926	4310.3625
1859.57004	4303.8625
1862.71876	4299.9625
1865.86542	4284.2625
1869.01003	4282.3625
1872.15258	4287.7625
1875.29308	4276.6625
1878.43152	4272.0625
1881.56792	4258.3625
1884.70227	4258.8625
1887.83457	4250.2625
1890.96482	4243.3625
1894.09304	4245.4625
1897.21921	4232.2625
1900.34335	4218.4625
1903.46544	4229.2625
1906.58551	4223.4625
1909.70353	4203.6625
1912.81953	4209.3625
1915.93349	4206.4625
1919.04543	4202.1625
1922.15534	4157.9625
1925.26322	4168.8625
1928.36908	4160.9625
1931.47292	4147.5625
1934.57473	4126.2625
1937.67453	4116.9625
1940.77232	4108.8625
1943.86808	4097.6625
1946.96184	4080.8625
1950.05358	4079.7625
1953.14331	4059.0625
1956.23103	4032.0625
1959.31675	4021.1625
1962.40046	4021.4625
1965.48217	4013.9625
1968.56188	4000.3625
1971.63959	3981.6625
1974.7153	3956.5625
1977.78901	3965.4625
1980.86073	3943.0625
1983.93046	3923.4625
1986.99819	3919.7625
1990.06394	3899.4625
1993.1277	3885.1625
1996.18947	3883.3625
1999.24925	3878.4625
2002.30706	3854.9625
2005.36288	3849.2625
2008.41672	3825.7625
2011.46859	3823.1625
2014.51848	3806.9625
2017.56639	3782.4625
2020.61233	3784.0625
2023.6563	3771.7625
2026.6983	3767.2625
2029.73833	3743.9625
2032.7764	3754.6625
2035.8125	3742.1625
2038.84664	3727.0625
2041.87881	3728.6625
2044.90903	3718.2625
2047.93729	3710.6625
2050.96359	3708.1625
2053.98794	3695.5625
2057.01034	3710.3625
2060.03078	3682.8625
2063.04927	3681.4625
2066.06582	3690.5625
2069.08042	3665.6625
2072.09307	3689.6625
2075.10378	3676.2625
2078.11255	3669.3625
2081.11938	3670.0625
2084.12426	3665.4625
2087.12722	3652.9625
2090.12824	3661.2625
2093.12732	3646.2625
2096.12447	3659.9625
2099.11969	3646.8625
2102.11299	3654.3625
2105.10435	3657.1625
2108.09379	3651.3625
2111.08131	3659.4625
2114.0669	3646.1625
2117.05057	3662.2625
2120.03233	3645.1625
2123.01216	3664.1625
2125.99008	3643.0625
2128.96609	3661.6625
2131.94018	3665.1625
2134.91236	3672.7625
2137.88263	3662.8625
2140.851	3672.6625
2143.81746	3666.8625
2146.78201	3659.7625
2149.74466	3654.5625
2152.7054	3662.6625
2155.66425	3656.4625
2158.6212	3646.3625
2161.57625	3638.3625
2164.52941	3645.4625
2167.48067	3655.8625
2170.43004	3638.5625
2173.37752	3640.2625
2176.32311	3641.1625
2179.26681	3621.4625
2182.20863	3637.8625
2185.14856	3626.3625
2188.08661	3652.7625
2191.02278	3638.8625
2193.95707	3616.7625
2196.88948	3635.9625
2199.82001	3610.3625
2202.74867	3612.4625
2205.67545	3603.8625
2208.60037	3597.2625
2211.52341	3595.9625
2214.44458	3602.2625
2217.36388	3578.9625
2220.28132	3570.1625
2223.1969	3557.2625
2226.11061	3556.8625
2229.02246	3554.3625
2231.93245	3545.6625
2234.84058	3539.6625
2237.74686	3524.4625
2240.65128	3512.6625
2243.55385	3529.0625
2246.45456	3509.5625
2249.35343	3489.2625
2252.25044	3497.7625
2255.14561	3499.9625
2258.03893	3502.3625
2260.93041	3491.0625
2263.82004	3494.3625
2266.70783	3486.8625
2269.59378	3464.7625
2272.4779	3452.4625
2275.36017	3449.3625
2278.24061	3432.6625
2281.11922	3432.1625
2283.996	3425.7625
2286.87094	3416.7625
2289.74405	3408.0625
2292.61534	3411.9625
2295.4848	3399.1625
2298.35243	3402.8625
2301.21824	3392.7625
2304.08223	3387.3625
2306.94439	3383.0625
2309.80474	3368.3625
2312.66327	3377.8625
2315.51999	3371.0625
2318.37489	3358.3625
2321.22797	3359.5625
2324.07925	3366.0625
2326.92871	3358.2625
2329.77637	3350.2625
2332.62222	3351.4625
2335.46626	3327.7625
2338.3085	3333.8625
2341.14893	3334.8625
2343.98756	3330.8625
2346.8244	3323.7625
2349.65943	3318.5625
2352.49267	3324.6625
2355.32411	3325.2625
2358.15376	3320.4625
2360.98161	3311.6625
2363.80768	3306.5625
2366.63195	3307.3625
2369.45444	3306.7625
2372.27514	3307.5625
2375.09405	3308.6625
2377.91118	3285.8625
2380.72652	3278.7625
2383.54009	3276.9625
2386.35187	3272.1625
2389.16188	3267.8625
2391.97011	3253.2625
2394.77657	3260.1625
2397.58125	3244.2625
2400.38416	3236.7625
2403.18529	3230.1625
2405.98466	3237.0625
2408.78226	3226.1625
2411.57809	3208.8625
2414.37216	3190.8625
2417.16446	3195.5625
2419.955	3187.3625
2422.74378	3189.0625
2425.5308	3177.9625
2428.31606	3174.8625
2431.09956	3154.2625
2433.88131	3163.1625
2436.6613	3180.6625
2439.43954	3162.4625
2442.21603	3168.6625
2444.99077	3139.3625
2447.76377	3155.7625
2450.53501	3160.5625
2453.30451	3144.2625
2456.07226	3143.2625
2458.83827	3134.9625
2461.60254	3138.8625
2464.36507	3123.9625
2467.12586	3119.1625
2469.88492	3122.2625
2472.64224	3119.9625
2475.39782	3119.0625
2478.15167	3122.5625
2480.90379	3119.8625
2483.65417	3119.4625
2486.40283	3121.6625
2489.14976	3124.3625
2491.89497	3117.5625
2494.63845	3121.1625
2497.3802	3114.7625
2500.12024	3115.4625
2502.85855	3102.7625
2505.59514	3094.8625
2508.33002	3104.1625
2511.06318	3090.9625
2513.79462	3084.9625
2516.52435	3079.3625
2519.25237	3071.6625
2521.97867	3054.4625
2524.70327	3074.6625
2527.42616	3059.0625
2530.14734	3051.9625
2532.86681	3040.8625
2535.58458	3038.7625
2538.30065	3033.2625
2541.01501	3032.8625
2543.72768	3023.7625
2546.43864	3021.0625
2549.14791	3024.8625
2551.85548	3011.2625
2554.56136	3016.2625
2557.26554	3008.7625
2559.96803	2996.6625
2562.66883	3004.4625
2565.36794	2999.4625
2568.06536	2984.6625
2570.7611	2989.3625
2573.45514	2975.6625
2576.14751	2982.3625
2578.83819	2979.7625
2581.52719	2969.7625
2584.21451	2957.3625
2586.90015	2970.9625
2589.58411	2945.7625
2592.2664	2947.2625
2594.94701	2941.8625
2597.62594	2940.5625
2600.30321	2923.0625
2602.9788	2937.9625
2605.65273	2930.9625
2608.32498	2930.0625
2610.99557	2916.2625
2613.66449	2925.0625
2616.33175	2933.5625
2618.99734	2916.0625
2621.66128	2914.7625
2624.32355	2910.8625
2626.98416	2917.5625
2629.64311	2917.5625
2632.30041	2907.6625
2634.95605	2903.8625
2637.61004	2901.9625
2640.26238	2895.4625
2642.91306	2898.8625
2645.56209	2883.2625
2648.20948	2887.7625
2650.85521	2881.2625
2653.4993	2886.6625
2656.14175	2874.1625
2658.78255	2871.6625
2661.42171	2865.4625
2664.05923	2874.4625
2666.6951	2874.0625
2669.32934	2881.2625
2671.96194	2876.6625
2674.59291	2883.1625
2677.22224	2888.1625
2679.84993	2881.5625
2682.476	2878.6625
2685.10043	2879.4625
2687.72324	2879.6625
2690.34441	2869.2625
2692.96396	2868.1625
2695.58188	2879.0625
2698.19818	2865.7625
2700.81285	2863.8625
2703.4259	2886.6625
2706.03733	2891.5625
2708.64714	2894.4625
2711.25533	2884.4625
2713.86191	2894.9625
2716.46687	2895.4625
2719.07021	2890.5625
2721.67194	2891.1625
2724.27206	2874.7625
2726.87057	2885.0625
2729.46747	2890.8625
2732.06276	2880.7625
2734.65644	2870.4625
2737.24852	2875.3625
2739.83899	2873.8625
2742.42786	2888.4625
2745.01513	2870.2625
2747.60079	2874.7625
2750.18486	2852.6625
2752.76733	2861.8625
2755.3482	2862.6625
2757.92747	2862.7625
2760.50515	2855.6625
2763.08123	2854.1625
2765.65573	2849.4625
2768.22863	2857.7625
2770.79994	2838.4625
2773.36967	2847.0625
2775.9378	2835.7625
2778.50435	2839.8625
2781.06932	2836.6625
2783.6327	2835.4625
2786.1945	2832.3625
2788.75471	2813.3625
2791.31335	2824.1625
2793.87041	2827.8625
2796.42589	2815.7625
2798.97979	2801.4625
2801.53212	2797.4625
2804.08288	2808.1625
2806.63206	2801.4625
2809.17967	2782.1625
2811.72571	2778.2625
2814.27018	2789.9625
2816.81308	2783.9625
2819.35442	2774.0625
2821.89419	2773.6625
2824.43239	2768.9625
2826.96904	2764.3625
2829.50412	2773.6625
2832.03763	2768.6625
2834.56959	2775.5625
2837.1	2770.7625
2839.62884	2775.8625
2842.15613	2770.5625
2844.68186	2767.3625
2847.20604	2767.2625
2849.72867	2765.3625
2852.24974	2789.5625
2854.76927	2774.7625
2857.28724	2767.9625
2859.80367	2762.9625
2862.31855	2780.1625
2864.83189	2769.6625
2867.34368	2764.7625
2869.85393	2754.2625
2872.36264	2755.3625
2874.8698	2767.5625
2877.37543	2777.3625
2879.87952	2776.2625
2882.38207	2770.2625
2884.88308	2763.8625
2887.38256	2775.7625
2889.88051	2783.6625
2892.37692	2777.1625
2894.8718	2782.6625
2897.36515	2785.7625
2899.85698	2787.1625
2902.34727	2795.5625
2904.83604	2792.2625
2907.32328	2791.9625
2909.809	2789.6625
2912.29319	2794.0625
2914.77587	2802.9625
2917.25702	2781.8625
2919.73665	2797.4625
2922.21476	2789.5625
2924.69136	2789.7625
2927.16644	2792.7625
2929.64	2781.4625
2932.11205	2782.7625
2934.58258	2764.7625
2937.05161	2764.0625
2939.51912	2767.7625
2941.98513	2769.4625
2944.44962	2770.1625
2946.91261	2752.4625
2949.37409	2755.8625
2951.83407	2750.1625
2954.29254	2750.1625
2956.74951	2744.7625
2959.20498	2745.7625
2961.65895	2729.4625
2964.11142	2736.4625
2966.56239	2731.6625
2969.01186	2730.3625
2971.45984	2717.1625
2973.90632	2710.6625
2976.35131	2699.6625
2978.7948	2696.2625
2981.23681	2693.2625
2983.67732	2698.6625
2986.11635	2686.7625
2988.55388	2677.1625
2990.98993	2679.6625
2993.4245	2674.5625
2995.85758	2666.7625
2998.28917	2667.3625
3000.71928	2670.0625
3003.14791	2653.5625
3005.57506	2670.0625
3008.00073	2664.3625
3010.42493	2659.9625
3012.84764	2658.1625
3015.26888	2663.1625
3017.68865	2661.0625
3020.10694	2650.5625
3022.52376	2641.8625
3024.9391	2646.1625
3027.35298	2648.6625
3029.76539	2648.1625
3032.17632	2649.8625
3034.5858	2646.5625
3036.9938	2638.2625
3039.40034	2644.7625
3041.80542	2646.2625
3044.20903	2653.0625
3046.61118	2639.4625
3049.01187	2643.8625
3051.4111	2657.2625
3053.80888	2648.6625
3056.20519	2650.4625
3058.60005	2639.4625
3060.99345	2634.3625
3063.3854	2639.3625
3065.7759	2630.9625
3068.16494	2636.5625
3070.55254	2627.1625
3072.93868	2638.1625
3075.32338	2624.0625
3077.70662	2633.3625
3080.08842	2629.8625
3082.46878	2617.2625
3084.84769	2625.3625
3087.22515	2638.9625
3089.60118	2629.7625
3091.97576	2643.7625
3094.3489	2636.5625
3096.72061	2647.9625
3099.09087	2655.4625
3101.4597	2653.7625
3103.82709	2666.7625
3106.19305	2668.9625
3108.55757	2670.8625
3110.92066	2653.4625
3113.28232	2663.2625
3115.64255	2659.5625
3118.00134	2659.2625
3120.35871	2646.9625
3122.71466	2663.9625
3125.06917	2672.4625
3127.42226	2662.0625
3129.77393	2682.8625
3132.12417	2687.1625
3134.47299	2684.9625
3136.82039	2684.0625
3139.16636	2696.1625
3141.51092	2700.4625
3143.85406	2714.2625
3146.19579	2713.1625
3148.53609	2724.3625
3150.87499	2731.9625
3153.21246	2740.1625
3155.54853	2756.9625
3157.88318	2764.4625
3160.21642	2763.4625
3162.54826	2766.8625
3164.87868	2763.1625
3167.2077	2775.7625
3169.5353	2788.0625
3171.86151	2783.3625
3174.18631	2786.8625
3176.5097	2792.0625
3178.83169	2779.3625
3181.15228	2798.0625
3183.47147	2806.8625
3185.78926	2800.6625
3188.10565	2808.1625
3190.42065	2829.2625
3192.73424	2815.0625
3195.04645	2825.9625
3197.35725	2823.5625
3199.66667	2825.7625
3201.97469	2836.9625
3204.28132	2842.8625
3206.58656	2853.1625
3208.8904	2856.8625
3211.19287	2871.3625
3213.49394	2860.9625
3215.79363	2862.3625
3218.09193	2875.8625
3220.38884	2883.3625
3222.68438	2886.1625
3224.97853	2891.3625
3227.2713	2877.7625
3229.56269	2889.1625
3231.8527	2872.9625
3234.14133	2865.9625
3236.42858	2878.9625
3238.71446	2876.2625
3240.99896	2878.9625
3243.28209	2871.3625
3245.56384	2875.0625
3247.84423	2876.3625
3250.12324	2870.8625
3252.40088	2868.5625
3254.67715	2871.1625
3256.95205	2869.2625
3259.22558	2867.2625
3261.49775	2864.5625
3263.76855	2862.2625
3266.03799	2854.6625
3268.30606	2860.5625
3270.57277	2850.4625
3272.83812	2849.0625
3275.10211	2843.5625
3277.36474	2846.1625
3279.62601	2847.0625
3281.88593	2839.9625
3284.14448	2849.9625
3286.40168	2841.6625
3288.65753	2838.3625
3290.91202	2839.7625
3293.16516	2822.7625
3295.41695	2826.4625
3297.66738	2812.6625
3299.91647	2786.4625
3302.16421	2779.0625
3304.4106	2768.0625
3306.65564	2760.3625
3308.89933	2749.2625
3311.14169	2735.3625
3313.38269	2719.0625
3315.62236	2696.8625
3317.86068	2664.9625
3320.09766	2652.0625
3322.3333	2622.9625
3324.5676	2616.3625
3326.80056	2584.4625
3329.03219	2566.2625
3331.26248	-0.3375
3333.49143	0.7625
3335.71905	0.2625
