Data from AgNPs_FTO_APTES_UA_0.1mM_CRN_20uM_NaF_0.1M_Addition_RamanShift__5__12-02-47-585.txt Node

Date: Mon Dec 20 12:02:47 GMT 2021
User: TCL
Spectrometer: QEP01345
Trigger mode: 4
Integration Time (sec): 7.000000E0
Scans to average: 10
Electric dark correction enabled: true
Nonlinearity correction enabled: false
Boxcar width: 0
XAxis mode: Raman Shifts
Number of Pixels in Spectrum: 1044
>>>>>Begin Spectral Data<<<<<
46.04893	0.2625
50.45542	0.2625
54.85868	-1.9375
59.25871	1.3625
63.6555	30.1625
68.04907	31.3625
72.43941	35.2625
76.82654	37.4625
81.21044	37.2625
85.59113	43.3625
89.96862	38.2625
94.34289	44.6625
98.71396	41.7625
103.08183	42.7625
107.4465	44.1625
111.80798	47.8625
116.16626	48.4625
120.52136	47.4625
124.87327	51.0625
129.222	51.1625
133.56755	52.5625
137.90993	55.6625
142.24913	59.5625
146.58517	61.7625
150.91804	73.0625
155.24774	85.6625
159.57429	102.6625
163.89768	128.4625
168.21792	166.9625
172.53501	209.3625
176.84895	285.5625
181.15975	398.4625
185.46741	543.1625
189.77193	755.9625
194.07331	1000.1625
198.37157	1301.1625
202.6667	1608.0625
206.9587	1919.7625
211.24758	2232.7625
215.53334	2525.0625
219.81599	2861.5625
224.09553	3206.6625
228.37195	3608.1625
232.64527	4034.9625
236.91549	4502.4625
241.18261	4934.7625
245.44663	5335.5625
249.70755	5699.1625
253.96539	5980.1625
258.22014	6214.6625
262.4718	6375.8625
266.72039	6453.3625
270.96589	6500.7625
275.20832	6481.2625
279.44768	6407.2625
283.68397	6320.5625
287.91719	6223.3625
292.14735	6167.5625
296.37445	6114.4625
300.59849	6085.8625
304.81948	6079.2625
309.03742	6049.7625
313.25231	6027.6625
317.46415	5944.8625
321.67296	5824.2625
325.87872	5738.3625
330.08145	5703.4625
334.28114	5665.7625
338.47781	5672.7625
342.67145	5700.7625
346.86207	5771.9625
351.04966	5845.4625
355.23424	5924.8625
359.4158	6003.6625
363.59435	6065.2625
367.76989	6144.0625
371.94243	6206.2625
376.11196	6251.8625
380.27849	6303.0625
384.44203	6364.6625
388.60257	6427.5625
392.76012	6487.4625
396.91468	6548.9625
401.06626	6602.1625
405.21485	6668.0625
409.36047	6621.4625
413.50311	6591.8625
417.64277	6570.5625
421.77947	6555.3625
425.9132	6563.6625
430.04396	6587.6625
434.17176	6611.6625
438.2966	6641.9625
442.41849	6707.6625
446.53742	6763.5625
450.6534	6844.9625
454.76644	6912.0625
458.87653	6949.5625
462.98368	6959.3625
467.08789	6942.2625
471.18916	6975.4625
475.2875	6974.2625
479.38291	7024.1625
483.4754	7084.6625
487.56496	7192.0625
491.6516	7300.3625
495.73531	7413.6625
499.81612	7429.5625
503.89401	7400.9625
507.96899	7275.8625
512.04106	7227.7625
516.11023	7158.6625
520.1765	7147.9625
524.23987	7141.6625
528.30034	7138.3625
532.35792	7163.0625
536.41261	7133.8625
540.46441	7054.8625
544.51333	7011.6625
548.55936	6957.1625
552.60252	6946.1625
556.64279	6958.8625
560.6802	6977.6625
564.71473	6978.7625
568.7464	7036.4625
572.7752	7106.7625
576.80114	7153.6625
580.82422	7227.8625
584.84444	7371.9625
588.86181	7527.8625
592.87633	7646.5625
596.888	7645.6625
600.89682	7537.7625
604.9028	7558.4625
608.90594	7876.8625
612.90624	8311.5625
616.90371	8312.7625
620.89834	7829.8625
624.89015	7841.4625
628.87913	8267.8625
632.86528	8793.8625
636.84862	9153.8625
640.82913	9127.4625
644.80683	8811.5625
648.78172	8304.5625
652.75379	7912.1625
656.72306	7645.6625
660.68952	7489.2625
664.65319	7323.3625
668.61405	7180.0625
672.57211	7109.7625
676.52738	7112.1625
680.47986	7142.9625
684.42955	7112.6625
688.37646	7066.5625
692.32058	7041.2625
696.26192	6960.0625
700.20048	6943.8625
704.13626	6943.8625
708.06928	6931.3625
711.99952	6898.8625
715.927	6924.0625
719.85171	6944.1625
723.77365	7017.5625
727.69284	7068.0625
731.60928	7014.3625
735.52295	6918.5625
739.43388	6859.4625
743.34206	6847.5625
747.24749	6836.1625
751.15017	6850.3625
755.05012	6888.0625
758.94733	6950.7625
762.8418	7100.8625
766.73354	7344.0625
770.62254	7604.2625
774.50882	7687.3625
778.39237	7511.1625
782.27321	7192.0625
786.15132	6965.4625
790.02671	6803.7625
793.89938	6753.2625
797.76935	6754.3625
801.6366	6823.6625
805.50115	6975.3625
809.36299	7198.5625
813.22213	7337.9625
817.07857	7294.2625
820.93231	7114.3625
824.78336	6892.5625
828.63172	6688.0625
832.47738	6585.0625
836.32036	6540.0625
840.16066	6519.2625
843.99827	6502.6625
847.8332	6517.0625
851.66546	6509.4625
855.49504	6497.6625
859.32195	6513.3625
863.1462	6532.6625
866.96777	6572.1625
870.78668	6660.6625
874.60293	6784.9625
878.41652	6906.7625
882.22745	7063.3625
886.03573	7165.3625
889.84136	7196.5625
893.64433	7132.2625
897.44466	6959.0625
901.24235	6743.4625
905.0374	6569.9625
908.8298	6444.0625
912.61957	6370.4625
916.40671	6350.9625
920.19121	6359.5625
923.97308	6358.3625
927.75233	6331.4625
931.52895	6311.1625
935.30295	6262.4625
939.07433	6215.9625
942.84309	6161.7625
946.60924	6130.2625
950.37278	6105.2625
954.13371	6115.9625
957.89203	6112.2625
961.64774	6074.4625
965.40086	6068.0625
969.15137	6048.8625
972.89929	6029.2625
976.64461	6002.9625
980.38733	5995.0625
984.12747	5995.5625
987.86502	5989.5625
991.59999	6040.2625
995.33237	6080.9625
999.06217	6148.9625
1002.78939	6239.5625
1006.51404	6326.8625
1010.23611	6406.8625
1013.95561	6465.1625
1017.67255	6501.6625
1021.38692	6498.2625
1025.09872	6434.4625
1028.80796	6368.6625
1032.51465	6288.8625
1036.21877	6228.6625
1039.92035	6189.1625
1043.61937	6158.3625
1047.31584	6155.7625
1051.00976	6135.4625
1054.70114	6149.4625
1058.38998	6189.4625
1062.07627	6231.5625
1065.76003	6315.1625
1069.44126	6384.1625
1073.11995	6462.7625
1076.79611	6510.5625
1080.46974	6505.8625
1084.14085	6468.7625
1087.80943	6419.5625
1091.47549	6401.7625
1095.13903	6356.5625
1098.80005	6295.7625
1102.45857	6237.0625
1106.11456	6211.2625
1109.76805	6240.9625
1113.41903	6334.2625
1117.06751	6549.4625
1120.71348	6866.0625
1124.35696	7302.0625
1127.99793	7808.6625
1131.63641	8249.9625
1135.2724	8436.7625
1138.90589	8393.8625
1142.5369	8141.7625
1146.16542	7768.4625
1149.79145	7352.6625
1153.415	6994.6625
1157.03607	6708.3625
1160.65467	6569.9625
1164.27079	6551.7625
1167.88443	6581.2625
1171.49561	6741.4625
1175.10432	6918.3625
1178.71056	7214.4625
1182.31434	7493.8625
1185.91565	7643.4625
1189.51451	7687.7625
1193.11091	7672.1625
1196.70485	7703.0625
1200.29634	7730.6625
1203.88538	7753.5625
1207.47197	7697.5625
1211.05612	7574.5625
1214.63782	7394.3625
1218.21708	7178.6625
1221.79391	7004.9625
1225.36829	6832.4625
1228.94024	6732.5625
1232.50976	6650.6625
1236.07685	6569.5625
1239.6415	6554.6625
1243.20374	6582.8625
1246.76355	6607.8625
1250.32093	6638.4625
1253.8759	6737.2625
1257.42845	6828.0625
1260.97859	6912.6625
1264.52631	6974.3625
1268.07163	7063.4625
1271.61453	7113.6625
1275.15503	7160.7625
1278.69312	7208.1625
1282.22882	7212.0625
1285.76211	7295.1625
1289.29301	7387.6625
1292.82151	7535.8625
1296.34761	7719.9625
1299.87133	7946.9625
1303.39266	8185.2625
1306.9116	8471.1625
1310.42815	8748.4625
1313.94233	8932.7625
1317.45412	8933.0625
1320.96354	8835.5625
1324.47058	8721.6625
1327.97525	8648.4625
1331.47754	8543.3625
1334.97747	8528.6625
1338.47502	8539.2625
1341.97022	8530.3625
1345.46305	8629.4625
1348.95352	8716.8625
1352.44163	8901.4625
1355.92738	9133.0625
1359.41078	9480.1625
1362.89183	9855.7625
1366.37053	9859.5625
1369.84688	9376.0625
1373.32088	8760.9625
1376.79254	8280.4625
1380.26186	8032.9625
1383.72883	7911.1625
1387.19347	7798.7625
1390.65578	7648.6625
1394.11575	7553.9625
1397.57339	7475.8625
1401.0287	7397.9625
1404.48168	7333.3625
1407.93234	7241.1625
1411.38068	7098.5625
1414.82669	6912.2625
1418.27039	6727.6625
1421.71177	6544.0625
1425.15083	6416.5625
1428.58758	6300.1625
1432.02203	6279.6625
1435.45416	6320.0625
1438.88399	6346.7625
1442.31151	6398.4625
1445.73673	6423.7625
1449.15965	6455.7625
1452.58027	6476.2625
1455.9986	6476.8625
1459.41463	6482.1625
1462.82837	6529.4625
1466.23982	6575.8625
1469.64898	6649.2625
1473.05586	6696.4625
1476.46045	6744.9625
1479.86276	6751.8625
1483.26279	6748.5625
1486.66054	6810.2625
1490.05602	6854.6625
1493.44922	7011.8625
1496.84016	7148.8625
1500.22882	7371.7625
1503.61521	7651.3625
1506.99934	7951.4625
1510.38121	8200.2625
1513.76081	8285.1625
1517.13816	8091.7625
1520.51324	7781.3625
1523.88607	7507.1625
1527.25665	7365.1625
1530.62498	7319.8625
1533.99105	7296.8625
1537.35488	7291.7625
1540.71647	7286.1625
1544.07581	7262.0625
1547.4329	7216.3625
1550.78776	7196.8625
1554.14038	7188.7625
1557.49077	7169.4625
1560.83892	7207.8625
1564.18484	7234.6625
1567.52853	7282.6625
1570.86999	7320.8625
1574.20922	7379.1625
1577.54624	7381.6625
1580.88103	7343.2625
1584.2136	7254.9625
1587.54395	7210.2625
1590.87208	7280.3625
1594.19801	7397.9625
1597.52172	7547.9625
1600.84321	7632.9625
1604.16251	7524.5625
1607.47959	7337.0625
1610.79447	7111.8625
1614.10715	6925.4625
1617.41763	6761.5625
1620.7259	6679.0625
1624.03199	6652.2625
1627.33587	6699.3625
1630.63757	6802.5625
1633.93707	6997.4625
1637.23439	7286.1625
1640.52951	7692.4625
1643.82246	8192.1625
1647.11321	8637.0625
1650.40179	8865.0625
1653.68819	8710.6625
1656.97241	8214.2625
1660.25446	7662.4625
1663.53433	7228.2625
1666.81203	6911.9625
1670.08756	6734.0625
1673.36092	6614.9625
1676.63211	6522.5625
1679.90115	6444.8625
1683.16801	6378.5625
1686.43272	6304.6625
1689.69527	6178.0625
1692.95567	6089.0625
1696.2139	5975.3625
1699.46999	5889.0625
1702.72392	5784.7625
1705.97571	5681.0625
1709.22535	5540.5625
1712.47284	5397.8625
1715.71819	5279.0625
1718.96139	5200.6625
1722.20246	5109.9625
1725.44139	5027.6625
1728.67818	4984.3625
1731.91284	4913.6625
1735.14537	4863.5625
1738.37576	4821.5625
1741.60403	4797.9625
1744.83017	4757.9625
1748.05418	4741.7625
1751.27607	4741.6625
1754.49584	4721.7625
1757.71349	4721.9625
1760.92903	4714.2625
1764.14244	4705.7625
1767.35375	4681.4625
1770.56294	4683.8625
1773.77002	4659.3625
1776.97499	4642.4625
1780.17785	4634.1625
1783.37861	4617.9625
1786.57727	4612.4625
1789.77382	4590.2625
1792.96828	4554.8625
1796.16064	4549.8625
1799.3509	4534.8625
1802.53907	4533.0625
1805.72514	4510.0625
1808.90913	4499.6625
1812.09102	4494.8625
1815.27083	4483.6625
1818.44856	4468.9625
1821.6242	4463.2625
1824.79776	4449.8625
1827.96924	4439.8625
1831.13864	4419.0625
1834.30597	4436.5625
1837.47122	4411.2625
1840.6344	4425.3625
1843.7955	4410.9625
1846.95454	4404.6625
1850.11151	4419.2625
1853.26642	4394.6625
1856.41926	4414.4625
1859.57004	4395.3625
1862.71876	4382.1625
1865.86542	4386.3625
1869.01003	4367.2625
1872.15258	4372.7625
1875.29308	4359.8625
1878.43152	4352.7625
1881.56792	4343.9625
1884.70227	4336.9625
1887.83457	4337.3625
1890.96482	4337.4625
1894.09304	4320.1625
1897.21921	4309.7625
1900.34335	4311.8625
1903.46544	4304.4625
1906.58551	4301.3625
1909.70353	4295.4625
1912.81953	4276.1625
1915.93349	4264.3625
1919.04543	4242.0625
1922.15534	4246.8625
1925.26322	4232.3625
1928.36908	4209.0625
1931.47292	4212.3625
1934.57473	4205.6625
1937.67453	4215.4625
1940.77232	4195.6625
1943.86808	4173.0625
1946.96184	4160.6625
1950.05358	4144.9625
1953.14331	4140.7625
1956.23103	4120.4625
1959.31675	4129.5625
1962.40046	4107.4625
1965.48217	4103.5625
1968.56188	4075.6625
1971.63959	4063.6625
1974.7153	4053.2625
1977.78901	4033.7625
1980.86073	4034.8625
1983.93046	4020.4625
1986.99819	3993.4625
1990.06394	3996.6625
1993.1277	3967.2625
1996.18947	3967.1625
1999.24925	3954.0625
2002.30706	3947.0625
2005.36288	3925.6625
2008.41672	3906.0625
2011.46859	3926.3625
2014.51848	3895.3625
2017.56639	3879.1625
2020.61233	3880.9625
2023.6563	3856.7625
2026.6983	3838.9625
2029.73833	3848.6625
2032.7764	3829.2625
2035.8125	3825.4625
2038.84664	3802.5625
2041.87881	3807.9625
2044.90903	3813.0625
2047.93729	3774.0625
2050.96359	3789.3625
2053.98794	3781.4625
2057.01034	3779.5625
2060.03078	3776.0625
2063.04927	3766.0625
2066.06582	3764.9625
2069.08042	3775.8625
2072.09307	3765.7625
2075.10378	3752.6625
2078.11255	3750.7625
2081.11938	3763.6625
2084.12426	3755.2625
2087.12722	3748.6625
2090.12824	3756.8625
2093.12732	3742.0625
2096.12447	3756.4625
2099.11969	3759.9625
2102.11299	3757.3625
2105.10435	3736.5625
2108.09379	3748.3625
2111.08131	3753.3625
2114.0669	3753.5625
2117.05057	3762.0625
2120.03233	3740.7625
2123.01216	3739.6625
2125.99008	3745.1625
2128.96609	3745.9625
2131.94018	3745.5625
2134.91236	3757.7625
2137.88263	3761.8625
2140.851	3752.2625
2143.81746	3772.5625
2146.78201	3773.8625
2149.74466	3769.4625
2152.7054	3769.8625
2155.66425	3764.8625
2158.6212	3759.2625
2161.57625	3748.8625
2164.52941	3746.2625
2167.48067	3749.9625
2170.43004	3754.5625
2173.37752	3749.6625
2176.32311	3737.1625
2179.26681	3737.5625
2182.20863	3725.2625
2185.14856	3736.8625
2188.08661	3732.7625
2191.02278	3738.9625
2193.95707	3714.1625
2196.88948	3713.9625
2199.82001	3708.7625
2202.74867	3717.9625
2205.67545	3707.2625
2208.60037	3715.1625
2211.52341	3681.1625
2214.44458	3671.4625
2217.36388	3673.0625
2220.28132	3670.9625
2223.1969	3656.6625
2226.11061	3656.5625
2229.02246	3636.3625
2231.93245	3638.9625
2234.84058	3630.7625
2237.74686	3620.8625
2240.65128	3613.8625
2243.55385	3631.7625
2246.45456	3603.4625
2249.35343	3601.3625
2252.25044	3585.2625
2255.14561	3577.8625
2258.03893	3587.5625
2260.93041	3592.4625
2263.82004	3582.1625
2266.70783	3567.3625
2269.59378	3540.0625
2272.4779	3552.2625
2275.36017	3542.4625
2278.24061	3535.7625
2281.11922	3524.4625
2283.996	3512.1625
2286.87094	3511.5625
2289.74405	3498.0625
2292.61534	3501.1625
2295.4848	3483.7625
2298.35243	3480.6625
2301.21824	3471.9625
2304.08223	3472.0625
2306.94439	3472.0625
2309.80474	3467.2625
2312.66327	3469.7625
2315.51999	3460.0625
2318.37489	3471.9625
2321.22797	3460.3625
2324.07925	3445.2625
2326.92871	3437.0625
2329.77637	3436.4625
2332.62222	3418.9625
2335.46626	3416.4625
2338.3085	3434.1625
2341.14893	3419.3625
2343.98756	3411.8625
2346.8244	3403.4625
2349.65943	3386.2625
2352.49267	3396.6625
2355.32411	3384.1625
2358.15376	3387.6625
2360.98161	3383.5625
2363.80768	3389.2625
2366.63195	3365.7625
2369.45444	3383.6625
2372.27514	3374.9625
2375.09405	3374.1625
2377.91118	3369.3625
2380.72652	3357.4625
2383.54009	3350.9625
2386.35187	3351.2625
2389.16188	3337.3625
2391.97011	3330.6625
2394.77657	3314.9625
2397.58125	3312.4625
2400.38416	3309.7625
2403.18529	3296.5625
2405.98466	3294.8625
2408.78226	3290.3625
2411.57809	3286.7625
2414.37216	3274.1625
2417.16446	3274.3625
2419.955	3257.1625
2422.74378	3269.1625
2425.5308	3266.4625
2428.31606	3266.8625
2431.09956	3248.1625
2433.88131	3255.1625
2436.6613	3252.0625
2439.43954	3253.2625
2442.21603	3250.7625
2444.99077	3230.5625
2447.76377	3227.5625
2450.53501	3228.1625
2453.30451	3241.5625
2456.07226	3217.8625
2458.83827	3225.6625
2461.60254	3210.7625
2464.36507	3205.0625
2467.12586	3199.9625
2469.88492	3192.3625
2472.64224	3191.6625
2475.39782	3210.7625
2478.15167	3198.7625
2480.90379	3185.5625
2483.65417	3190.4625
2486.40283	3180.7625
2489.14976	3192.7625
2491.89497	3172.1625
2494.63845	3194.1625
2497.3802	3175.4625
2500.12024	3176.8625
2502.85855	3162.6625
2505.59514	3173.0625
2508.33002	3161.2625
2511.06318	3155.4625
2513.79462	3157.0625
2516.52435	3146.0625
2519.25237	3146.4625
2521.97867	3124.8625
2524.70327	3130.0625
2527.42616	3126.5625
2530.14734	3127.1625
2532.86681	3120.9625
2535.58458	3113.0625
2538.30065	3091.1625
2541.01501	3111.8625
2543.72768	3097.0625
2546.43864	3086.0625
2549.14791	3093.0625
2551.85548	3088.4625
2554.56136	3079.6625
2557.26554	3078.9625
2559.96803	3064.9625
2562.66883	3070.8625
2565.36794	3047.4625
2568.06536	3050.9625
2570.7611	3048.5625
2573.45514	3044.2625
2576.14751	3036.5625
2578.83819	3031.4625
2581.52719	3029.4625
2584.21451	3024.6625
2586.90015	3015.1625
2589.58411	3004.1625
2592.2664	3008.9625
2594.94701	2995.1625
2597.62594	2995.4625
2600.30321	2968.1625
2602.9788	2972.9625
2605.65273	2982.7625
2608.32498	2974.8625
2610.99557	2972.1625
2613.66449	2966.0625
2616.33175	2964.3625
2618.99734	2953.1625
2621.66128	2952.9625
2624.32355	2951.1625
2626.98416	2954.5625
2629.64311	2949.9625
2632.30041	2942.3625
2634.95605	2951.0625
2637.61004	2927.2625
2640.26238	2930.0625
2642.91306	2923.6625
2645.56209	2929.5625
2648.20948	2925.0625
2650.85521	2909.6625
2653.4993	2913.9625
2656.14175	2915.4625
2658.78255	2912.2625
2661.42171	2909.2625
2664.05923	2897.9625
2666.6951	2904.8625
2669.32934	2906.8625
2671.96194	2912.1625
2674.59291	2912.5625
2677.22224	2907.6625
2679.84993	2905.5625
2682.476	2901.2625
2685.10043	2900.5625
2687.72324	2915.3625
2690.34441	2908.3625
2692.96396	2903.1625
2695.58188	2910.0625
2698.19818	2908.0625
2700.81285	2920.8625
2703.4259	2925.0625
2706.03733	2950.3625
2708.64714	2930.9625
2711.25533	2925.1625
2713.86191	2924.1625
2716.46687	2927.0625
2719.07021	2919.8625
2721.67194	2919.0625
2724.27206	2913.5625
2726.87057	2921.7625
2729.46747	2914.2625
2732.06276	2908.0625
2734.65644	2899.9625
2737.24852	2927.3625
2739.83899	2897.7625
2742.42786	2917.2625
2745.01513	2894.7625
2747.60079	2895.8625
2750.18486	2883.3625
2752.76733	2883.7625
2755.3482	2888.5625
2757.92747	2884.7625
2760.50515	2873.6625
2763.08123	2874.6625
2765.65573	2872.9625
2768.22863	2871.5625
2770.79994	2868.8625
2773.36967	2859.5625
2775.9378	2860.5625
2778.50435	2852.6625
2781.06932	2855.4625
2783.6327	2852.8625
2786.1945	2842.5625
2788.75471	2839.3625
2791.31335	2815.0625
2793.87041	2825.7625
2796.42589	2803.7625
2798.97979	2807.2625
2801.53212	2810.3625
2804.08288	2804.8625
2806.63206	2784.1625
2809.17967	2786.5625
2811.72571	2779.5625
2814.27018	2778.3625
2816.81308	2774.3625
2819.35442	2768.7625
2821.89419	2760.5625
2824.43239	2751.0625
2826.96904	2763.0625
2829.50412	2751.4625
2832.03763	2759.3625
2834.56959	2760.6625
2837.1	2753.0625
2839.62884	2758.5625
2842.15613	2747.9625
2844.68186	2764.1625
2847.20604	2757.5625
2849.72867	2752.1625
2852.24974	2763.2625
2854.76927	2759.0625
2857.28724	2749.3625
2859.80367	2753.0625
2862.31855	2744.5625
2864.83189	2754.3625
2867.34368	2744.6625
2869.85393	2742.1625
2872.36264	2745.3625
2874.8698	2755.7625
2877.37543	2759.1625
2879.87952	2751.7625
2882.38207	2750.9625
2884.88308	2751.0625
2887.38256	2748.3625
2889.88051	2744.3625
2892.37692	2749.5625
2894.8718	2756.2625
2897.36515	2754.0625
2899.85698	2758.2625
2902.34727	2765.6625
2904.83604	2741.5625
2907.32328	2758.2625
2909.809	2750.6625
2912.29319	2755.0625
2914.77587	2759.4625
2917.25702	2766.7625
2919.73665	2752.4625
2922.21476	2751.5625
2924.69136	2756.5625
2927.16644	2770.4625
2929.64	2750.9625
2932.11205	2763.7625
2934.58258	2748.7625
2937.05161	2762.8625
2939.51912	2746.3625
2941.98513	2739.5625
2944.44962	2756.8625
2946.91261	2735.3625
2949.37409	2739.8625
2951.83407	2729.4625
2954.29254	2729.4625
2956.74951	2739.7625
2959.20498	2724.3625
2961.65895	2722.5625
2964.11142	2731.0625
2966.56239	2719.3625
2969.01186	2731.9625
2971.45984	2709.3625
2973.90632	2703.0625
2976.35131	2695.9625
2978.7948	2700.7625
2981.23681	2695.4625
2983.67732	2687.1625
2986.11635	2690.2625
2988.55388	2677.1625
2990.98993	2676.5625
2993.4245	2684.2625
2995.85758	2688.8625
2998.28917	2663.6625
3000.71928	2673.2625
3003.14791	2673.0625
3005.57506	2668.7625
3008.00073	2655.8625
3010.42493	2660.4625
3012.84764	2665.2625
3015.26888	2674.9625
3017.68865	2662.2625
3020.10694	2654.4625
3022.52376	2635.0625
3024.9391	2651.5625
3027.35298	2659.0625
3029.76539	2649.0625
3032.17632	2654.8625
3034.5858	2655.8625
3036.9938	2639.7625
3039.40034	2652.7625
3041.80542	2651.6625
3044.20903	2642.8625
3046.61118	2650.6625
3049.01187	2637.7625
3051.4111	2641.0625
3053.80888	2650.1625
3056.20519	2641.1625
3058.60005	2633.6625
3060.99345	2640.8625
3063.3854	2643.9625
3065.7759	2651.0625
3068.16494	2640.3625
3070.55254	2642.6625
3072.93868	2635.6625
3075.32338	2633.2625
3077.70662	2635.7625
3080.08842	2627.1625
3082.46878	2636.7625
3084.84769	2632.4625
3087.22515	2644.6625
3089.60118	2647.2625
3091.97576	2646.2625
3094.3489	2650.4625
3096.72061	2656.6625
3099.09087	2667.0625
3101.4597	2657.1625
3103.82709	2671.5625
3106.19305	2657.2625
3108.55757	2676.9625
3110.92066	2667.9625
3113.28232	2675.1625
3115.64255	2669.4625
3118.00134	2649.4625
3120.35871	2659.3625
3122.71466	2685.3625
3125.06917	2671.5625
3127.42226	2668.3625
3129.77393	2687.2625
3132.12417	2683.2625
3134.47299	2700.0625
3136.82039	2689.1625
3139.16636	2695.3625
3141.51092	2709.1625
3143.85406	2719.2625
3146.19579	2724.3625
3148.53609	2725.5625
3150.87499	2747.4625
3153.21246	2745.6625
3155.54853	2750.9625
3157.88318	2750.8625
3160.21642	2766.7625
3162.54826	2773.8625
3164.87868	2772.2625
3167.2077	2772.1625
3169.5353	2776.3625
3171.86151	2784.4625
3174.18631	2789.7625
3176.5097	2783.8625
3178.83169	2792.9625
3181.15228	2789.6625
3183.47147	2792.3625
3185.78926	2788.2625
3188.10565	2802.4625
3190.42065	2811.1625
3192.73424	2803.8625
3195.04645	2806.2625
3197.35725	2801.1625
3199.66667	2809.3625
3201.97469	2813.0625
3204.28132	2835.6625
3206.58656	2841.0625
3208.8904	2835.6625
3211.19287	2844.4625
3213.49394	2849.8625
3215.79363	2848.4625
3218.09193	2857.4625
3220.38884	2855.8625
3222.68438	2868.7625
3224.97853	2868.7625
3227.2713	2857.4625
3229.56269	2854.4625
3231.8527	2856.2625
3234.14133	2849.6625
3236.42858	2836.1625
3238.71446	2845.5625
3240.99896	2838.3625
3243.28209	2836.1625
3245.56384	2837.1625
3247.84423	2851.0625
3250.12324	2834.0625
3252.40088	2833.7625
3254.67715	2824.4625
3256.95205	2827.4625
3259.22558	2830.0625
3261.49775	2823.1625
3263.76855	2826.1625
3266.03799	2822.7625
3268.30606	2819.6625
3270.57277	2816.4625
3272.83812	2805.2625
3275.10211	2792.5625
3277.36474	2805.7625
3279.62601	2812.2625
3281.88593	2794.0625
3284.14448	2808.6625
3286.40168	2791.1625
3288.65753	2792.1625
3290.91202	2784.8625
3293.16516	2775.7625
3295.41695	2756.7625
3297.66738	2754.7625
3299.91647	2746.9625
3302.16421	2712.6625
3304.4106	2727.1625
3306.65564	2712.9625
3308.89933	2698.8625
3311.14169	2688.2625
3313.38269	2661.5625
3315.62236	2649.4625
3317.86068	2635.7625
3320.09766	2594.8625
3322.3333	2586.0625
3324.5676	2597.8625
3326.80056	2549.0625
3329.03219	2530.8625
3331.26248	1.0625
3333.49143	0.9625
3335.71905	-0.9375
