Data from AgNPs_FTO_APTES_UA_0.1mM_CRN_10uM_NaF_0.1M_Addition_RamanShift__22__11-44-07-561.txt Node

Date: Mon Dec 20 11:44:07 GMT 2021
User: TCL
Spectrometer: QEP01345
Trigger mode: 4
Integration Time (sec): 7.000000E0
Scans to average: 10
Electric dark correction enabled: true
Nonlinearity correction enabled: false
Boxcar width: 0
XAxis mode: Raman Shifts
Number of Pixels in Spectrum: 1044
>>>>>Begin Spectral Data<<<<<
46.04893	0.4625
50.45542	-0.7375
54.85868	-0.5375
59.25871	1.2625
63.6555	35.3625
68.04907	34.1625
72.43941	38.7625
76.82654	38.2625
81.21044	39.1625
85.59113	46.2625
89.96862	44.0625
94.34289	46.1625
98.71396	48.6625
103.08183	48.5625
107.4465	48.7625
111.80798	53.1625
116.16626	51.2625
120.52136	52.0625
124.87327	58.5625
129.222	58.5625
133.56755	60.5625
137.90993	64.1625
142.24913	67.2625
146.58517	71.8625
150.91804	86.1625
155.24774	101.7625
159.57429	123.4625
163.89768	151.9625
168.21792	197.8625
172.53501	257.6625
176.84895	354.7625
181.15975	496.3625
185.46741	681.8625
189.77193	953.2625
194.07331	1269.7625
198.37157	1634.5625
202.6667	2024.7625
206.9587	2428.7625
211.24758	2808.4625
215.53334	3196.1625
219.81599	3607.3625
224.09553	4016.1625
228.37195	4475.2625
232.64527	4984.8625
236.91549	5503.5625
241.18261	6041.1625
245.44663	6527.6625
249.70755	6950.9625
253.96539	7342.5625
258.22014	7655.4625
262.4718	7873.7625
266.72039	8026.9625
270.96589	8080.5625
275.20832	8055.9625
279.44768	7976.3625
283.68397	7889.9625
287.91719	7761.7625
292.14735	7705.6625
296.37445	7660.1625
300.59849	7641.3625
304.81948	7635.3625
309.03742	7604.7625
313.25231	7541.9625
317.46415	7418.2625
321.67296	7259.5625
325.87872	7127.9625
330.08145	7064.2625
334.28114	7052.8625
338.47781	7105.6625
342.67145	7165.5625
346.86207	7242.9625
351.04966	7382.8625
355.23424	7529.5625
359.4158	7649.4625
363.59435	7735.4625
367.76989	7843.1625
371.94243	7909.9625
376.11196	7998.8625
380.27849	8059.4625
384.44203	8122.2625
388.60257	8177.8625
392.76012	8262.1625
396.91468	8307.1625
401.06626	8419.2625
405.21485	8492.5625
409.36047	8474.9625
413.50311	8396.5625
417.64277	8343.1625
421.77947	8277.7625
425.9132	8264.5625
430.04396	8310.5625
434.17176	8349.5625
438.2966	8398.8625
442.41849	8472.0625
446.53742	8595.1625
450.6534	8726.7625
454.76644	8839.3625
458.87653	8898.6625
462.98368	8887.1625
467.08789	8874.2625
471.18916	8871.0625
475.2875	8857.6625
479.38291	8899.4625
483.4754	8980.1625
487.56496	9059.2625
491.6516	9154.2625
495.73531	9201.3625
499.81612	9169.8625
503.89401	9112.7625
507.96899	9015.6625
512.04106	8951.2625
516.11023	8923.1625
520.1765	8898.0625
524.23987	8935.6625
528.30034	8943.5625
532.35792	8940.2625
536.41261	8904.6625
540.46441	8802.3625
544.51333	8716.8625
548.55936	8658.3625
552.60252	8662.3625
556.64279	8723.0625
560.6802	8746.9625
564.71473	8806.8625
568.7464	8877.8625
572.7752	8974.9625
576.80114	9005.7625
580.82422	9056.0625
584.84444	9185.4625
588.86181	9292.3625
592.87633	9399.7625
596.888	9422.6625
600.89682	9413.6625
604.9028	9532.4625
608.90594	10062.1625
612.90624	10807.0625
616.90371	10729.3625
620.89834	9891.6625
624.89015	9715.0625
628.87913	10079.2625
632.86528	10552.3625
636.84862	10851.7625
640.82913	10782.7625
644.80683	10362.4625
648.78172	9887.0625
652.75379	9532.2625
656.72306	9312.6625
660.68952	9244.9625
664.65319	9200.9625
668.61405	9132.8625
672.57211	9133.2625
676.52738	9185.3625
680.47986	9195.6625
684.42955	9185.8625
688.37646	9150.4625
692.32058	9087.6625
696.26192	9025.7625
700.20048	8960.7625
704.13626	8913.7625
708.06928	8850.8625
711.99952	8765.2625
715.927	8701.2625
719.85171	8672.3625
723.77365	8726.2625
727.69284	8736.3625
731.60928	8654.4625
735.52295	8595.0625
739.43388	8544.6625
743.34206	8549.0625
747.24749	8583.9625
751.15017	8579.6625
755.05012	8608.4625
758.94733	8700.1625
762.8418	8944.9625
766.73354	9306.5625
770.62254	9716.6625
774.50882	9949.4625
778.39237	9736.9625
782.27321	9271.1625
786.15132	8838.3625
790.02671	8634.1625
793.89938	8508.4625
797.76935	8529.8625
801.6366	8622.1625
805.50115	8764.2625
809.36299	8965.4625
813.22213	9023.6625
817.07857	8936.1625
820.93231	8754.8625
824.78336	8496.8625
828.63172	8325.8625
832.47738	8213.3625
836.32036	8178.2625
840.16066	8132.8625
843.99827	8116.6625
847.8332	8114.8625
851.66546	8103.9625
855.49504	8078.0625
859.32195	8099.2625
863.1462	8127.6625
866.96777	8180.5625
870.78668	8266.6625
874.60293	8387.8625
878.41652	8486.3625
882.22745	8633.7625
886.03573	8734.4625
889.84136	8740.6625
893.64433	8590.8625
897.44466	8381.1625
901.24235	8197.0625
905.0374	8007.5625
908.8298	7923.7625
912.61957	7867.0625
916.40671	7827.3625
920.19121	7827.9625
923.97308	7854.5625
927.75233	7846.2625
931.52895	7819.0625
935.30295	7786.7625
939.07433	7697.7625
942.84309	7666.0625
946.60924	7637.0625
950.37278	7624.7625
954.13371	7608.3625
957.89203	7589.0625
961.64774	7572.5625
965.40086	7525.9625
969.15137	7489.2625
972.89929	7456.1625
976.64461	7414.6625
980.38733	7392.6625
984.12747	7389.4625
987.86502	7396.7625
991.59999	7462.2625
995.33237	7518.7625
999.06217	7607.3625
1002.78939	7736.7625
1006.51404	7830.6625
1010.23611	7950.6625
1013.95561	8029.6625
1017.67255	8047.8625
1021.38692	7996.0625
1025.09872	7896.9625
1028.80796	7803.4625
1032.51465	7743.3625
1036.21877	7704.2625
1039.92035	7663.8625
1043.61937	7639.5625
1047.31584	7609.6625
1051.00976	7600.7625
1054.70114	7608.4625
1058.38998	7608.9625
1062.07627	7686.4625
1065.76003	7770.4625
1069.44126	7825.8625
1073.11995	7865.7625
1076.79611	7880.1625
1080.46974	7875.3625
1084.14085	7841.0625
1087.80943	7818.5625
1091.47549	7798.6625
1095.13903	7755.6625
1098.80005	7674.9625
1102.45857	7597.2625
1106.11456	7580.7625
1109.76805	7591.1625
1113.41903	7681.0625
1117.06751	7863.1625
1120.71348	8127.3625
1124.35696	8516.8625
1127.99793	8938.1625
1131.63641	9396.4625
1135.2724	9613.0625
1138.90589	9601.1625
1142.5369	9381.8625
1146.16542	9043.7625
1149.79145	8645.6625
1153.415	8294.4625
1157.03607	8085.7625
1160.65467	7963.8625
1164.27079	7985.5625
1167.88443	8132.5625
1171.49561	8328.7625
1175.10432	8638.1625
1178.71056	9100.1625
1182.31434	9522.1625
1185.91565	9743.9625
1189.51451	9812.1625
1193.11091	9751.2625
1196.70485	9670.9625
1200.29634	9644.7625
1203.88538	9585.2625
1207.47197	9439.2625
1211.05612	9224.3625
1214.63782	8966.6625
1218.21708	8727.3625
1221.79391	8486.3625
1225.36829	8337.4625
1228.94024	8207.9625
1232.50976	8094.3625
1236.07685	8018.2625
1239.6415	7996.7625
1243.20374	7996.2625
1246.76355	8031.0625
1250.32093	8106.4625
1253.8759	8179.7625
1257.42845	8274.2625
1260.97859	8370.4625
1264.52631	8470.1625
1268.07163	8562.6625
1271.61453	8679.7625
1275.15503	8783.3625
1278.69312	8842.0625
1282.22882	8927.5625
1285.76211	9032.6625
1289.29301	9204.0625
1292.82151	9450.3625
1296.34761	9733.3625
1299.87133	10093.2625
1303.39266	10519.0625
1306.9116	10980.0625
1310.42815	11449.9625
1313.94233	11747.0625
1317.45412	11774.1625
1320.96354	11634.2625
1324.47058	11417.3625
1327.97525	11185.9625
1331.47754	11098.4625
1334.97747	11074.0625
1338.47502	11094.6625
1341.97022	11172.0625
1345.46305	11209.8625
1348.95352	11322.0625
1352.44163	11521.2625
1355.92738	11836.3625
1359.41078	12305.4625
1362.89183	12845.0625
1366.37053	12746.4625
1369.84688	11915.7625
1373.32088	10934.3625
1376.79254	10221.9625
1380.26186	9906.3625
1383.72883	9765.7625
1387.19347	9677.8625
1390.65578	9584.8625
1394.11575	9482.4625
1397.57339	9447.5625
1401.0287	9470.2625
1404.48168	9526.4625
1407.93234	9459.9625
1411.38068	9300.8625
1414.82669	9077.0625
1418.27039	8754.1625
1421.71177	8473.3625
1425.15083	8171.2625
1428.58758	8031.3625
1432.02203	7970.2625
1435.45416	8011.4625
1438.88399	8100.1625
1442.31151	8158.9625
1445.73673	8250.7625
1449.15965	8313.1625
1452.58027	8380.4625
1455.9986	8394.0625
1459.41463	8444.4625
1462.82837	8499.6625
1466.23982	8589.5625
1469.64898	8734.6625
1473.05586	8788.4625
1476.46045	8805.0625
1479.86276	8801.8625
1483.26279	8764.9625
1486.66054	8768.1625
1490.05602	8825.4625
1493.44922	8892.8625
1496.84016	9023.5625
1500.22882	9237.5625
1503.61521	9554.7625
1506.99934	9905.8625
1510.38121	10297.0625
1513.76081	10434.0625
1517.13816	10162.6625
1520.51324	9711.5625
1523.88607	9270.0625
1527.25665	9039.3625
1530.62498	8906.6625
1533.99105	8886.7625
1537.35488	8889.5625
1540.71647	8895.7625
1544.07581	8863.4625
1547.4329	8841.9625
1550.78776	8826.0625
1554.14038	8818.6625
1557.49077	8841.0625
1560.83892	8883.7625
1564.18484	8948.4625
1567.52853	8976.8625
1570.86999	9051.7625
1574.20922	9105.6625
1577.54624	9135.5625
1580.88103	9078.3625
1584.2136	9019.7625
1587.54395	9018.9625
1590.87208	9192.3625
1594.19801	9427.4625
1597.52172	9768.6625
1600.84321	9911.6625
1604.16251	9773.8625
1607.47959	9454.8625
1610.79447	9081.8625
1614.10715	8725.6625
1617.41763	8415.6625
1620.7259	8228.1625
1624.03199	8126.9625
1627.33587	8134.6625
1630.63757	8240.3625
1633.93707	8477.4625
1637.23439	8859.2625
1640.52951	9414.8625
1643.82246	10058.1625
1647.11321	10703.2625
1650.40179	11024.5625
1653.68819	10745.4625
1656.97241	10051.0625
1660.25446	9221.4625
1663.53433	8572.8625
1666.81203	8128.4625
1670.08756	7798.4625
1673.36092	7584.8625
1676.63211	7456.2625
1679.90115	7322.2625
1683.16801	7196.3625
1686.43272	7092.2625
1689.69527	6957.9625
1692.95567	6840.9625
1696.2139	6726.6625
1699.46999	6592.6625
1702.72392	6470.2625
1705.97571	6348.4625
1709.22535	6281.3625
1712.47284	6203.2625
1715.71819	6127.2625
1718.96139	6085.5625
1722.20246	6017.3625
1725.44139	5954.3625
1728.67818	5884.5625
1731.91284	5821.0625
1735.14537	5765.1625
1738.37576	5728.2625
1741.60403	5686.8625
1744.83017	5649.7625
1748.05418	5630.8625
1751.27607	5613.8625
1754.49584	5606.9625
1757.71349	5588.6625
1760.92903	5582.3625
1764.14244	5572.2625
1767.35375	5564.1625
1770.56294	5542.6625
1773.77002	5497.2625
1776.97499	5484.5625
1780.17785	5440.0625
1783.37861	5418.0625
1786.57727	5407.5625
1789.77382	5374.8625
1792.96828	5360.9625
1796.16064	5335.5625
1799.3509	5307.9625
1802.53907	5299.6625
1805.72514	5272.5625
1808.90913	5261.3625
1812.09102	5244.1625
1815.27083	5229.8625
1818.44856	5228.3625
1821.6242	5217.4625
1824.79776	5208.7625
1827.96924	5182.0625
1831.13864	5187.3625
1834.30597	5171.2625
1837.47122	5159.8625
1840.6344	5161.3625
1843.7955	5147.9625
1846.95454	5132.3625
1850.11151	5153.2625
1853.26642	5133.2625
1856.41926	5123.4625
1859.57004	5130.8625
1862.71876	5115.8625
1865.86542	5089.5625
1869.01003	5099.6625
1872.15258	5080.6625
1875.29308	5093.3625
1878.43152	5091.6625
1881.56792	5073.6625
1884.70227	5064.2625
1887.83457	5048.1625
1890.96482	5045.8625
1894.09304	5028.7625
1897.21921	5043.6625
1900.34335	5026.7625
1903.46544	5013.4625
1906.58551	4999.5625
1909.70353	4999.8625
1912.81953	4996.1625
1915.93349	4985.3625
1919.04543	4961.3625
1922.15534	4961.5625
1925.26322	4952.5625
1928.36908	4927.6625
1931.47292	4923.7625
1934.57473	4912.0625
1937.67453	4905.5625
1940.77232	4878.9625
1943.86808	4878.2625
1946.96184	4862.1625
1950.05358	4834.4625
1953.14331	4828.9625
1956.23103	4808.3625
1959.31675	4794.1625
1962.40046	4783.2625
1965.48217	4768.3625
1968.56188	4747.4625
1971.63959	4738.0625
1974.7153	4718.9625
1977.78901	4709.9625
1980.86073	4703.4625
1983.93046	4678.4625
1986.99819	4660.2625
1990.06394	4654.6625
1993.1277	4628.6625
1996.18947	4618.2625
1999.24925	4616.5625
2002.30706	4590.0625
2005.36288	4576.6625
2008.41672	4578.3625
2011.46859	4552.6625
2014.51848	4540.0625
2017.56639	4510.8625
2020.61233	4508.4625
2023.6563	4503.4625
2026.6983	4478.1625
2029.73833	4472.7625
2032.7764	4469.7625
2035.8125	4464.0625
2038.84664	4440.7625
2041.87881	4453.4625
2044.90903	4419.1625
2047.93729	4433.7625
2050.96359	4417.5625
2053.98794	4403.2625
2057.01034	4399.9625
2060.03078	4394.9625
2063.04927	4382.6625
2066.06582	4396.1625
2069.08042	4382.0625
2072.09307	4364.8625
2075.10378	4360.9625
2078.11255	4363.3625
2081.11938	4362.8625
2084.12426	4356.8625
2087.12722	4358.0625
2090.12824	4355.8625
2093.12732	4355.1625
2096.12447	4360.4625
2099.11969	4349.4625
2102.11299	4350.6625
2105.10435	4372.6625
2108.09379	4346.2625
2111.08131	4364.5625
2114.0669	4363.0625
2117.05057	4375.9625
2120.03233	4363.9625
2123.01216	4363.0625
2125.99008	4357.6625
2128.96609	4367.4625
2131.94018	4377.6625
2134.91236	4374.6625
2137.88263	4384.1625
2140.851	4374.3625
2143.81746	4372.8625
2146.78201	4365.7625
2149.74466	4368.1625
2152.7054	4358.0625
2155.66425	4373.1625
2158.6212	4364.4625
2161.57625	4371.9625
2164.52941	4350.7625
2167.48067	4343.3625
2170.43004	4353.3625
2173.37752	4354.7625
2176.32311	4344.6625
2179.26681	4350.4625
2182.20863	4344.4625
2185.14856	4339.1625
2188.08661	4334.3625
2191.02278	4345.6625
2193.95707	4342.7625
2196.88948	4317.0625
2199.82001	4314.0625
2202.74867	4315.2625
2205.67545	4306.9625
2208.60037	4291.3625
2211.52341	4303.5625
2214.44458	4282.7625
2217.36388	4269.4625
2220.28132	4256.3625
2223.1969	4250.6625
2226.11061	4246.7625
2229.02246	4247.8625
2231.93245	4241.8625
2234.84058	4213.3625
2237.74686	4215.1625
2240.65128	4209.5625
2243.55385	4208.4625
2246.45456	4191.5625
2249.35343	4188.2625
2252.25044	4184.4625
2255.14561	4177.2625
2258.03893	4155.3625
2260.93041	4161.6625
2263.82004	4147.1625
2266.70783	4147.4625
2269.59378	4131.3625
2272.4779	4116.9625
2275.36017	4128.5625
2278.24061	4101.2625
2281.11922	4096.6625
2283.996	4084.9625
2286.87094	4081.7625
2289.74405	4079.8625
2292.61534	4066.7625
2295.4848	4052.1625
2298.35243	4045.7625
2301.21824	4032.9625
2304.08223	4036.6625
2306.94439	4020.5625
2309.80474	4031.3625
2312.66327	4034.5625
2315.51999	4031.4625
2318.37489	4028.1625
2321.22797	4007.3625
2324.07925	4009.7625
2326.92871	4005.6625
2329.77637	3996.7625
2332.62222	3999.3625
2335.46626	3983.2625
2338.3085	3979.4625
2341.14893	3988.7625
2343.98756	3972.0625
2346.8244	3964.4625
2349.65943	3967.0625
2352.49267	3967.0625
2355.32411	3964.8625
2358.15376	3953.3625
2360.98161	3953.2625
2363.80768	3959.6625
2366.63195	3952.6625
2369.45444	3944.3625
2372.27514	3921.8625
2375.09405	3937.6625
2377.91118	3924.0625
2380.72652	3909.8625
2383.54009	3893.0625
2386.35187	3901.1625
2389.16188	3892.4625
2391.97011	3879.5625
2394.77657	3870.0625
2397.58125	3864.8625
2400.38416	3849.6625
2403.18529	3832.3625
2405.98466	3843.4625
2408.78226	3840.2625
2411.57809	3833.7625
2414.37216	3805.3625
2417.16446	3841.5625
2419.955	3802.1625
2422.74378	3804.7625
2425.5308	3801.8625
2428.31606	3806.5625
2431.09956	3789.4625
2433.88131	3790.1625
2436.6613	3793.5625
2439.43954	3777.0625
2442.21603	3767.3625
2444.99077	3761.3625
2447.76377	3772.7625
2450.53501	3771.3625
2453.30451	3768.7625
2456.07226	3754.5625
2458.83827	3752.2625
2461.60254	3732.8625
2464.36507	3737.8625
2467.12586	3739.3625
2469.88492	3739.4625
2472.64224	3723.3625
2475.39782	3736.6625
2478.15167	3727.0625
2480.90379	3736.5625
2483.65417	3719.0625
2486.40283	3725.2625
2489.14976	3724.6625
2491.89497	3720.2625
2494.63845	3716.1625
2497.3802	3710.6625
2500.12024	3694.3625
2502.85855	3703.5625
2505.59514	3698.2625
2508.33002	3692.6625
2511.06318	3697.7625
2513.79462	3703.7625
2516.52435	3673.2625
2519.25237	3680.3625
2521.97867	3673.0625
2524.70327	3660.0625
2527.42616	3655.5625
2530.14734	3655.3625
2532.86681	3651.7625
2535.58458	3633.5625
2538.30065	3619.1625
2541.01501	3636.5625
2543.72768	3624.0625
2546.43864	3619.1625
2549.14791	3603.1625
2551.85548	3590.2625
2554.56136	3590.6625
2557.26554	3597.0625
2559.96803	3605.7625
2562.66883	3578.8625
2565.36794	3577.8625
2568.06536	3571.8625
2570.7611	3578.9625
2573.45514	3561.6625
2576.14751	3560.9625
2578.83819	3554.8625
2581.52719	3549.8625
2584.21451	3521.3625
2586.90015	3538.6625
2589.58411	3530.4625
2592.2664	3516.1625
2594.94701	3513.1625
2597.62594	3499.9625
2600.30321	3509.3625
2602.9788	3498.1625
2605.65273	3495.3625
2608.32498	3505.3625
2610.99557	3482.2625
2613.66449	3475.7625
2616.33175	3484.3625
2618.99734	3482.4625
2621.66128	3477.0625
2624.32355	3460.3625
2626.98416	3462.0625
2629.64311	3471.7625
2632.30041	3465.9625
2634.95605	3447.7625
2637.61004	3448.4625
2640.26238	3443.6625
2642.91306	3447.3625
2645.56209	3443.0625
2648.20948	3432.9625
2650.85521	3425.5625
2653.4993	3430.1625
2656.14175	3430.2625
2658.78255	3438.2625
2661.42171	3428.6625
2664.05923	3435.9625
2666.6951	3433.5625
2669.32934	3436.2625
2671.96194	3434.4625
2674.59291	3437.7625
2677.22224	3426.6625
2679.84993	3428.3625
2682.476	3438.3625
2685.10043	3433.1625
2687.72324	3422.3625
2690.34441	3406.1625
2692.96396	3428.7625
2695.58188	3436.1625
2698.19818	3429.1625
2700.81285	3442.1625
2703.4259	3439.8625
2706.03733	3449.7625
2708.64714	3442.2625
2711.25533	3431.2625
2713.86191	3436.2625
2716.46687	3434.2625
2719.07021	3432.8625
2721.67194	3437.9625
2724.27206	3432.5625
2726.87057	3429.9625
2729.46747	3435.9625
2732.06276	3425.1625
2734.65644	3428.4625
2737.24852	3421.4625
2739.83899	3423.6625
2742.42786	3416.2625
2745.01513	3404.8625
2747.60079	3403.1625
2750.18486	3413.5625
2752.76733	3409.1625
2755.3482	3411.5625
2757.92747	3402.1625
2760.50515	3395.0625
2763.08123	3396.0625
2765.65573	3384.3625
2768.22863	3382.9625
2770.79994	3373.8625
2773.36967	3375.1625
2775.9378	3368.5625
2778.50435	3364.2625
2781.06932	3366.5625
2783.6327	3366.3625
2786.1945	3359.1625
2788.75471	3358.3625
2791.31335	3333.8625
2793.87041	3336.4625
2796.42589	3325.1625
2798.97979	3338.2625
2801.53212	3333.5625
2804.08288	3314.2625
2806.63206	3311.2625
2809.17967	3307.8625
2811.72571	3308.7625
2814.27018	3293.9625
2816.81308	3288.7625
2819.35442	3282.9625
2821.89419	3286.4625
2824.43239	3275.9625
2826.96904	3266.1625
2829.50412	3264.3625
2832.03763	3268.4625
2834.56959	3255.6625
2837.1	3259.5625
2839.62884	3262.7625
2842.15613	3256.9625
2844.68186	3267.9625
2847.20604	3266.5625
2849.72867	3265.0625
2852.24974	3267.3625
2854.76927	3249.9625
2857.28724	3259.1625
2859.80367	3254.0625
2862.31855	3242.9625
2864.83189	3260.7625
2867.34368	3252.3625
2869.85393	3259.4625
2872.36264	3240.2625
2874.8698	3260.4625
2877.37543	3251.4625
2879.87952	3258.3625
2882.38207	3254.9625
2884.88308	3262.2625
2887.38256	3265.6625
2889.88051	3255.0625
2892.37692	3259.6625
2894.8718	3266.8625
2897.36515	3267.5625
2899.85698	3268.0625
2902.34727	3269.1625
2904.83604	3281.0625
2907.32328	3292.2625
2909.809	3275.4625
2912.29319	3280.5625
2914.77587	3283.1625
2917.25702	3285.7625
2919.73665	3289.7625
2922.21476	3269.3625
2924.69136	3297.9625
2927.16644	3277.7625
2929.64	3292.7625
2932.11205	3278.3625
2934.58258	3276.0625
2937.05161	3270.3625
2939.51912	3267.0625
2941.98513	3281.6625
2944.44962	3264.6625
2946.91261	3261.5625
2949.37409	3264.2625
2951.83407	3268.0625
2954.29254	3268.7625
2956.74951	3248.2625
2959.20498	3255.6625
2961.65895	3234.1625
2964.11142	3245.0625
2966.56239	3231.5625
2969.01186	3235.8625
2971.45984	3217.3625
2973.90632	3211.7625
2976.35131	3203.3625
2978.7948	3210.7625
2981.23681	3207.2625
2983.67732	3199.0625
2986.11635	3187.5625
2988.55388	3178.1625
2990.98993	3177.7625
2993.4245	3161.1625
2995.85758	3155.7625
2998.28917	3172.1625
3000.71928	3146.6625
3003.14791	3156.0625
3005.57506	3152.4625
3008.00073	3159.2625
3010.42493	3159.3625
3012.84764	3148.8625
3015.26888	3149.6625
3017.68865	3139.5625
3020.10694	3150.2625
3022.52376	3133.8625
3024.9391	3119.3625
3027.35298	3114.9625
3029.76539	3115.9625
3032.17632	3112.5625
3034.5858	3118.5625
3036.9938	3104.1625
3039.40034	3107.6625
3041.80542	3113.0625
3044.20903	3109.6625
3046.61118	3115.8625
3049.01187	3098.8625
3051.4111	3099.8625
3053.80888	3110.3625
3056.20519	3104.3625
3058.60005	3097.4625
3060.99345	3099.3625
3063.3854	3087.1625
3065.7759	3077.2625
3068.16494	3093.0625
3070.55254	3078.9625
3072.93868	3087.0625
3075.32338	3088.2625
3077.70662	3080.4625
3080.08842	3093.7625
3082.46878	3079.7625
3084.84769	3067.3625
3087.22515	3101.6625
3089.60118	3091.3625
3091.97576	3086.8625
3094.3489	3082.8625
3096.72061	3099.7625
3099.09087	3109.2625
3101.4597	3109.6625
3103.82709	3109.7625
3106.19305	3110.4625
3108.55757	3119.0625
3110.92066	3105.8625
3113.28232	3103.0625
3115.64255	3101.5625
3118.00134	3104.5625
3120.35871	3096.6625
3122.71466	3106.8625
3125.06917	3119.3625
3127.42226	3103.0625
3129.77393	3127.2625
3132.12417	3116.3625
3134.47299	3116.5625
3136.82039	3128.8625
3139.16636	3138.9625
3141.51092	3133.2625
3143.85406	3138.4625
3146.19579	3156.8625
3148.53609	3150.2625
3150.87499	3165.0625
3153.21246	3164.4625
3155.54853	3177.1625
3157.88318	3169.7625
3160.21642	3171.0625
3162.54826	3187.9625
3164.87868	3198.8625
3167.2077	3191.1625
3169.5353	3219.1625
3171.86151	3195.8625
3174.18631	3194.9625
3176.5097	3205.3625
3178.83169	3209.2625
3181.15228	3197.9625
3183.47147	3213.5625
3185.78926	3212.9625
3188.10565	3208.3625
3190.42065	3219.5625
3192.73424	3229.6625
3195.04645	3226.5625
3197.35725	3250.9625
3199.66667	3243.9625
3201.97469	3269.7625
3204.28132	3255.6625
3206.58656	3266.2625
3208.8904	3274.8625
3211.19287	3285.1625
3213.49394	3277.2625
3215.79363	3282.6625
3218.09193	3282.1625
3220.38884	3291.1625
3222.68438	3297.1625
3224.97853	3279.3625
3227.2713	3287.6625
3229.56269	3286.8625
3231.8527	3291.3625
3234.14133	3273.6625
3236.42858	3276.6625
3238.71446	3278.8625
3240.99896	3254.7625
3243.28209	3268.6625
3245.56384	3261.2625
3247.84423	3266.0625
3250.12324	3271.3625
3252.40088	3273.5625
3254.67715	3268.4625
3256.95205	3266.3625
3259.22558	3264.6625
3261.49775	3271.4625
3263.76855	3254.4625
3266.03799	3257.3625
3268.30606	3244.0625
3270.57277	3250.3625
3272.83812	3236.4625
3275.10211	3219.3625
3277.36474	3224.3625
3279.62601	3215.9625
3281.88593	3230.6625
3284.14448	3239.9625
3286.40168	3225.8625
3288.65753	3223.7625
3290.91202	3222.1625
3293.16516	3203.5625
3295.41695	3192.9625
3297.66738	3187.6625
3299.91647	3176.1625
3302.16421	3143.6625
3304.4106	3135.2625
3306.65564	3128.5625
3308.89933	3100.9625
3311.14169	3094.5625
3313.38269	3075.8625
3315.62236	3053.2625
3317.86068	3021.7625
3320.09766	2996.3625
3322.3333	2984.8625
3324.5676	2994.0625
3326.80056	2929.7625
3329.03219	2919.9625
3331.26248	-0.3375
3333.49143	1.3625
3335.71905	-0.9375
