Data from AgNPs_FTO_APTES_UA_0.1mM_CRN_100uM_NaF_0.1M_Addition_RamanShift__15__13-33-47-685.txt Node

Date: Mon Dec 20 13:33:47 GMT 2021
User: TCL
Spectrometer: QEP01345
Trigger mode: 4
Integration Time (sec): 7.000000E0
Scans to average: 10
Electric dark correction enabled: true
Nonlinearity correction enabled: false
Boxcar width: 0
XAxis mode: Raman Shifts
Number of Pixels in Spectrum: 1044
>>>>>Begin Spectral Data<<<<<
46.04893	-0.5
50.45542	0.3
54.85868	-1.4
59.25871	1
63.6555	29.9
68.04907	31.8
72.43941	37.9
76.82654	35.2
81.21044	36.9
85.59113	41.6
89.96862	41.6
94.34289	43.7
98.71396	42
103.08183	41.3
107.4465	44.9
111.80798	47.3
116.16626	48.4
120.52136	49.1
124.87327	51.5
129.222	47.4
133.56755	53.7
137.90993	57.9
142.24913	60.8
146.58517	64.1
150.91804	76.8
155.24774	93.7
159.57429	105.1
163.89768	135.6
168.21792	175.5
172.53501	228.4
176.84895	315.6
181.15975	434
185.46741	604.8
189.77193	842.6
194.07331	1127.4
198.37157	1470.9
202.6667	1832.1
206.9587	2207.4
211.24758	2575.1
215.53334	2952.7
219.81599	3334.9
224.09553	3746
228.37195	4179.7
232.64527	4648.8
236.91549	5122.6
241.18261	5586.5
245.44663	6017.4
249.70755	6377.6
253.96539	6684.4
258.22014	6893.3
262.4718	7051.8
266.72039	7112.8
270.96589	7099.3
275.20832	7009.6
279.44768	6902.2
283.68397	6762.7
287.91719	6595.3
292.14735	6495.3
296.37445	6389.1
300.59849	6341.9
304.81948	6339.9
309.03742	6301.5
313.25231	6238.8
317.46415	6168.4
321.67296	6050.3
325.87872	5953.4
330.08145	5929
334.28114	5934
338.47781	5943
342.67145	5981.4
346.86207	6050.2
351.04966	6148.5
355.23424	6231.2
359.4158	6346.5
363.59435	6420.6
367.76989	6491.1
371.94243	6544.8
376.11196	6599.8
380.27849	6635.7
384.44203	6692.9
388.60257	6740.1
392.76012	6809.2
396.91468	6860.6
401.06626	6925.7
405.21485	6985
409.36047	6997.6
413.50311	6943.3
417.64277	6889.8
421.77947	6867.8
425.9132	6873.6
430.04396	6891
434.17176	6912.7
438.2966	6948.8
442.41849	6981.9
446.53742	7060.5
450.6534	7119.3
454.76644	7193.4
458.87653	7228.6
462.98368	7263.9
467.08789	7278.2
471.18916	7260.6
475.2875	7293
479.38291	7326.9
483.4754	7363.5
487.56496	7422.1
491.6516	7507.9
495.73531	7569.9
499.81612	7585.4
503.89401	7565.9
507.96899	7532.8
512.04106	7496.6
516.11023	7476
520.1765	7479.7
524.23987	7468.8
528.30034	7458.2
532.35792	7432.1
536.41261	7387.4
540.46441	7324.4
544.51333	7273.1
548.55936	7255.3
552.60252	7240.2
556.64279	7272
560.6802	7318.1
564.71473	7321.6
568.7464	7395.2
572.7752	7459.3
576.80114	7450.7
580.82422	7472.7
584.84444	7503.3
588.86181	7575.2
592.87633	7623.9
596.888	7633.8
600.89682	7654.4
604.9028	7796
608.90594	8190.8
612.90624	8736.7
616.90371	8746.8
620.89834	8189.4
624.89015	8045.8
628.87913	8256
632.86528	8586.7
636.84862	8837.7
640.82913	8842.7
644.80683	8650
648.78172	8335.9
652.75379	8163.9
656.72306	8046.6
660.68952	8032.1
664.65319	8035.2
668.61405	8021.5
672.57211	8092.5
676.52738	8156.6
680.47986	8232.7
684.42955	8259.4
688.37646	8215.2
692.32058	8133.2
696.26192	8073.7
700.20048	7960.6
704.13626	7904.6
708.06928	7802.7
711.99952	7689.5
715.927	7615.7
719.85171	7563.1
723.77365	7551.6
727.69284	7547.8
731.60928	7501.2
735.52295	7466.3
739.43388	7442.2
743.34206	7402.4
747.24749	7422.2
751.15017	7439.9
755.05012	7485.9
758.94733	7539.2
762.8418	7685.6
766.73354	7897.9
770.62254	8160.9
774.50882	8285.6
778.39237	8174.3
782.27321	7874.5
786.15132	7612.7
790.02671	7459.4
793.89938	7416.7
797.76935	7408.8
801.6366	7456
805.50115	7544.8
809.36299	7659.9
813.22213	7692.2
817.07857	7634.7
820.93231	7495.9
824.78336	7348
828.63172	7228.8
832.47738	7151.4
836.32036	7112.3
840.16066	7072.6
843.99827	7083.5
847.8332	7059.8
851.66546	7047.1
855.49504	7031.9
859.32195	7044.2
863.1462	7082.1
866.96777	7127.7
870.78668	7173.5
874.60293	7237.1
878.41652	7338.4
882.22745	7416.8
886.03573	7454.3
889.84136	7490.3
893.64433	7426.9
897.44466	7328.8
901.24235	7203.2
905.0374	7094.2
908.8298	7019.3
912.61957	6984
916.40671	6942.8
920.19121	6942.7
923.97308	6952.2
927.75233	6939.8
931.52895	6901.6
935.30295	6914.7
939.07433	6870.7
942.84309	6813.5
946.60924	6800.6
950.37278	6769.8
954.13371	6781
957.89203	6756.1
961.64774	6747.5
965.40086	6710.8
969.15137	6711.7
972.89929	6670.1
976.64461	6654.6
980.38733	6633.5
984.12747	6644.1
987.86502	6657.9
991.59999	6699.7
995.33237	6709.9
999.06217	6769.4
1002.78939	6823.2
1006.51404	6877.1
1010.23611	6959.8
1013.95561	6991.3
1017.67255	6990.1
1021.38692	6990.9
1025.09872	6951.3
1028.80796	6882
1032.51465	6862.6
1036.21877	6820.5
1039.92035	6812.4
1043.61937	6797.9
1047.31584	6792.8
1051.00976	6802.3
1054.70114	6819.8
1058.38998	6841
1062.07627	6897.1
1065.76003	6932
1069.44126	7000.4
1073.11995	7024.1
1076.79611	7064
1080.46974	7057.8
1084.14085	7035.1
1087.80943	6980.6
1091.47549	6973.3
1095.13903	6928.6
1098.80005	6898.1
1102.45857	6845.4
1106.11456	6850.5
1109.76805	6850.4
1113.41903	6932.7
1117.06751	7066.5
1120.71348	7265.7
1124.35696	7541.3
1127.99793	7874.9
1131.63641	8185.7
1135.2724	8318.1
1138.90589	8311.9
1142.5369	8156.9
1146.16542	7927.8
1149.79145	7640.9
1153.415	7404
1157.03607	7201.7
1160.65467	7116.8
1164.27079	7061
1167.88443	7109.9
1171.49561	7207
1175.10432	7398.1
1178.71056	7634.2
1182.31434	7884.2
1185.91565	8009
1189.51451	8029.7
1193.11091	8006.6
1196.70485	7943.6
1200.29634	7912
1203.88538	7873.5
1207.47197	7770
1211.05612	7635.3
1214.63782	7486.3
1218.21708	7372.4
1221.79391	7265.2
1225.36829	7191
1228.94024	7132.1
1232.50976	7117.1
1236.07685	7067.5
1239.6415	7080
1243.20374	7096.9
1246.76355	7126.8
1250.32093	7144.3
1253.8759	7196.4
1257.42845	7245.4
1260.97859	7299.8
1264.52631	7324.4
1268.07163	7404.8
1271.61453	7416.3
1275.15503	7458.1
1278.69312	7469.9
1282.22882	7488.6
1285.76211	7525
1289.29301	7608
1292.82151	7713.9
1296.34761	7812.4
1299.87133	7983.7
1303.39266	8215.9
1306.9116	8471.7
1310.42815	8783.1
1313.94233	8973.1
1317.45412	8989.8
1320.96354	8897.9
1324.47058	8755.8
1327.97525	8638.3
1331.47754	8554.7
1334.97747	8531.6
1338.47502	8576.4
1341.97022	8665
1345.46305	8807.9
1348.95352	8959.1
1352.44163	9160.3
1355.92738	9387.2
1359.41078	9739.6
1362.89183	10095.1
1366.37053	10052.1
1369.84688	9537.9
1373.32088	8998.8
1376.79254	8537.4
1380.26186	8327
1383.72883	8202.1
1387.19347	8080.1
1390.65578	7960.7
1394.11575	7855.8
1397.57339	7722
1401.0287	7658.1
1404.48168	7600.4
1407.93234	7521.5
1411.38068	7447
1414.82669	7331.1
1418.27039	7217.9
1421.71177	7076.6
1425.15083	6967.2
1428.58758	6882.1
1432.02203	6817
1435.45416	6807.6
1438.88399	6807.9
1442.31151	6784
1445.73673	6765.7
1449.15965	6804.9
1452.58027	6812.8
1455.9986	6830.1
1459.41463	6847.6
1462.82837	6901.6
1466.23982	6931.4
1469.64898	7012
1473.05586	7077.2
1476.46045	7089.9
1479.86276	7101.5
1483.26279	7090.5
1486.66054	7105.1
1490.05602	7138.3
1493.44922	7230.5
1496.84016	7341
1500.22882	7546.7
1503.61521	7830.8
1506.99934	8164.3
1510.38121	8456.3
1513.76081	8572.7
1517.13816	8399.8
1520.51324	8053.7
1523.88607	7715.8
1527.25665	7507.3
1530.62498	7415.6
1533.99105	7359.1
1537.35488	7351.9
1540.71647	7377.5
1544.07581	7381.3
1547.4329	7386.1
1550.78776	7397.4
1554.14038	7407.8
1557.49077	7469.2
1560.83892	7493.5
1564.18484	7555.9
1567.52853	7596.4
1570.86999	7645
1574.20922	7729.2
1577.54624	7807.2
1580.88103	7720.1
1584.2136	7600.2
1587.54395	7513.6
1590.87208	7505.7
1594.19801	7553.6
1597.52172	7663
1600.84321	7743.8
1604.16251	7680.8
1607.47959	7542.9
1610.79447	7432.3
1614.10715	7277.4
1617.41763	7192.1
1620.7259	7076.8
1624.03199	7020
1627.33587	7002.9
1630.63757	7023.5
1633.93707	7103.6
1637.23439	7247.1
1640.52951	7485.9
1643.82246	7766.7
1647.11321	8094.3
1650.40179	8323.8
1653.68819	8297.7
1656.97241	7993.7
1660.25446	7623.5
1663.53433	7358.7
1666.81203	7196.1
1670.08756	7093.4
1673.36092	7015.9
1676.63211	6993.1
1679.90115	6929.4
1683.16801	6861.7
1686.43272	6775.4
1689.69527	6684.6
1692.95567	6554.5
1696.2139	6432.2
1699.46999	6329.8
1702.72392	6211.5
1705.97571	6134.7
1709.22535	6052.7
1712.47284	5990
1715.71819	5957.9
1718.96139	5885.6
1722.20246	5848.6
1725.44139	5803.4
1728.67818	5745.3
1731.91284	5688.9
1735.14537	5645.9
1738.37576	5590.5
1741.60403	5563.7
1744.83017	5532.1
1748.05418	5516.9
1751.27607	5501.9
1754.49584	5495
1757.71349	5523.5
1760.92903	5488
1764.14244	5461.8
1767.35375	5434.2
1770.56294	5394.6
1773.77002	5365.3
1776.97499	5316.3
1780.17785	5282.8
1783.37861	5240.1
1786.57727	5229.8
1789.77382	5171
1792.96828	5148.5
1796.16064	5108.9
1799.3509	5095.7
1802.53907	5068.4
1805.72514	5053.6
1808.90913	5025.3
1812.09102	5020.7
1815.27083	5015.3
1818.44856	4987.9
1821.6242	4977.1
1824.79776	4957.8
1827.96924	4957.8
1831.13864	4942.1
1834.30597	4944.2
1837.47122	4941.8
1840.6344	4923.8
1843.7955	4919
1846.95454	4915.5
1850.11151	4924.3
1853.26642	4884.6
1856.41926	4886.2
1859.57004	4891.7
1862.71876	4878.3
1865.86542	4864.9
1869.01003	4864.4
1872.15258	4839.8
1875.29308	4838.3
1878.43152	4834.2
1881.56792	4826.7
1884.70227	4832.4
1887.83457	4808.8
1890.96482	4808.2
1894.09304	4811.7
1897.21921	4792.3
1900.34335	4784
1903.46544	4775.7
1906.58551	4774.9
1909.70353	4767.7
1912.81953	4782.5
1915.93349	4758.4
1919.04543	4728.1
1922.15534	4720.2
1925.26322	4711.8
1928.36908	4701.2
1931.47292	4694.1
1934.57473	4688.6
1937.67453	4674
1940.77232	4648.5
1943.86808	4654.2
1946.96184	4644.5
1950.05358	4630.7
1953.14331	4620.9
1956.23103	4598.9
1959.31675	4580.2
1962.40046	4563.8
1965.48217	4574.2
1968.56188	4555.7
1971.63959	4534.4
1974.7153	4512.5
1977.78901	4502.5
1980.86073	4470
1983.93046	4463
1986.99819	4456.7
1990.06394	4448.6
1993.1277	4435.6
1996.18947	4411.7
1999.24925	4410.2
2002.30706	4387.7
2005.36288	4385
2008.41672	4362.4
2011.46859	4343.5
2014.51848	4336.1
2017.56639	4319.2
2020.61233	4313.8
2023.6563	4297.8
2026.6983	4294.4
2029.73833	4277.3
2032.7764	4277.6
2035.8125	4267.4
2038.84664	4257
2041.87881	4240.7
2044.90903	4230
2047.93729	4233
2050.96359	4216.4
2053.98794	4230.3
2057.01034	4197.6
2060.03078	4184.9
2063.04927	4195.3
2066.06582	4208.4
2069.08042	4191.8
2072.09307	4177.9
2075.10378	4186.5
2078.11255	4184.6
2081.11938	4163.4
2084.12426	4169.8
2087.12722	4182.8
2090.12824	4174.5
2093.12732	4162.3
2096.12447	4178.1
2099.11969	4174.2
2102.11299	4165.2
2105.10435	4191.6
2108.09379	4170.2
2111.08131	4173.6
2114.0669	4175.9
2117.05057	4189.1
2120.03233	4176.3
2123.01216	4191.6
2125.99008	4184.2
2128.96609	4192.5
2131.94018	4197
2134.91236	4212.7
2137.88263	4199.4
2140.851	4202.9
2143.81746	4212.2
2146.78201	4209.1
2149.74466	4210.5
2152.7054	4202.6
2155.66425	4207.8
2158.6212	4197.8
2161.57625	4193.5
2164.52941	4212.9
2167.48067	4194.3
2170.43004	4185.8
2173.37752	4184
2176.32311	4181.8
2179.26681	4181.2
2182.20863	4182
2185.14856	4182.9
2188.08661	4170.4
2191.02278	4187.2
2193.95707	4164.9
2196.88948	4163.8
2199.82001	4163.4
2202.74867	4158.3
2205.67545	4152.5
2208.60037	4144.9
2211.52341	4131.9
2214.44458	4136.3
2217.36388	4123.3
2220.28132	4121.9
2223.1969	4095.3
2226.11061	4088.8
2229.02246	4088.4
2231.93245	4074.5
2234.84058	4074.1
2237.74686	4046.5
2240.65128	4055.6
2243.55385	4040.2
2246.45456	4041.9
2249.35343	4044.3
2252.25044	4018.9
2255.14561	4001.8
2258.03893	4007.9
2260.93041	4018
2263.82004	3992.2
2266.70783	3979.1
2269.59378	3990
2272.4779	3969.6
2275.36017	3965.9
2278.24061	3940.1
2281.11922	3945.3
2283.996	3946.9
2286.87094	3930.8
2289.74405	3931.9
2292.61534	3906.1
2295.4848	3910.1
2298.35243	3911.3
2301.21824	3895
2304.08223	3886.1
2306.94439	3897.2
2309.80474	3889.1
2312.66327	3891.4
2315.51999	3888.2
2318.37489	3876
2321.22797	3885
2324.07925	3870.4
2326.92871	3868.5
2329.77637	3850.1
2332.62222	3850.2
2335.46626	3836.1
2338.3085	3840.1
2341.14893	3831.7
2343.98756	3819.8
2346.8244	3813.9
2349.65943	3810.8
2352.49267	3824.7
2355.32411	3809.8
2358.15376	3816.4
2360.98161	3798.7
2363.80768	3806.5
2366.63195	3789.7
2369.45444	3782.5
2372.27514	3778.3
2375.09405	3785.7
2377.91118	3779.4
2380.72652	3770.9
2383.54009	3765.1
2386.35187	3754.5
2389.16188	3756.6
2391.97011	3724.9
2394.77657	3730.4
2397.58125	3718
2400.38416	3707.3
2403.18529	3708.8
2405.98466	3709.4
2408.78226	3697.8
2411.57809	3700.3
2414.37216	3680.8
2417.16446	3687
2419.955	3682.6
2422.74378	3669.5
2425.5308	3675.9
2428.31606	3659.8
2431.09956	3648.5
2433.88131	3649.2
2436.6613	3639.7
2439.43954	3636.8
2442.21603	3630
2444.99077	3640.5
2447.76377	3631.7
2450.53501	3618.4
2453.30451	3623.3
2456.07226	3616.6
2458.83827	3607.2
2461.60254	3604.7
2464.36507	3593.4
2467.12586	3574.8
2469.88492	3586.9
2472.64224	3589.5
2475.39782	3591.6
2478.15167	3597.8
2480.90379	3585.1
2483.65417	3580.9
2486.40283	3576.8
2489.14976	3579.5
2491.89497	3581.9
2494.63845	3584.5
2497.3802	3564.6
2500.12024	3556.5
2502.85855	3565.9
2505.59514	3545.1
2508.33002	3557.3
2511.06318	3549.6
2513.79462	3526
2516.52435	3529.4
2519.25237	3525.7
2521.97867	3522.9
2524.70327	3530.4
2527.42616	3513.2
2530.14734	3507.7
2532.86681	3504.4
2535.58458	3502.7
2538.30065	3489.8
2541.01501	3484.2
2543.72768	3473.3
2546.43864	3470
2549.14791	3460.3
2551.85548	3455.6
2554.56136	3454.8
2557.26554	3448.4
2559.96803	3432.6
2562.66883	3436.2
2565.36794	3419.7
2568.06536	3424.2
2570.7611	3417.1
2573.45514	3392.9
2576.14751	3400.9
2578.83819	3404
2581.52719	3397.5
2584.21451	3387.5
2586.90015	3364.4
2589.58411	3380
2592.2664	3370.9
2594.94701	3357.1
2597.62594	3347.9
2600.30321	3347.3
2602.9788	3338.5
2605.65273	3333.4
2608.32498	3317.1
2610.99557	3323.8
2613.66449	3325.4
2616.33175	3320.4
2618.99734	3316.9
2621.66128	3307.6
2624.32355	3303.9
2626.98416	3304.8
2629.64311	3278.9
2632.30041	3279.9
2634.95605	3296.7
2637.61004	3275.9
2640.26238	3284.8
2642.91306	3271.7
2645.56209	3270.7
2648.20948	3277.2
2650.85521	3266.5
2653.4993	3260.7
2656.14175	3272.9
2658.78255	3270.5
2661.42171	3250.3
2664.05923	3243.7
2666.6951	3257.2
2669.32934	3264.7
2671.96194	3235.9
2674.59291	3262.7
2677.22224	3237.4
2679.84993	3268.9
2682.476	3263.1
2685.10043	3256.2
2687.72324	3248.1
2690.34441	3264
2692.96396	3255.4
2695.58188	3252.2
2698.19818	3264.9
2700.81285	3241.4
2703.4259	3252.7
2706.03733	3271.6
2708.64714	3263.4
2711.25533	3277.1
2713.86191	3256.7
2716.46687	3255.1
2719.07021	3258.4
2721.67194	3255.5
2724.27206	3256.8
2726.87057	3253.8
2729.46747	3258.1
2732.06276	3243.5
2734.65644	3260
2737.24852	3236.3
2739.83899	3242.4
2742.42786	3232.1
2745.01513	3238.6
2747.60079	3217.8
2750.18486	3218.1
2752.76733	3212.4
2755.3482	3209.8
2757.92747	3221.1
2760.50515	3215.1
2763.08123	3196.8
2765.65573	3189.4
2768.22863	3194.5
2770.79994	3193.6
2773.36967	3189.7
2775.9378	3178
2778.50435	3175.8
2781.06932	3172.3
2783.6327	3167.5
2786.1945	3172.2
2788.75471	3169.3
2791.31335	3159.6
2793.87041	3139
2796.42589	3141.9
2798.97979	3130.1
2801.53212	3121
2804.08288	3132.4
2806.63206	3125.5
2809.17967	3125.2
2811.72571	3110.1
2814.27018	3108
2816.81308	3088.2
2819.35442	3099.3
2821.89419	3087.8
2824.43239	3091.5
2826.96904	3070.8
2829.50412	3082.6
2832.03763	3080.1
2834.56959	3077.6
2837.1	3068.3
2839.62884	3073.9
2842.15613	3066.1
2844.68186	3075.9
2847.20604	3075.8
2849.72867	3068.7
2852.24974	3063.3
2854.76927	3075.7
2857.28724	3065.6
2859.80367	3073.3
2862.31855	3062.9
2864.83189	3070.8
2867.34368	3047.4
2869.85393	3060.9
2872.36264	3053.1
2874.8698	3045.2
2877.37543	3047.3
2879.87952	3054.5
2882.38207	3052.6
2884.88308	3055.4
2887.38256	3060.6
2889.88051	3063.9
2892.37692	3067.1
2894.8718	3066.4
2897.36515	3071.5
2899.85698	3068.7
2902.34727	3068.7
2904.83604	3083.4
2907.32328	3092.1
2909.809	3091
2912.29319	3076.2
2914.77587	3082.4
2917.25702	3096
2919.73665	3094.9
2922.21476	3099.6
2924.69136	3097.6
2927.16644	3117.5
2929.64	3253.8
2932.11205	3124
2934.58258	3102.9
2937.05161	3104.3
2939.51912	3101.6
2941.98513	3096.8
2944.44962	3092.6
2946.91261	3096
2949.37409	3098.2
2951.83407	3099.7
2954.29254	3111.2
2956.74951	3091.1
2959.20498	3094.5
2961.65895	3077.1
2964.11142	3077.2
2966.56239	3076.9
2969.01186	3069.3
2971.45984	3054.3
2973.90632	3033
2976.35131	3022.5
2978.7948	3038.4
2981.23681	3014.2
2983.67732	3016.5
2986.11635	3006.4
2988.55388	3010.4
2990.98993	3008.9
2993.4245	2998
2995.85758	2991.2
2998.28917	2987.1
3000.71928	2985.8
3003.14791	2981
3005.57506	2981.9
3008.00073	2974.8
3010.42493	2977.8
3012.84764	3000.5
3015.26888	2978
3017.68865	2963.2
3020.10694	2971.2
3022.52376	2969.2
3024.9391	2978.8
3027.35298	2965
3029.76539	2963.9
3032.17632	2957.1
3034.5858	2967.1
3036.9938	2962.6
3039.40034	2945.3
3041.80542	2944.5
3044.20903	2944.6
3046.61118	2933.9
3049.01187	2946.3
3051.4111	2943.4
3053.80888	2952.3
3056.20519	2937.7
3058.60005	2940.5
3060.99345	2930
3063.3854	2926.4
3065.7759	2920.1
3068.16494	2915.4
3070.55254	2919.8
3072.93868	2933.2
3075.32338	2917.8
3077.70662	2910.2
3080.08842	2931.4
3082.46878	2947
3084.84769	2919
3087.22515	2924.1
3089.60118	2928.7
3091.97576	2922.3
3094.3489	2931.4
3096.72061	2935.7
3099.09087	2955.4
3101.4597	2948.2
3103.82709	2947.4
3106.19305	2951.5
3108.55757	2958.1
3110.92066	2931.3
3113.28232	2937.9
3115.64255	2945.7
3118.00134	2945.2
3120.35871	2949.2
3122.71466	2952.4
3125.06917	2950.1
3127.42226	2948.8
3129.77393	2968.2
3132.12417	2965.2
3134.47299	2959.3
3136.82039	2970.4
3139.16636	2977.7
3141.51092	2980.4
3143.85406	3008.1
3146.19579	2988
3148.53609	3005.9
3150.87499	3017.6
3153.21246	3025.6
3155.54853	3031.5
3157.88318	3049.3
3160.21642	3046.8
3162.54826	3051.5
3164.87868	3053.2
3167.2077	3046.7
3169.5353	3056.9
3171.86151	3061.6
3174.18631	3069.7
3176.5097	3073.5
3178.83169	3061.7
3181.15228	3077.5
3183.47147	3090.8
3185.78926	3079.5
3188.10565	3088.5
3190.42065	3087.1
3192.73424	3090.6
3195.04645	3098.7
3197.35725	3095.3
3199.66667	3112.6
3201.97469	3113.7
3204.28132	3106.6
3206.58656	3112.5
3208.8904	3132.4
3211.19287	3148.3
3213.49394	3136.1
3215.79363	3143.3
3218.09193	3143.1
3220.38884	3151.6
3222.68438	3141.9
3224.97853	3147.2
3227.2713	3150.1
3229.56269	3132.1
3231.8527	3147.8
3234.14133	3146.7
3236.42858	3141
3238.71446	3139.4
3240.99896	3125.8
3243.28209	3133.9
3245.56384	3132.2
3247.84423	3142.8
3250.12324	3125.1
3252.40088	3128.6
3254.67715	3136.9
3256.95205	3119.8
3259.22558	3121.6
3261.49775	3121
3263.76855	3117.5
3266.03799	3124.2
3268.30606	3113.2
3270.57277	3106.8
3272.83812	3104
3275.10211	3105.2
3277.36474	3093.6
3279.62601	3111.3
3281.88593	3103.7
3284.14448	3101.2
3286.40168	3109.9
3288.65753	3092
3290.91202	3098.4
3293.16516	3075.3
3295.41695	3068.2
3297.66738	3061.4
3299.91647	3044.7
3302.16421	3036.6
3304.4106	3018.7
3306.65564	3006.3
3308.89933	2990.6
3311.14169	2984.1
3313.38269	2968.8
3315.62236	2944.9
3317.86068	2917.5
3320.09766	2885.2
3322.3333	2880.3
3324.5676	2891.4
3326.80056	2845.1
3329.03219	2831.8
3331.26248	1
3333.49143	1
3335.71905	-0.9
