Data from AgNPs_FTO_APTES_UA_0.1mM_CRN_100uM_NaF_0.1M_Addition_RamanShift__26__13-46-37-700.txt Node

Date: Mon Dec 20 13:46:37 GMT 2021
User: TCL
Spectrometer: QEP01345
Trigger mode: 4
Integration Time (sec): 7.000000E0
Scans to average: 10
Electric dark correction enabled: true
Nonlinearity correction enabled: false
Boxcar width: 0
XAxis mode: Raman Shifts
Number of Pixels in Spectrum: 1044
>>>>>Begin Spectral Data<<<<<
46.04893	0.2625
50.45542	-0.0375
54.85868	-1.0375
59.25871	1.7625
63.6555	26.7625
68.04907	32.2625
72.43941	34.0625
76.82654	35.0625
81.21044	35.1625
85.59113	43.2625
89.96862	39.2625
94.34289	45.2625
98.71396	43.7625
103.08183	40.1625
107.4465	42.7625
111.80798	46.8625
116.16626	45.2625
120.52136	49.2625
124.87327	53.3625
129.222	48.1625
133.56755	53.1625
137.90993	53.6625
142.24913	60.2625
146.58517	65.0625
150.91804	73.2625
155.24774	92.0625
159.57429	105.8625
163.89768	135.7625
168.21792	174.3625
172.53501	224.8625
176.84895	308.7625
181.15975	428.2625
185.46741	592.8625
189.77193	820.2625
194.07331	1095.7625
198.37157	1425.0625
202.6667	1772.2625
206.9587	2129.5625
211.24758	2471.3625
215.53334	2820.6625
219.81599	3166.3625
224.09553	3535.3625
228.37195	3935.0625
232.64527	4368.8625
236.91549	4792.7625
241.18261	5214.5625
245.44663	5591.3625
249.70755	5922.0625
253.96539	6219.9625
258.22014	6442.2625
262.4718	6619.2625
266.72039	6693.4625
270.96589	6724.8625
275.20832	6692.1625
279.44768	6614.6625
283.68397	6501.8625
287.91719	6410.2625
292.14735	6353.5625
296.37445	6338.0625
300.59849	6367.2625
304.81948	6457.6625
309.03742	6493.1625
313.25231	6409.4625
317.46415	6278.3625
321.67296	6086.4625
325.87872	5915.4625
330.08145	5812.3625
334.28114	5805.0625
338.47781	5831.5625
342.67145	5910.3625
346.86207	5989.9625
351.04966	6147.1625
355.23424	6319.6625
359.4158	6477.7625
363.59435	6579.3625
367.76989	6626.8625
371.94243	6698.6625
376.11196	6723.5625
380.27849	6764.7625
384.44203	6820.0625
388.60257	6834.8625
392.76012	6900.0625
396.91468	6945.3625
401.06626	7041.5625
405.21485	7089.8625
409.36047	7059.6625
413.50311	6938.5625
417.64277	6814.1625
421.77947	6718.1625
425.9132	6679.7625
430.04396	6669.1625
434.17176	6717.1625
438.2966	6745.0625
442.41849	6840.5625
446.53742	6928.4625
450.6534	7040.2625
454.76644	7105.2625
458.87653	7135.7625
462.98368	7125.7625
467.08789	7114.3625
471.18916	7101.6625
475.2875	7085.1625
479.38291	7121.9625
483.4754	7210.0625
487.56496	7303.1625
491.6516	7434.7625
495.73531	7497.1625
499.81612	7433.6625
503.89401	7341.4625
507.96899	7240.0625
512.04106	7172.7625
516.11023	7241.0625
520.1765	7305.7625
524.23987	7401.5625
528.30034	7440.3625
532.35792	7418.4625
536.41261	7333.5625
540.46441	7203.0625
544.51333	7063.6625
548.55936	6964.2625
552.60252	6943.1625
556.64279	7004.1625
560.6802	7030.7625
564.71473	7085.2625
568.7464	7230.2625
572.7752	7291.2625
576.80114	7255.6625
580.82422	7224.5625
584.84444	7259.7625
588.86181	7364.7625
592.87633	7461.9625
596.888	7467.9625
600.89682	7491.1625
604.9028	7722.4625
608.90594	8436.9625
612.90624	9508.2625
616.90371	9663.3625
620.89834	8733.9625
624.89015	8572.4625
628.87913	9056.7625
632.86528	9664.5625
636.84862	9971.2625
640.82913	9771.3625
644.80683	9191.1625
648.78172	8511.1625
652.75379	8034.4625
656.72306	7775.8625
660.68952	7701.6625
664.65319	7589.2625
668.61405	7493.6625
672.57211	7434.5625
676.52738	7455.0625
680.47986	7486.1625
684.42955	7439.5625
688.37646	7418.9625
692.32058	7379.0625
696.26192	7342.2625
700.20048	7306.7625
704.13626	7260.4625
708.06928	7183.4625
711.99952	7097.3625
715.927	7069.2625
719.85171	7104.1625
723.77365	7172.5625
727.69284	7185.9625
731.60928	7107.1625
735.52295	6994.3625
739.43388	6922.9625
743.34206	6925.5625
747.24749	6941.1625
751.15017	6964.6625
755.05012	7006.8625
758.94733	7096.3625
762.8418	7319.9625
766.73354	7764.4625
770.62254	8178.0625
774.50882	8369.0625
778.39237	8211.4625
782.27321	7747.5625
786.15132	7339.0625
790.02671	7117.2625
793.89938	7051.2625
797.76935	7093.6625
801.6366	7244.7625
805.50115	7522.2625
809.36299	7851.5625
813.22213	8020.2625
817.07857	7899.3625
820.93231	7597.3625
824.78336	7207.7625
828.63172	6939.4625
832.47738	6782.8625
836.32036	6698.0625
840.16066	6630.7625
843.99827	6615.6625
847.8332	6596.8625
851.66546	6569.9625
855.49504	6556.4625
859.32195	6585.2625
863.1462	6596.4625
866.96777	6679.5625
870.78668	6797.3625
874.60293	6983.6625
878.41652	7209.1625
882.22745	7445.1625
886.03573	7592.5625
889.84136	7607.9625
893.64433	7444.0625
897.44466	7133.9625
901.24235	6826.3625
905.0374	6586.5625
908.8298	6435.3625
912.61957	6343.7625
916.40671	6302.3625
920.19121	6276.6625
923.97308	6278.2625
927.75233	6256.2625
931.52895	6271.3625
935.30295	6269.2625
939.07433	6213.8625
942.84309	6180.4625
946.60924	6143.3625
950.37278	6130.0625
954.13371	6124.1625
957.89203	6111.5625
961.64774	6083.1625
965.40086	6044.2625
969.15137	6010.3625
972.89929	5984.9625
976.64461	5964.3625
980.38733	5937.6625
984.12747	5953.0625
987.86502	5968.1625
991.59999	6012.2625
995.33237	6064.8625
999.06217	6181.1625
1002.78939	6315.3625
1006.51404	6479.8625
1010.23611	6628.4625
1013.95561	6723.9625
1017.67255	6773.1625
1021.38692	6733.1625
1025.09872	6594.0625
1028.80796	6479.2625
1032.51465	6336.3625
1036.21877	6244.4625
1039.92035	6160.0625
1043.61937	6148.1625
1047.31584	6137.1625
1051.00976	6115.7625
1054.70114	6139.5625
1058.38998	6175.8625
1062.07627	6250.9625
1065.76003	6328.3625
1069.44126	6382.9625
1073.11995	6439.3625
1076.79611	6476.5625
1080.46974	6420.6625
1084.14085	6380.3625
1087.80943	6317.8625
1091.47549	6286.2625
1095.13903	6199.1625
1098.80005	6129.7625
1102.45857	6091.1625
1106.11456	6060.3625
1109.76805	6114.9625
1113.41903	6239.4625
1117.06751	6457.6625
1120.71348	6776.5625
1124.35696	7235.3625
1127.99793	7794.3625
1131.63641	8329.2625
1135.2724	8571.1625
1138.90589	8578.4625
1142.5369	8318.6625
1146.16542	7867.5625
1149.79145	7376.2625
1153.415	6954.9625
1157.03607	6613.7625
1160.65467	6436.4625
1164.27079	6391.4625
1167.88443	6453.5625
1171.49561	6637.6625
1175.10432	6927.1625
1178.71056	7346.6625
1182.31434	7765.4625
1185.91565	7994.3625
1189.51451	8022.9625
1193.11091	8061.4625
1196.70485	8133.5625
1200.29634	8229.7625
1203.88538	8285.0625
1207.47197	8146.4625
1211.05612	7856.8625
1214.63782	7501.0625
1218.21708	7144.9625
1221.79391	6847.5625
1225.36829	6653.1625
1228.94024	6504.9625
1232.50976	6393.7625
1236.07685	6335.7625
1239.6415	6343.7625
1243.20374	6358.7625
1246.76355	6409.8625
1250.32093	6469.4625
1253.8759	6499.1625
1257.42845	6577.6625
1260.97859	6654.0625
1264.52631	6707.8625
1268.07163	6757.6625
1271.61453	6791.8625
1275.15503	6814.3625
1278.69312	6811.8625
1282.22882	6830.5625
1285.76211	6882.4625
1289.29301	7002.8625
1292.82151	7169.4625
1296.34761	7363.3625
1299.87133	7644.2625
1303.39266	7998.8625
1306.9116	8502.6625
1310.42815	9054.4625
1313.94233	9381.4625
1317.45412	9336.3625
1320.96354	9061.6625
1324.47058	8802.2625
1327.97525	8575.7625
1331.47754	8487.2625
1334.97747	8478.7625
1338.47502	8586.7625
1341.97022	8767.2625
1345.46305	8940.4625
1348.95352	9207.9625
1352.44163	9519.6625
1355.92738	9921.8625
1359.41078	10611.4625
1362.89183	11252.9625
1366.37053	11077.1625
1369.84688	10137.9625
1373.32088	9191.6625
1376.79254	8528.9625
1380.26186	8168.2625
1383.72883	7938.8625
1387.19347	7788.8625
1390.65578	7666.8625
1394.11575	7560.6625
1397.57339	7478.6625
1401.0287	7461.5625
1404.48168	7426.9625
1407.93234	7381.0625
1411.38068	7255.6625
1414.82669	7075.8625
1418.27039	6868.2625
1421.71177	6637.4625
1425.15083	6424.5625
1428.58758	6294.4625
1432.02203	6225.5625
1435.45416	6222.0625
1438.88399	6231.5625
1442.31151	6217.6625
1445.73673	6247.7625
1449.15965	6268.9625
1452.58027	6286.7625
1455.9986	6273.5625
1459.41463	6252.7625
1462.82837	6310.0625
1466.23982	6379.9625
1469.64898	6457.4625
1473.05586	6511.1625
1476.46045	6510.6625
1479.86276	6531.5625
1483.26279	6560.0625
1486.66054	6625.0625
1490.05602	6711.8625
1493.44922	6857.5625
1496.84016	7066.9625
1500.22882	7369.2625
1503.61521	7851.9625
1506.99934	8448.9625
1510.38121	8929.8625
1513.76081	9054.7625
1517.13816	8666.1625
1520.51324	8039.7625
1523.88607	7452.8625
1527.25665	7086.9625
1530.62498	6953.3625
1533.99105	6915.4625
1537.35488	6896.2625
1540.71647	6935.9625
1544.07581	6961.6625
1547.4329	7024.0625
1550.78776	7036.4625
1554.14038	7047.3625
1557.49077	7058.7625
1560.83892	7097.5625
1564.18484	7156.9625
1567.52853	7246.3625
1570.86999	7329.2625
1574.20922	7396.0625
1577.54624	7434.5625
1580.88103	7359.6625
1584.2136	7246.8625
1587.54395	7139.2625
1590.87208	7200.7625
1594.19801	7348.1625
1597.52172	7614.1625
1600.84321	7742.3625
1604.16251	7680.8625
1607.47959	7508.9625
1610.79447	7294.7625
1614.10715	7046.5625
1617.41763	6898.4625
1620.7259	6758.6625
1624.03199	6699.7625
1627.33587	6694.8625
1630.63757	6699.1625
1633.93707	6841.9625
1637.23439	7056.2625
1640.52951	7425.2625
1643.82246	7889.6625
1647.11321	8454.7625
1650.40179	8816.7625
1653.68819	8714.9625
1656.97241	8141.8625
1660.25446	7500.6625
1663.53433	6993.0625
1666.81203	6656.0625
1670.08756	6454.5625
1673.36092	6290.6625
1676.63211	6189.0625
1679.90115	6111.2625
1683.16801	6018.5625
1686.43272	5929.2625
1689.69527	5828.6625
1692.95567	5763.9625
1696.2139	5663.2625
1699.46999	5539.4625
1702.72392	5404.9625
1705.97571	5278.5625
1709.22535	5146.0625
1712.47284	5079.1625
1715.71819	4988.1625
1718.96139	4930.5625
1722.20246	4865.0625
1725.44139	4816.8625
1728.67818	4759.6625
1731.91284	4712.8625
1735.14537	4680.6625
1738.37576	4642.2625
1741.60403	4608.4625
1744.83017	4595.8625
1748.05418	4590.0625
1751.27607	4569.1625
1754.49584	4573.9625
1757.71349	4552.4625
1760.92903	4545.0625
1764.14244	4507.4625
1767.35375	4490.7625
1770.56294	4452.6625
1773.77002	4402.5625
1776.97499	4399.1625
1780.17785	4341.2625
1783.37861	4317.4625
1786.57727	4281.4625
1789.77382	4257.0625
1792.96828	4256.8625
1796.16064	4216.6625
1799.3509	4189.9625
1802.53907	4194.3625
1805.72514	4157.8625
1808.90913	4161.2625
1812.09102	4120.6625
1815.27083	4122.2625
1818.44856	4089.5625
1821.6242	4102.6625
1824.79776	4100.8625
1827.96924	4087.4625
1831.13864	4069.5625
1834.30597	4067.8625
1837.47122	4050.4625
1840.6344	4053.7625
1843.7955	4046.4625
1846.95454	4025.3625
1850.11151	4041.9625
1853.26642	4026.4625
1856.41926	4030.7625
1859.57004	4012.7625
1862.71876	4025.3625
1865.86542	3997.6625
1869.01003	4003.9625
1872.15258	3989.1625
1875.29308	3988.1625
1878.43152	3977.8625
1881.56792	3974.5625
1884.70227	3963.5625
1887.83457	3966.3625
1890.96482	3946.4625
1894.09304	3944.3625
1897.21921	3926.0625
1900.34335	3931.7625
1903.46544	3921.1625
1906.58551	3922.1625
1909.70353	3916.2625
1912.81953	3902.8625
1915.93349	3896.8625
1919.04543	3895.4625
1922.15534	3873.9625
1925.26322	3869.5625
1928.36908	3860.4625
1931.47292	3860.2625
1934.57473	3852.3625
1937.67453	3823.2625
1940.77232	3819.3625
1943.86808	3802.1625
1946.96184	3798.6625
1950.05358	3786.4625
1953.14331	3768.3625
1956.23103	3752.1625
1959.31675	3746.4625
1962.40046	3731.0625
1965.48217	3728.0625
1968.56188	3699.9625
1971.63959	3698.5625
1974.7153	3688.0625
1977.78901	3670.3625
1980.86073	3669.0625
1983.93046	3648.3625
1986.99819	3636.0625
1990.06394	3622.1625
1993.1277	3625.8625
1996.18947	3586.6625
1999.24925	3601.3625
2002.30706	3592.1625
2005.36288	3562.5625
2008.41672	3563.0625
2011.46859	3544.0625
2014.51848	3537.3625
2017.56639	3519.5625
2020.61233	3511.0625
2023.6563	3512.8625
2026.6983	3497.0625
2029.73833	3493.3625
2032.7764	3476.6625
2035.8125	3472.0625
2038.84664	3448.7625
2041.87881	3456.8625
2044.90903	3433.4625
2047.93729	3451.3625
2050.96359	3446.4625
2053.98794	3429.6625
2057.01034	3431.7625
2060.03078	3415.3625
2063.04927	3409.2625
2066.06582	3404.3625
2069.08042	3413.3625
2072.09307	3402.4625
2075.10378	3401.9625
2078.11255	3397.4625
2081.11938	3398.6625
2084.12426	3394.0625
2087.12722	3395.8625
2090.12824	3394.7625
2093.12732	3390.2625
2096.12447	3399.6625
2099.11969	3385.6625
2102.11299	3384.9625
2105.10435	3385.1625
2108.09379	3381.2625
2111.08131	3382.1625
2114.0669	3385.1625
2117.05057	3378.7625
2120.03233	3375.2625
2123.01216	3400.7625
2125.99008	3399.7625
2128.96609	3379.8625
2131.94018	3399.1625
2134.91236	3390.6625
2137.88263	3405.4625
2140.851	3402.8625
2143.81746	3395.9625
2146.78201	3409.1625
2149.74466	3400.0625
2152.7054	3380.1625
2155.66425	3382.3625
2158.6212	3388.4625
2161.57625	3379.8625
2164.52941	3392.6625
2167.48067	3387.8625
2170.43004	3386.5625
2173.37752	3379.4625
2176.32311	3375.8625
2179.26681	3373.5625
2182.20863	3379.1625
2185.14856	3361.6625
2188.08661	3365.0625
2191.02278	3349.3625
2193.95707	3358.2625
2196.88948	3356.2625
2199.82001	3341.7625
2202.74867	3340.0625
2205.67545	3336.6625
2208.60037	3317.4625
2211.52341	3313.6625
2214.44458	3324.8625
2217.36388	3307.7625
2220.28132	3295.5625
2223.1969	3289.1625
2226.11061	3299.1625
2229.02246	3273.8625
2231.93245	3278.6625
2234.84058	3268.0625
2237.74686	3260.7625
2240.65128	3260.2625
2243.55385	3246.4625
2246.45456	3256.0625
2249.35343	3225.7625
2252.25044	3218.7625
2255.14561	3224.4625
2258.03893	3253.1625
2260.93041	3224.5625
2263.82004	3212.4625
2266.70783	3195.9625
2269.59378	3201.0625
2272.4779	3185.9625
2275.36017	3168.5625
2278.24061	3165.4625
2281.11922	3144.7625
2283.996	3156.5625
2286.87094	3152.2625
2289.74405	3140.4625
2292.61534	3137.8625
2295.4848	3136.8625
2298.35243	3120.4625
2301.21824	3121.1625
2304.08223	3111.1625
2306.94439	3116.6625
2309.80474	3115.2625
2312.66327	3107.2625
2315.51999	3112.1625
2318.37489	3107.7625
2321.22797	3105.4625
2324.07925	3091.0625
2326.92871	3090.8625
2329.77637	3082.9625
2332.62222	3077.9625
2335.46626	3068.1625
2338.3085	3061.8625
2341.14893	3054.1625
2343.98756	3059.4625
2346.8244	3040.3625
2349.65943	3051.5625
2352.49267	3053.8625
2355.32411	3062.1625
2358.15376	3045.8625
2360.98161	3039.8625
2363.80768	3041.4625
2366.63195	3045.6625
2369.45444	3037.7625
2372.27514	3038.1625
2375.09405	3036.5625
2377.91118	3028.0625
2380.72652	3000.6625
2383.54009	2997.1625
2386.35187	2999.0625
2389.16188	2992.0625
2391.97011	2988.8625
2394.77657	2986.3625
2397.58125	2977.7625
2400.38416	2977.9625
2403.18529	2961.4625
2405.98466	2967.2625
2408.78226	2959.2625
2411.57809	2939.7625
2414.37216	2935.0625
2417.16446	2926.1625
2419.955	2929.3625
2422.74378	2925.8625
2425.5308	2922.3625
2428.31606	2908.4625
2431.09956	2896.2625
2433.88131	2904.1625
2436.6613	2893.7625
2439.43954	2901.4625
2442.21603	2878.9625
2444.99077	2898.1625
2447.76377	2891.8625
2450.53501	2888.3625
2453.30451	2884.6625
2456.07226	2869.5625
2458.83827	2880.5625
2461.60254	2867.4625
2464.36507	2858.8625
2467.12586	2859.1625
2469.88492	2866.8625
2472.64224	2855.0625
2475.39782	2859.8625
2478.15167	2850.6625
2480.90379	2860.0625
2483.65417	2850.6625
2486.40283	2850.9625
2489.14976	2844.1625
2491.89497	2849.1625
2494.63845	2847.5625
2497.3802	2831.1625
2500.12024	2843.7625
2502.85855	2841.5625
2505.59514	2838.6625
2508.33002	2835.1625
2511.06318	2828.8625
2513.79462	2815.0625
2516.52435	2799.3625
2519.25237	2800.5625
2521.97867	2798.0625
2524.70327	2798.8625
2527.42616	2790.5625
2530.14734	2784.7625
2532.86681	2762.8625
2535.58458	2780.7625
2538.30065	2766.5625
2541.01501	2775.6625
2543.72768	2751.9625
2546.43864	2761.5625
2549.14791	2750.5625
2551.85548	2738.8625
2554.56136	2735.8625
2557.26554	2729.5625
2559.96803	2724.3625
2562.66883	2728.4625
2565.36794	2753.0625
2568.06536	2712.5625
2570.7611	2719.5625
2573.45514	2704.1625
2576.14751	2700.2625
2578.83819	2688.0625
2581.52719	2692.2625
2584.21451	2681.2625
2586.90015	2674.9625
2589.58411	2662.9625
2592.2664	2672.5625
2594.94701	2658.9625
2597.62594	2662.7625
2600.30321	2648.8625
2602.9788	2651.5625
2605.65273	2636.5625
2608.32498	2638.6625
2610.99557	2636.9625
2613.66449	2636.6625
2616.33175	2612.6625
2618.99734	2624.2625
2621.66128	2624.3625
2624.32355	2621.2625
2626.98416	2614.2625
2629.64311	2617.4625
2632.30041	2613.7625
2634.95605	2615.3625
2637.61004	2606.5625
2640.26238	2593.0625
2642.91306	2597.1625
2645.56209	2585.5625
2648.20948	2600.2625
2650.85521	2586.5625
2653.4993	2582.8625
2656.14175	2591.5625
2658.78255	2589.0625
2661.42171	2594.4625
2664.05923	2584.2625
2666.6951	2572.9625
2669.32934	2576.3625
2671.96194	2573.1625
2674.59291	2573.1625
2677.22224	2586.7625
2679.84993	2589.0625
2682.476	2585.6625
2685.10043	2587.5625
2687.72324	2581.9625
2690.34441	2582.2625
2692.96396	2577.4625
2695.58188	2582.4625
2698.19818	2586.6625
2700.81285	2591.2625
2703.4259	2596.9625
2706.03733	2598.0625
2708.64714	2600.7625
2711.25533	2586.7625
2713.86191	2594.2625
2716.46687	2590.9625
2719.07021	2593.4625
2721.67194	2576.3625
2724.27206	2573.1625
2726.87057	2589.7625
2729.46747	2574.8625
2732.06276	2573.8625
2734.65644	2579.3625
2737.24852	2575.8625
2739.83899	2565.3625
2742.42786	2567.9625
2745.01513	2558.2625
2747.60079	2548.2625
2750.18486	2548.5625
2752.76733	2557.3625
2755.3482	2545.3625
2757.92747	2552.7625
2760.50515	2543.2625
2763.08123	2535.6625
2765.65573	2535.1625
2768.22863	2544.4625
2770.79994	2536.5625
2773.36967	2534.7625
2775.9378	2522.8625
2778.50435	2515.7625
2781.06932	2510.3625
2783.6327	2514.4625
2786.1945	2523.7625
2788.75471	2509.3625
2791.31335	2502.5625
2793.87041	2498.5625
2796.42589	2495.4625
2798.97979	2498.0625
2801.53212	2493.8625
2804.08288	2487.8625
2806.63206	2493.3625
2809.17967	2470.5625
2811.72571	2476.5625
2814.27018	2474.3625
2816.81308	2467.2625
2819.35442	2467.6625
2821.89419	2448.7625
2824.43239	2460.9625
2826.96904	2466.0625
2829.50412	2460.1625
2832.03763	2462.1625
2834.56959	2459.2625
2837.1	2448.3625
2839.62884	2445.7625
2842.15613	2450.1625
2844.68186	2451.2625
2847.20604	2446.7625
2849.72867	2460.6625
2852.24974	2463.2625
2854.76927	2453.8625
2857.28724	2461.2625
2859.80367	2453.2625
2862.31855	2444.8625
2864.83189	2453.4625
2867.34368	2439.2625
2869.85393	2454.8625
2872.36264	2438.0625
2874.8698	2448.6625
2877.37543	2451.1625
2879.87952	2451.0625
2882.38207	2443.6625
2884.88308	2453.8625
2887.38256	2456.0625
2889.88051	2452.5625
2892.37692	2453.0625
2894.8718	2461.4625
2897.36515	2461.8625
2899.85698	2456.1625
2902.34727	2463.7625
2904.83604	2468.4625
2907.32328	2474.5625
2909.809	2480.4625
2912.29319	2478.5625
2914.77587	2493.7625
2917.25702	2482.7625
2919.73665	2487.5625
2922.21476	2480.6625
2924.69136	2481.7625
2927.16644	2490.8625
2929.64	2478.0625
2932.11205	2489.0625
2934.58258	2486.0625
2937.05161	2470.7625
2939.51912	2475.2625
2941.98513	2485.8625
2944.44962	2479.3625
2946.91261	2471.6625
2949.37409	2469.7625
2951.83407	2481.3625
2954.29254	2469.8625
2956.74951	2468.0625
2959.20498	2468.3625
2961.65895	2463.5625
2964.11142	2462.4625
2966.56239	2449.1625
2969.01186	2444.4625
2971.45984	2441.4625
2973.90632	2434.2625
2976.35131	2415.4625
2978.7948	2422.1625
2981.23681	2411.4625
2983.67732	2411.4625
2986.11635	2390.2625
2988.55388	2397.6625
2990.98993	2395.5625
2993.4245	2396.6625
2995.85758	2379.2625
2998.28917	2396.1625
3000.71928	2387.6625
3003.14791	2388.7625
3005.57506	2393.6625
3008.00073	2393.2625
3010.42493	2379.0625
3012.84764	2390.7625
3015.26888	2378.1625
3017.68865	2383.9625
3020.10694	2381.4625
3022.52376	2379.2625
3024.9391	2388.8625
3027.35298	2374.8625
3029.76539	2383.7625
3032.17632	2378.2625
3034.5858	2379.7625
3036.9938	2379.7625
3039.40034	2371.1625
3041.80542	2382.8625
3044.20903	2380.4625
3046.61118	2383.7625
3049.01187	2367.1625
3051.4111	2373.5625
3053.80888	2377.2625
3056.20519	2384.8625
3058.60005	2368.3625
3060.99345	2372.2625
3063.3854	2364.3625
3065.7759	2369.6625
3068.16494	2361.2625
3070.55254	2359.0625
3072.93868	2372.3625
3075.32338	2363.3625
3077.70662	2369.5625
3080.08842	2373.0625
3082.46878	2377.5625
3084.84769	2369.9625
3087.22515	2377.9625
3089.60118	2380.1625
3091.97576	2385.4625
3094.3489	2398.1625
3096.72061	2401.6625
3099.09087	2402.2625
3101.4597	2410.2625
3103.82709	2406.1625
3106.19305	2402.5625
3108.55757	2417.2625
3110.92066	2410.7625
3113.28232	2413.6625
3115.64255	2423.8625
3118.00134	2412.4625
3120.35871	2434.0625
3122.71466	2433.2625
3125.06917	2432.2625
3127.42226	2425.7625
3129.77393	2436.4625
3132.12417	2442.7625
3134.47299	2447.8625
3136.82039	2457.7625
3139.16636	2461.0625
3141.51092	2473.6625
3143.85406	2476.6625
3146.19579	2487.2625
3148.53609	2500.0625
3150.87499	2516.8625
3153.21246	2512.1625
3155.54853	2539.4625
3157.88318	2531.2625
3160.21642	2551.8625
3162.54826	2542.8625
3164.87868	2551.0625
3167.2077	2561.3625
3169.5353	2569.4625
3171.86151	2564.0625
3174.18631	2584.0625
3176.5097	2570.6625
3178.83169	2578.8625
3181.15228	2601.9625
3183.47147	2591.2625
3185.78926	2601.9625
3188.10565	2597.4625
3190.42065	2608.7625
3192.73424	2601.6625
3195.04645	2615.1625
3197.35725	2608.6625
3199.66667	2631.1625
3201.97469	2631.2625
3204.28132	2633.6625
3206.58656	2642.9625
3208.8904	2642.8625
3211.19287	2659.2625
3213.49394	2664.0625
3215.79363	2677.5625
3218.09193	2688.5625
3220.38884	2677.8625
3222.68438	2691.2625
3224.97853	2674.0625
3227.2713	2669.5625
3229.56269	2667.7625
3231.8527	2697.1625
3234.14133	2684.5625
3236.42858	2686.4625
3238.71446	2677.6625
3240.99896	2671.7625
3243.28209	2676.1625
3245.56384	2671.9625
3247.84423	2686.1625
3250.12324	2667.2625
3252.40088	2687.3625
3254.67715	2682.2625
3256.95205	2673.4625
3259.22558	2682.8625
3261.49775	2673.5625
3263.76855	2665.0625
3266.03799	2671.3625
3268.30606	2673.7625
3270.57277	2667.9625
3272.83812	2661.9625
3275.10211	2658.4625
3277.36474	2658.2625
3279.62601	2659.9625
3281.88593	2662.0625
3284.14448	2670.4625
3286.40168	2654.7625
3288.65753	2655.1625
3290.91202	2641.8625
3293.16516	2623.5625
3295.41695	2633.4625
3297.66738	2613.8625
3299.91647	2615.5625
3302.16421	2604.9625
3304.4106	2591.3625
3306.65564	2578.1625
3308.89933	2577.5625
3311.14169	2566.1625
3313.38269	2540.5625
3315.62236	2525.5625
3317.86068	2504.3625
3320.09766	2468.4625
3322.3333	2465.3625
3324.5676	2468.9625
3326.80056	2424.1625
3329.03219	2420.3625
3331.26248	-0.4375
3333.49143	0.7625
3335.71905	-0.8375
