Data from AgNPs_FTO_APTES_UA_0.1mM_CRN_10uM_NaF_0.1M_Addition_RamanShift__4__11-23-07-537.txt Node

Date: Mon Dec 20 11:23:07 GMT 2021
User: TCL
Spectrometer: QEP01345
Trigger mode: 4
Integration Time (sec): 7.000000E0
Scans to average: 10
Electric dark correction enabled: true
Nonlinearity correction enabled: false
Boxcar width: 0
XAxis mode: Raman Shifts
Number of Pixels in Spectrum: 1044
>>>>>Begin Spectral Data<<<<<
46.04893	0.4
50.45542	-0.7
54.85868	-0.5
59.25871	0.5
63.6555	30.2
68.04907	30.4
72.43941	33.6
76.82654	33.2
81.21044	35.2
85.59113	42.3
89.96862	35.1
94.34289	39.4
98.71396	41.4
103.08183	39.2
107.4465	41.9
111.80798	45.2
116.16626	43.2
120.52136	46.6
124.87327	47
129.222	48.5
133.56755	51.4
137.90993	52.1
142.24913	54.1
146.58517	56.1
150.91804	68
155.24774	79.4
159.57429	93.1
163.89768	116.4
168.21792	152.4
172.53501	192.9
176.84895	266.5
181.15975	365.9
185.46741	499.7
189.77193	682.5
194.07331	909.3
198.37157	1160.8
202.6667	1451.4
206.9587	1722.4
211.24758	1991.9
215.53334	2274.7
219.81599	2574
224.09553	2888
228.37195	3244.9
232.64527	3638.7
236.91549	4032.1
241.18261	4431.3
245.44663	4774.8
249.70755	5097.2
253.96539	5328.8
258.22014	5501.4
262.4718	5633.4
266.72039	5696.2
270.96589	5712.8
275.20832	5705.6
279.44768	5610.8
283.68397	5566.3
287.91719	5462.6
292.14735	5409
296.37445	5374.9
300.59849	5363.9
304.81948	5372.7
309.03742	5363.3
313.25231	5323.2
317.46415	5277.5
321.67296	5150.6
325.87872	5071.3
330.08145	4991.3
334.28114	4959.3
338.47781	4988.9
342.67145	4999.8
346.86207	5060.9
351.04966	5121.9
355.23424	5202.6
359.4158	5280.4
363.59435	5314.4
367.76989	5383.7
371.94243	5455.6
376.11196	5483.5
380.27849	5515.7
384.44203	5579.3
388.60257	5634.1
392.76012	5678.2
396.91468	5755.3
401.06626	5816
405.21485	5865
409.36047	5859.4
413.50311	5794.3
417.64277	5748.3
421.77947	5764.9
425.9132	5753
430.04396	5751.8
434.17176	5798.9
438.2966	5834.1
442.41849	5856.9
446.53742	5956.5
450.6534	6059.3
454.76644	6121.7
458.87653	6141.8
462.98368	6153.2
467.08789	6108.5
471.18916	6120.9
475.2875	6105
479.38291	6131.7
483.4754	6209.4
487.56496	6306.7
491.6516	6436.7
495.73531	6499.2
499.81612	6533.6
503.89401	6498.8
507.96899	6445.9
512.04106	6343.1
516.11023	6284.6
520.1765	6227.6
524.23987	6238.3
528.30034	6259
532.35792	6268.7
536.41261	6206.6
540.46441	6166.7
544.51333	6048
548.55936	6025.7
552.60252	6025.4
556.64279	6085.1
560.6802	6104.4
564.71473	6112.9
568.7464	6154
572.7752	6244.7
576.80114	6314.1
580.82422	6404.5
584.84444	6576.8
588.86181	6772.8
592.87633	6915.8
596.888	6917.2
600.89682	6797.2
604.9028	6759.8
608.90594	7061.3
612.90624	7540.4
616.90371	7488.1
620.89834	6921.3
624.89015	6861.6
628.87913	7250.2
632.86528	7737.8
636.84862	8048.2
640.82913	8040.5
644.80683	7747.7
648.78172	7330.9
652.75379	6975.3
656.72306	6702.5
660.68952	6548.5
664.65319	6390.4
668.61405	6233.7
672.57211	6164.2
676.52738	6197.5
680.47986	6211.2
684.42955	6203.5
688.37646	6192.5
692.32058	6149.3
696.26192	6098.4
700.20048	6061.1
704.13626	6039.2
708.06928	6021.6
711.99952	5996.4
715.927	6009.6
719.85171	6052
723.77365	6111
727.69284	6132.3
731.60928	6077.6
735.52295	6018
739.43388	5953.8
743.34206	5935
747.24749	5950.9
751.15017	5986.8
755.05012	6016.9
758.94733	6109
762.8418	6272.6
766.73354	6553.7
770.62254	6805
774.50882	6897.2
778.39237	6703.2
782.27321	6372.2
786.15132	6093.5
790.02671	5950.1
793.89938	5890.8
797.76935	5897.4
801.6366	5965.4
805.50115	6106.9
809.36299	6286.1
813.22213	6391.7
817.07857	6343.5
820.93231	6183.5
824.78336	5983.1
828.63172	5826
832.47738	5721.4
836.32036	5683.3
840.16066	5672.1
843.99827	5660.9
847.8332	5651.6
851.66546	5636.7
855.49504	5646.5
859.32195	5661.5
863.1462	5675
866.96777	5703.7
870.78668	5776.1
874.60293	5908.9
878.41652	6008.9
882.22745	6146.7
886.03573	6267.6
889.84136	6281.9
893.64433	6237.1
897.44466	6070.4
901.24235	5890.2
905.0374	5718.6
908.8298	5621.3
912.61957	5568.6
916.40671	5550
920.19121	5551.6
923.97308	5560.4
927.75233	5546.9
931.52895	5535.2
935.30295	5489.6
939.07433	5414.3
942.84309	5358.6
946.60924	5343.5
950.37278	5330.3
954.13371	5307.9
957.89203	5293.7
961.64774	5302.4
965.40086	5289.1
969.15137	5284.2
972.89929	5248.1
976.64461	5242
980.38733	5221.3
984.12747	5223
987.86502	5250.6
991.59999	5261.9
995.33237	5310.3
999.06217	5392.5
1002.78939	5473.4
1006.51404	5575.3
1010.23611	5653.1
1013.95561	5735.8
1017.67255	5738.2
1021.38692	5730.5
1025.09872	5676.6
1028.80796	5592.3
1032.51465	5540.8
1036.21877	5493
1039.92035	5426.2
1043.61937	5424.1
1047.31584	5424.7
1051.00976	5417.3
1054.70114	5411.2
1058.38998	5446.6
1062.07627	5498
1065.76003	5564.8
1069.44126	5629.5
1073.11995	5708.4
1076.79611	5794.4
1080.46974	5776
1084.14085	5745.8
1087.80943	5733.7
1091.47549	5702.7
1095.13903	5681
1098.80005	5611.9
1102.45857	5534.3
1106.11456	5509
1109.76805	5533
1113.41903	5643.2
1117.06751	5833.1
1120.71348	6131.9
1124.35696	6545.3
1127.99793	7040.8
1131.63641	7427.8
1135.2724	7601.5
1138.90589	7558.6
1142.5369	7327.8
1146.16542	7012.9
1149.79145	6637.6
1153.415	6303.8
1157.03607	6050.6
1160.65467	5944.7
1164.27079	5930.7
1167.88443	6021.7
1171.49561	6200.4
1175.10432	6418.3
1178.71056	6769.4
1182.31434	7081.1
1185.91565	7234.5
1189.51451	7248.8
1193.11091	7212.9
1196.70485	7189
1200.29634	7168.4
1203.88538	7161.8
1207.47197	7106.2
1211.05612	6994.7
1214.63782	6819.4
1218.21708	6624.4
1221.79391	6430.9
1225.36829	6292.5
1228.94024	6198.5
1232.50976	6088.7
1236.07685	6020.2
1239.6415	5970.6
1243.20374	5978.6
1246.76355	6007.6
1250.32093	6066.1
1253.8759	6142.8
1257.42845	6268.9
1260.97859	6351.4
1264.52631	6474.1
1268.07163	6550.7
1271.61453	6619.8
1275.15503	6668.6
1278.69312	6731.5
1282.22882	6805.1
1285.76211	6907.2
1289.29301	7060.6
1292.82151	7275.9
1296.34761	7486.1
1299.87133	7770.2
1303.39266	8074.9
1306.9116	8366.2
1310.42815	8692.1
1313.94233	8893.3
1317.45412	8895.7
1320.96354	8769.6
1324.47058	8583.6
1327.97525	8432.6
1331.47754	8334.5
1334.97747	8260.5
1338.47502	8221.1
1341.97022	8236.9
1345.46305	8270.3
1348.95352	8370.1
1352.44163	8575
1355.92738	8907
1359.41078	9359
1362.89183	9771.8
1366.37053	9809.6
1369.84688	9234.4
1373.32088	8471.4
1376.79254	7936.2
1380.26186	7655.9
1383.72883	7541
1387.19347	7438.8
1390.65578	7308.2
1394.11575	7176.3
1397.57339	7115.3
1401.0287	7109.6
1404.48168	7058.1
1407.93234	6985.3
1411.38068	6818.6
1414.82669	6630.9
1418.27039	6414.4
1421.71177	6237.1
1425.15083	6066.8
1428.58758	5973.4
1432.02203	5975.4
1435.45416	6017
1438.88399	6109.3
1442.31151	6146.9
1445.73673	6151.6
1449.15965	6191.6
1452.58027	6207.8
1455.9986	6213.9
1459.41463	6223
1462.82837	6273.8
1466.23982	6336.4
1469.64898	6422.7
1473.05586	6477.3
1476.46045	6493.1
1479.86276	6509.3
1483.26279	6529.4
1486.66054	6587.4
1490.05602	6633.7
1493.44922	6759
1496.84016	6924.6
1500.22882	7137.5
1503.61521	7448.3
1506.99934	7750.7
1510.38121	8008.5
1513.76081	8072.3
1517.13816	7878.3
1520.51324	7564.8
1523.88607	7264.5
1527.25665	7108.8
1530.62498	7056.8
1533.99105	7049.2
1537.35488	7039.8
1540.71647	6992.7
1544.07581	6959.5
1547.4329	6906.4
1550.78776	6851.4
1554.14038	6816.5
1557.49077	6814.6
1560.83892	6842.5
1564.18484	6858
1567.52853	6908.1
1570.86999	6964.4
1574.20922	7021.2
1577.54624	7016.4
1580.88103	6990.6
1584.2136	6922.8
1587.54395	6901.3
1590.87208	7013.3
1594.19801	7201.2
1597.52172	7407.6
1600.84321	7537.1
1604.16251	7412.9
1607.47959	7133.8
1610.79447	6835.3
1614.10715	6572.4
1617.41763	6382.4
1620.7259	6253.7
1624.03199	6232.7
1627.33587	6279.4
1630.63757	6380.7
1633.93707	6583.5
1637.23439	6953.5
1640.52951	7449.2
1643.82246	8053.6
1647.11321	8638.9
1650.40179	8873.3
1653.68819	8602.1
1656.97241	7969.6
1660.25446	7319.5
1663.53433	6786.1
1666.81203	6454.5
1670.08756	6225.6
1673.36092	6082.9
1676.63211	5977
1679.90115	5921.8
1683.16801	5852.7
1686.43272	5755.6
1689.69527	5653
1692.95567	5552.5
1696.2139	5455.3
1699.46999	5380.8
1702.72392	5275.7
1705.97571	5150.5
1709.22535	5020.2
1712.47284	4907.1
1715.71819	4800.1
1718.96139	4715.1
1722.20246	4623.9
1725.44139	4562.6
1728.67818	4499.5
1731.91284	4455
1735.14537	4405.4
1738.37576	4386.7
1741.60403	4338.7
1744.83017	4312.7
1748.05418	4281.2
1751.27607	4276.5
1754.49584	4258.9
1757.71349	4251
1760.92903	4237.5
1764.14244	4229.1
1767.35375	4239.4
1770.56294	4220.3
1773.77002	4216.8
1776.97499	4187.1
1780.17785	4167.6
1783.37861	4166.8
1786.57727	4146.8
1789.77382	4140.2
1792.96828	4126.6
1796.16064	4121.7
1799.3509	4099.1
1802.53907	4093.5
1805.72514	4064.4
1808.90913	4067.4
1812.09102	4056.5
1815.27083	4051
1818.44856	4028.6
1821.6242	4023.1
1824.79776	4028.5
1827.96924	4024
1831.13864	4016.2
1834.30597	4001.8
1837.47122	4009
1840.6344	3994
1843.7955	3999.1
1846.95454	3998
1850.11151	3985.1
1853.26642	3978.2
1856.41926	3973.3
1859.57004	3987.2
1862.71876	3984.8
1865.86542	3964.9
1869.01003	3949.8
1872.15258	3948.4
1875.29308	3954.2
1878.43152	3936.8
1881.56792	3925.4
1884.70227	3927.7
1887.83457	3918.5
1890.96482	3924.3
1894.09304	3925.4
1897.21921	3902.2
1900.34335	3910.6
1903.46544	3902
1906.58551	3883.8
1909.70353	3896.8
1912.81953	3870.2
1915.93349	3873
1919.04543	3873.3
1922.15534	3855
1925.26322	3849.1
1928.36908	3830
1931.47292	3832.2
1934.57473	3816.4
1937.67453	3814.9
1940.77232	3813.6
1943.86808	3792.3
1946.96184	3773.1
1950.05358	3758.2
1953.14331	3764.2
1956.23103	3737.5
1959.31675	3731
1962.40046	3728.3
1965.48217	3725.1
1968.56188	3719
1971.63959	3695.5
1974.7153	3680.8
1977.78901	3679
1980.86073	3666.2
1983.93046	3653.8
1986.99819	3640.9
1990.06394	3620.6
1993.1277	3614.1
1996.18947	3591.7
1999.24925	3597.6
2002.30706	3574.2
2005.36288	3570
2008.41672	3568.3
2011.46859	3566.4
2014.51848	3544.6
2017.56639	3529.6
2020.61233	3516.5
2023.6563	3514.6
2026.6983	3498.6
2029.73833	3504.8
2032.7764	3488.9
2035.8125	3482.9
2038.84664	3486.1
2041.87881	3477.3
2044.90903	3466.2
2047.93729	3452.2
2050.96359	3459.5
2053.98794	3441.9
2057.01034	3436.4
2060.03078	3448.1
2063.04927	3430.8
2066.06582	3434.5
2069.08042	3436
2072.09307	3442.1
2075.10378	3435.9
2078.11255	3427.5
2081.11938	3421.7
2084.12426	3425.9
2087.12722	3423.7
2090.12824	3431.6
2093.12732	3420.6
2096.12447	3411.1
2099.11969	3407.2
2102.11299	3426.6
2105.10435	3428
2108.09379	3432
2111.08131	3409.4
2114.0669	3419.1
2117.05057	3439.3
2120.03233	3432.7
2123.01216	3437.8
2125.99008	3434.9
2128.96609	3438.7
2131.94018	3442.5
2134.91236	3442
2137.88263	3431.7
2140.851	3436.7
2143.81746	3452.2
2146.78201	3444.3
2149.74466	3430.5
2152.7054	3431.4
2155.66425	3444.6
2158.6212	3441.9
2161.57625	3441.1
2164.52941	3431.5
2167.48067	3436.8
2170.43004	3431.3
2173.37752	3427.4
2176.32311	3410
2179.26681	3417
2182.20863	3423.3
2185.14856	3415
2188.08661	3419.3
2191.02278	3418.9
2193.95707	3422.3
2196.88948	3411
2199.82001	3406.9
2202.74867	3402.8
2205.67545	3397.8
2208.60037	3389
2211.52341	3385.6
2214.44458	3378.7
2217.36388	3364.1
2220.28132	3366.6
2223.1969	3353.1
2226.11061	3336.4
2229.02246	3343.6
2231.93245	3338.2
2234.84058	3338.5
2237.74686	3326.1
2240.65128	3318
2243.55385	3316
2246.45456	3310.5
2249.35343	3310.7
2252.25044	3293.4
2255.14561	3291.8
2258.03893	3299.7
2260.93041	3310.5
2263.82004	3287.5
2266.70783	3265.4
2269.59378	3260.9
2272.4779	3255.3
2275.36017	3244
2278.24061	3234.5
2281.11922	3242.2
2283.996	3238
2286.87094	3218.6
2289.74405	3233
2292.61534	3200.2
2295.4848	3207.6
2298.35243	3203
2301.21824	3203.1
2304.08223	3191.6
2306.94439	3192.6
2309.80474	3186.7
2312.66327	3178.2
2315.51999	3175.2
2318.37489	3185.2
2321.22797	3180.6
2324.07925	3176.5
2326.92871	3173.8
2329.77637	3163.5
2332.62222	3175.8
2335.46626	3144.3
2338.3085	3154.5
2341.14893	3151.7
2343.98756	3137
2346.8244	3136.3
2349.65943	3130.8
2352.49267	3129.8
2355.32411	3121.8
2358.15376	3133.8
2360.98161	3112.8
2363.80768	3122.1
2366.63195	3111.8
2369.45444	3123.4
2372.27514	3124.2
2375.09405	3119.9
2377.91118	3108
2380.72652	3112.8
2383.54009	3096.2
2386.35187	3095.2
2389.16188	3083.7
2391.97011	3076.8
2394.77657	3071.6
2397.58125	3065.5
2400.38416	3056.3
2403.18529	3051.8
2405.98466	3058.4
2408.78226	3049.7
2411.57809	3039.6
2414.37216	3011.2
2417.16446	3030.5
2419.955	3021.6
2422.74378	3024.9
2425.5308	3025.8
2428.31606	3020
2431.09956	3013
2433.88131	3007.3
2436.6613	3018.5
2439.43954	3003.1
2442.21603	2995.3
2444.99077	2995.6
2447.76377	2986.7
2450.53501	2990.1
2453.30451	2991.3
2456.07226	2982.1
2458.83827	2979.9
2461.60254	2984
2464.36507	2978.3
2467.12586	2966.5
2469.88492	2984.1
2472.64224	2975.4
2475.39782	2974.4
2478.15167	2968.3
2480.90379	2958.6
2483.65417	2974.2
2486.40283	2968.4
2489.14976	2973.5
2491.89497	2958.2
2494.63845	2970.8
2497.3802	2953.5
2500.12024	2963.1
2502.85855	2956.3
2505.59514	2937.8
2508.33002	2930.2
2511.06318	2939.3
2513.79462	2935.9
2516.52435	2926.1
2519.25237	2922.5
2521.97867	2918.4
2524.70327	2908.4
2527.42616	2910.8
2530.14734	2911.7
2532.86681	2906.4
2535.58458	2900.2
2538.30065	2898.2
2541.01501	2887.6
2543.72768	2887.8
2546.43864	2883
2549.14791	2883.1
2551.85548	2863.7
2554.56136	2869.4
2557.26554	2863.8
2559.96803	2852.7
2562.66883	2855.3
2565.36794	2844.5
2568.06536	2861.3
2570.7611	2851.2
2573.45514	2842.7
2576.14751	2834.8
2578.83819	2829.8
2581.52719	2830
2584.21451	2812.7
2586.90015	2825
2589.58411	2819.3
2592.2664	2807.3
2594.94701	2803.4
2597.62594	2787.1
2600.30321	2775.8
2602.9788	2785.3
2605.65273	2789
2608.32498	2784.4
2610.99557	2772.5
2613.66449	2775.9
2616.33175	2773
2618.99734	2772.1
2621.66128	2769.8
2624.32355	2770.4
2626.98416	2762.1
2629.64311	2749.5
2632.30041	2750.7
2634.95605	2749.5
2637.61004	2750
2640.26238	2744.1
2642.91306	2735.1
2645.56209	2741.7
2648.20948	2746.1
2650.85521	2736
2653.4993	2739.3
2656.14175	2732.5
2658.78255	2737.5
2661.42171	2725.4
2664.05923	2724.2
2666.6951	2735.2
2669.32934	2733.5
2671.96194	2727.8
2674.59291	2728.8
2677.22224	2729.2
2679.84993	2740.7
2682.476	2739.7
2685.10043	2736.9
2687.72324	2719.6
2690.34441	2725.4
2692.96396	2724.6
2695.58188	2746.1
2698.19818	2724.5
2700.81285	2736.8
2703.4259	2753.7
2706.03733	2758.4
2708.64714	2755.5
2711.25533	2730.5
2713.86191	2733.4
2716.46687	2748.5
2719.07021	2744.7
2721.67194	2738.7
2724.27206	2741.8
2726.87057	2741.4
2729.46747	2742
2732.06276	2741.9
2734.65644	2744.5
2737.24852	2727.9
2739.83899	2729
2742.42786	2733.6
2745.01513	2718.1
2747.60079	2729.3
2750.18486	2720.6
2752.76733	2723.1
2755.3482	2724.3
2757.92747	2724.6
2760.50515	2714.8
2763.08123	2709.2
2765.65573	2726.1
2768.22863	2705.1
2770.79994	2693.5
2773.36967	2702.3
2775.9378	2694.8
2778.50435	2684.3
2781.06932	2682.2
2783.6327	2684.5
2786.1945	2688.9
2788.75471	2683.5
2791.31335	2676.2
2793.87041	2660.2
2796.42589	2665.9
2798.97979	2668.9
2801.53212	2652.5
2804.08288	2653.2
2806.63206	2639
2809.17967	2644.6
2811.72571	2621.5
2814.27018	2629.8
2816.81308	2630.8
2819.35442	2626.8
2821.89419	2610.3
2824.43239	2618.4
2826.96904	2618.3
2829.50412	2622.9
2832.03763	2608.9
2834.56959	2609.1
2837.1	2610.2
2839.62884	2610.9
2842.15613	2603.7
2844.68186	2610.1
2847.20604	2613.4
2849.72867	2622
2852.24974	2613.7
2854.76927	2615
2857.28724	2609.7
2859.80367	2618.3
2862.31855	2609.3
2864.83189	2618
2867.34368	2609.2
2869.85393	2618.1
2872.36264	2605.1
2874.8698	2623.3
2877.37543	2622.6
2879.87952	2622.6
2882.38207	2626
2884.88308	2625.7
2887.38256	2619.1
2889.88051	2626
2892.37692	2619.3
2894.8718	2619.4
2897.36515	2630.3
2899.85698	2625.7
2902.34727	2635.1
2904.83604	2634.2
2907.32328	2640.5
2909.809	2628.3
2912.29319	2630.5
2914.77587	2633.8
2917.25702	2629.2
2919.73665	2628.4
2922.21476	2630.8
2924.69136	2635.5
2927.16644	2645.5
2929.64	2631.6
2932.11205	2628.8
2934.58258	2639.9
2937.05161	2635
2939.51912	2639.4
2941.98513	2640.2
2944.44962	2618.7
2946.91261	2615.1
2949.37409	2616.2
2951.83407	2614.2
2954.29254	2635.2
2956.74951	2612.6
2959.20498	2600.9
2961.65895	2591.8
2964.11142	2593.5
2966.56239	2594
2969.01186	2600.3
2971.45984	2590.5
2973.90632	2591
2976.35131	2582
2978.7948	2592.9
2981.23681	2564.7
2983.67732	2568.4
2986.11635	2567.1
2988.55388	2558
2990.98993	2552.2
2993.4245	2560
2995.85758	2538.5
2998.28917	2545.2
3000.71928	2546.3
3003.14791	2535.6
3005.57506	2547.1
3008.00073	2544
3010.42493	2540
3012.84764	2546.3
3015.26888	2536.5
3017.68865	2526.4
3020.10694	2529.9
3022.52376	2519.2
3024.9391	2540.3
3027.35298	2524.9
3029.76539	2524.3
3032.17632	2529.5
3034.5858	2522.4
3036.9938	2516.7
3039.40034	2513.3
3041.80542	2513
3044.20903	2523.3
3046.61118	2518.4
3049.01187	2511.5
3051.4111	2508.9
3053.80888	2513.1
3056.20519	2517.2
3058.60005	2511.3
3060.99345	2507.1
3063.3854	2513.7
3065.7759	2514.1
3068.16494	2520.2
3070.55254	2513.8
3072.93868	2513.1
3075.32338	2508
3077.70662	2516.8
3080.08842	2519.1
3082.46878	2521.5
3084.84769	2514.8
3087.22515	2512.1
3089.60118	2517
3091.97576	2532.9
3094.3489	2528.4
3096.72061	2527.3
3099.09087	2542.3
3101.4597	2555.4
3103.82709	2539
3106.19305	2547
3108.55757	2561.7
3110.92066	2545.5
3113.28232	2561.1
3115.64255	2554.4
3118.00134	2549.1
3120.35871	2547.3
3122.71466	2558.4
3125.06917	2564.9
3127.42226	2549.3
3129.77393	2565.3
3132.12417	2573.9
3134.47299	2577.2
3136.82039	2578.1
3139.16636	2579.3
3141.51092	2595.9
3143.85406	2597.7
3146.19579	2604.6
3148.53609	2609.9
3150.87499	2626.6
3153.21246	2637.9
3155.54853	2638.2
3157.88318	2628.8
3160.21642	2642.9
3162.54826	2646.3
3164.87868	2648.2
3167.2077	2652.1
3169.5353	2662.1
3171.86151	2660
3174.18631	2672.2
3176.5097	2663.9
3178.83169	2664.6
3181.15228	2669.2
3183.47147	2675.9
3185.78926	2682.5
3188.10565	2690.7
3190.42065	2692.7
3192.73424	2695.7
3195.04645	2705
3197.35725	2709.3
3199.66667	2704.2
3201.97469	2726.1
3204.28132	2724.1
3206.58656	2726.5
3208.8904	2730.9
3211.19287	2728.6
3213.49394	2740.5
3215.79363	2731.8
3218.09193	2744.6
3220.38884	2754.1
3222.68438	2756
3224.97853	2745.2
3227.2713	2740.5
3229.56269	2754.1
3231.8527	2747.9
3234.14133	2740.6
3236.42858	2736
3238.71446	2733.9
3240.99896	2730.2
3243.28209	2727.9
3245.56384	2725.1
3247.84423	2730.1
3250.12324	2725.8
3252.40088	2738
3254.67715	2732
3256.95205	2718.6
3259.22558	2717
3261.49775	2718.4
3263.76855	2727.7
3266.03799	2710.7
3268.30606	2716.8
3270.57277	2695
3272.83812	2707.8
3275.10211	2696.4
3277.36474	2693.3
3279.62601	2694.1
3281.88593	2687.2
3284.14448	2703.1
3286.40168	2699.4
3288.65753	2691.5
3290.91202	2688.8
3293.16516	2675.4
3295.41695	2673.9
3297.66738	2657.9
3299.91647	2641.4
3302.16421	2626.6
3304.4106	2629.6
3306.65564	2601.3
3308.89933	2602.7
3311.14169	2573.9
3313.38269	2568.5
3315.62236	2539.1
3317.86068	2525.8
3320.09766	2512.5
3322.3333	2492.4
3324.5676	2497.1
3326.80056	2464.3
3329.03219	2436
3331.26248	-1
3333.49143	1.6
3335.71905	0.1
