Data from AgNPs_FTO_APTES_UA_0.1mM_CRN_500uM_NaF_0.1M_Addition_RamanShift__21__14-58-57-781.txt Node

Date: Mon Dec 20 14:58:57 GMT 2021
User: TCL
Spectrometer: QEP01345
Trigger mode: 4
Integration Time (sec): 7.000000E0
Scans to average: 10
Electric dark correction enabled: true
Nonlinearity correction enabled: false
Boxcar width: 0
XAxis mode: Raman Shifts
Number of Pixels in Spectrum: 1044
>>>>>Begin Spectral Data<<<<<
46.04893	0.1625
50.45542	-0.8375
54.85868	-2.3375
59.25871	0.9625
63.6555	22.8625
68.04907	24.4625
72.43941	28.2625
76.82654	29.0625
81.21044	30.1625
85.59113	35.7625
89.96862	33.3625
94.34289	35.1625
98.71396	35.8625
103.08183	35.6625
107.4465	36.2625
111.80798	40.1625
116.16626	37.2625
120.52136	38.8625
124.87327	40.2625
129.222	39.1625
133.56755	41.6625
137.90993	45.4625
142.24913	47.0625
146.58517	43.7625
150.91804	56.0625
155.24774	63.9625
159.57429	69.7625
163.89768	91.9625
168.21792	108.6625
172.53501	138.8625
176.84895	192.4625
181.15975	258.3625
185.46741	350.3625
189.77193	493.8625
194.07331	649.0625
198.37157	852.6625
202.6667	1069.8625
206.9587	1281.6625
211.24758	1499.2625
215.53334	1707.7625
219.81599	1927.9625
224.09553	2150.2625
228.37195	2388.6625
232.64527	2633.4625
236.91549	2861.6625
241.18261	3104.7625
245.44663	3320.5625
249.70755	3504.6625
253.96539	3657.3625
258.22014	3763.2625
262.4718	3833.9625
266.72039	3870.4625
270.96589	3865.1625
275.20832	3822.8625
279.44768	3755.4625
283.68397	3679.2625
287.91719	3621.3625
292.14735	3563.2625
296.37445	3512.1625
300.59849	3482.2625
304.81948	3473.4625
309.03742	3448.3625
313.25231	3411.3625
317.46415	3365.3625
321.67296	3326.0625
325.87872	3287.0625
330.08145	3265.4625
334.28114	3263.5625
338.47781	3276.7625
342.67145	3293.0625
346.86207	3318.2625
351.04966	3339.6625
355.23424	3402.2625
359.4158	3437.6625
363.59435	3480.4625
367.76989	3534.6625
371.94243	3564.0625
376.11196	3613.5625
380.27849	3642.0625
384.44203	3689.0625
388.60257	3725.0625
392.76012	3766.7625
396.91468	3789.9625
401.06626	3823.8625
405.21485	3864.6625
409.36047	3867.1625
413.50311	3860.6625
417.64277	3831.8625
421.77947	3835.6625
425.9132	3839.3625
430.04396	3858.6625
434.17176	3863.6625
438.2966	3890.8625
442.41849	3901.5625
446.53742	3942.4625
450.6534	3994.7625
454.76644	3999.7625
458.87653	4061.9625
462.98368	4053.3625
467.08789	4037.3625
471.18916	4066.3625
475.2875	4071.3625
479.38291	4112.7625
483.4754	4171.3625
487.56496	4264.1625
491.6516	4348.3625
495.73531	4402.0625
499.81612	4379.1625
503.89401	4315.6625
507.96899	4268.9625
512.04106	4197.7625
516.11023	4196.5625
520.1765	4196.9625
524.23987	4228.6625
528.30034	4259.6625
532.35792	4263.4625
536.41261	4245.9625
540.46441	4180.0625
544.51333	4122.3625
548.55936	4062.9625
552.60252	4052.6625
556.64279	4050.6625
560.6802	4048.6625
564.71473	4046.0625
568.7464	4084.5625
572.7752	4119.8625
576.80114	4153.9625
580.82422	4173.0625
584.84444	4219.1625
588.86181	4316.2625
592.87633	4344.4625
596.888	4364.8625
600.89682	4332.7625
604.9028	4348.9625
608.90594	4505.6625
612.90624	4730.5625
616.90371	4793.6625
620.89834	4724.4625
624.89015	4870.0625
628.87913	5192.9625
632.86528	5541.0625
636.84862	5762.5625
640.82913	5696.6625
644.80683	5435.2625
648.78172	5103.7625
652.75379	4833.1625
656.72306	4665.6625
660.68952	4604.8625
664.65319	4573.5625
668.61405	4598.8625
672.57211	4654.1625
676.52738	4725.2625
680.47986	4763.7625
684.42955	4743.0625
688.37646	4694.9625
692.32058	4616.2625
696.26192	4562.2625
700.20048	4470.9625
704.13626	4415.2625
708.06928	4363.6625
711.99952	4290.8625
715.927	4220.6625
719.85171	4209.9625
723.77365	4237.9625
727.69284	4242.1625
731.60928	4219.5625
735.52295	4141.4625
739.43388	4098.7625
743.34206	4093.7625
747.24749	4101.7625
751.15017	4124.8625
755.05012	4129.4625
758.94733	4140.8625
762.8418	4207.9625
766.73354	4261.5625
770.62254	4353.0625
774.50882	4378.9625
778.39237	4321.1625
782.27321	4215.2625
786.15132	4137.9625
790.02671	4112.1625
793.89938	4106.5625
797.76935	4148.2625
801.6366	4206.8625
805.50115	4337.0625
809.36299	4489.8625
813.22213	4553.1625
817.07857	4490.0625
820.93231	4301.6625
824.78336	4130.1625
828.63172	3989.5625
832.47738	3886.1625
836.32036	3874.4625
840.16066	3825.6625
843.99827	3816.6625
847.8332	3805.1625
851.66546	3786.6625
855.49504	3794.2625
859.32195	3803.0625
863.1462	3830.8625
866.96777	3883.4625
870.78668	3943.7625
874.60293	4010.1625
878.41652	4091.0625
882.22745	4206.1625
886.03573	4272.0625
889.84136	4283.1625
893.64433	4180.3625
897.44466	4064.8625
901.24235	3905.2625
905.0374	3784.2625
908.8298	3726.0625
912.61957	3682.1625
916.40671	3654.3625
920.19121	3636.0625
923.97308	3623.2625
927.75233	3624.9625
931.52895	3629.3625
935.30295	3622.8625
939.07433	3613.3625
942.84309	3586.6625
946.60924	3578.2625
950.37278	3564.2625
954.13371	3553.2625
957.89203	3544.5625
961.64774	3522.2625
965.40086	3504.4625
969.15137	3490.0625
972.89929	3459.5625
976.64461	3448.7625
980.38733	3432.5625
984.12747	3441.0625
987.86502	3447.9625
991.59999	3466.7625
995.33237	3470.1625
999.06217	3518.4625
1002.78939	3560.7625
1006.51404	3623.8625
1010.23611	3685.1625
1013.95561	3737.4625
1017.67255	3735.3625
1021.38692	3720.0625
1025.09872	3669.9625
1028.80796	3602.7625
1032.51465	3545.3625
1036.21877	3489.7625
1039.92035	3469.2625
1043.61937	3461.0625
1047.31584	3452.1625
1051.00976	3474.6625
1054.70114	3483.8625
1058.38998	3492.9625
1062.07627	3536.5625
1065.76003	3556.0625
1069.44126	3579.0625
1073.11995	3608.1625
1076.79611	3609.0625
1080.46974	3574.6625
1084.14085	3537.9625
1087.80943	3508.7625
1091.47549	3468.1625
1095.13903	3435.5625
1098.80005	3407.1625
1102.45857	3383.3625
1106.11456	3387.8625
1109.76805	3408.7625
1113.41903	3464.8625
1117.06751	3571.1625
1120.71348	3730.9625
1124.35696	3960.7625
1127.99793	4270.7625
1131.63641	4582.1625
1135.2724	4765.1625
1138.90589	4795.4625
1142.5369	4653.8625
1146.16542	4409.7625
1149.79145	4128.1625
1153.415	3886.7625
1157.03607	3685.8625
1160.65467	3577.3625
1164.27079	3523.1625
1167.88443	3517.3625
1171.49561	3558.8625
1175.10432	3640.4625
1178.71056	3734.8625
1182.31434	3846.5625
1185.91565	3911.0625
1189.51451	3951.7625
1193.11091	3992.6625
1196.70485	4069.6625
1200.29634	4161.9625
1203.88538	4199.3625
1207.47197	4156.3625
1211.05612	4068.0625
1214.63782	3934.6625
1218.21708	3782.6625
1221.79391	3663.6625
1225.36829	3592.4625
1228.94024	3519.9625
1232.50976	3474.8625
1236.07685	3452.2625
1239.6415	3451.7625
1243.20374	3468.5625
1246.76355	3477.9625
1250.32093	3492.8625
1253.8759	3519.8625
1257.42845	3527.9625
1260.97859	3552.1625
1264.52631	3553.7625
1268.07163	3577.1625
1271.61453	3557.4625
1275.15503	3560.1625
1278.69312	3563.4625
1282.22882	3543.1625
1285.76211	3566.7625
1289.29301	3580.3625
1292.82151	3648.3625
1296.34761	3709.8625
1299.87133	3800.6625
1303.39266	3897.2625
1306.9116	4027.1625
1310.42815	4164.2625
1313.94233	4273.6625
1317.45412	4305.5625
1320.96354	4294.7625
1324.47058	4262.5625
1327.97525	4265.8625
1331.47754	4276.8625
1334.97747	4266.8625
1338.47502	4306.3625
1341.97022	4361.3625
1345.46305	4424.0625
1348.95352	4493.9625
1352.44163	4600.0625
1355.92738	4708.6625
1359.41078	4856.5625
1362.89183	5022.5625
1366.37053	5002.0625
1369.84688	4820.0625
1373.32088	4554.1625
1376.79254	4360.5625
1380.26186	4207.7625
1383.72883	4134.3625
1387.19347	4059.9625
1390.65578	3992.1625
1394.11575	3917.8625
1397.57339	3886.8625
1401.0287	3855.7625
1404.48168	3851.2625
1407.93234	3787.9625
1411.38068	3749.4625
1414.82669	3677.5625
1418.27039	3586.3625
1421.71177	3475.8625
1425.15083	3390.4625
1428.58758	3310.9625
1432.02203	3260.8625
1435.45416	3217.2625
1438.88399	3195.1625
1442.31151	3172.1625
1445.73673	3153.0625
1449.15965	3160.6625
1452.58027	3162.7625
1455.9986	3152.7625
1459.41463	3158.9625
1462.82837	3176.4625
1466.23982	3197.1625
1469.64898	3220.9625
1473.05586	3225.4625
1476.46045	3237.5625
1479.86276	3249.2625
1483.26279	3245.9625
1486.66054	3266.6625
1490.05602	3268.2625
1493.44922	3318.4625
1496.84016	3352.7625
1500.22882	3424.3625
1503.61521	3513.5625
1506.99934	3632.2625
1510.38121	3715.9625
1513.76081	3756.4625
1517.13816	3698.9625
1520.51324	3585.9625
1523.88607	3468.5625
1527.25665	3387.9625
1530.62498	3380.2625
1533.99105	3393.3625
1537.35488	3415.7625
1540.71647	3429.4625
1544.07581	3456.3625
1547.4329	3489.2625
1550.78776	3495.9625
1554.14038	3509.8625
1557.49077	3542.7625
1560.83892	3545.6625
1564.18484	3559.2625
1567.52853	3583.1625
1570.86999	3598.8625
1574.20922	3601.5625
1577.54624	3620.9625
1580.88103	3623.0625
1584.2136	3587.1625
1587.54395	3582.1625
1590.87208	3582.4625
1594.19801	3620.4625
1597.52172	3681.9625
1600.84321	3730.7625
1604.16251	3702.4625
1607.47959	3661.8625
1610.79447	3615.2625
1614.10715	3568.2625
1617.41763	3534.2625
1620.7259	3497.2625
1624.03199	3468.9625
1627.33587	3476.8625
1630.63757	3494.2625
1633.93707	3534.5625
1637.23439	3614.1625
1640.52951	3726.8625
1643.82246	3863.7625
1647.11321	4023.7625
1650.40179	4118.2625
1653.68819	4115.7625
1656.97241	3988.5625
1660.25446	3847.1625
1663.53433	3724.1625
1666.81203	3627.5625
1670.08756	3584.3625
1673.36092	3549.8625
1676.63211	3511.6625
1679.90115	3496.2625
1683.16801	3450.8625
1686.43272	3395.6625
1689.69527	3342.8625
1692.95567	3264.6625
1696.2139	3190.1625
1699.46999	3073.9625
1702.72392	2976.1625
1705.97571	2871.2625
1709.22535	2789.4625
1712.47284	2728.1625
1715.71819	2671.4625
1718.96139	2623.3625
1722.20246	2582.2625
1725.44139	2568.8625
1728.67818	2518.4625
1731.91284	2478.3625
1735.14537	2461.6625
1738.37576	2447.5625
1741.60403	2429.6625
1744.83017	2425.4625
1748.05418	2411.1625
1751.27607	2421.7625
1754.49584	2427.1625
1757.71349	2436.2625
1760.92903	2412.3625
1764.14244	2397.9625
1767.35375	2370.3625
1770.56294	2339.6625
1773.77002	2311.2625
1776.97499	2277.9625
1780.17785	2238.7625
1783.37861	2209.4625
1786.57727	2180.3625
1789.77382	2148.1625
1792.96828	2127.2625
1796.16064	2115.9625
1799.3509	2079.4625
1802.53907	2069.1625
1805.72514	2054.8625
1808.90913	2050.0625
1812.09102	2031.1625
1815.27083	2024.2625
1818.44856	2028.3625
1821.6242	2009.7625
1824.79776	2012.3625
1827.96924	1999.2625
1831.13864	1995.0625
1834.30597	1999.2625
1837.47122	2000.1625
1840.6344	1984.4625
1843.7955	1977.4625
1846.95454	1978.2625
1850.11151	1968.1625
1853.26642	1963.6625
1856.41926	1959.9625
1859.57004	1953.8625
1862.71876	1947.7625
1865.86542	1947.0625
1869.01003	1947.4625
1872.15258	1923.8625
1875.29308	1928.5625
1878.43152	1925.0625
1881.56792	1919.2625
1884.70227	1914.9625
1887.83457	1913.2625
1890.96482	1899.8625
1894.09304	1892.5625
1897.21921	1898.4625
1900.34335	1875.2625
1903.46544	1886.5625
1906.58551	1885.0625
1909.70353	1881.2625
1912.81953	1876.2625
1915.93349	1868.2625
1919.04543	1859.2625
1922.15534	1850.9625
1925.26322	1851.8625
1928.36908	1843.5625
1931.47292	1833.3625
1934.57473	1833.1625
1937.67453	1818.7625
1940.77232	1810.9625
1943.86808	1815.8625
1946.96184	1799.8625
1950.05358	1802.5625
1953.14331	1792.9625
1956.23103	1780.4625
1959.31675	1778.1625
1962.40046	1769.1625
1965.48217	1769.9625
1968.56188	1754.0625
1971.63959	1748.3625
1974.7153	1738.9625
1977.78901	1733.4625
1980.86073	1732.4625
1983.93046	1726.7625
1986.99819	1714.2625
1990.06394	1704.1625
1993.1277	1706.9625
1996.18947	1700.3625
1999.24925	1689.0625
2002.30706	1689.2625
2005.36288	1681.6625
2008.41672	1662.0625
2011.46859	1663.3625
2014.51848	1664.2625
2017.56639	1655.1625
2020.61233	1647.6625
2023.6563	1638.7625
2026.6983	1633.8625
2029.73833	1629.9625
2032.7764	1630.4625
2035.8125	1623.5625
2038.84664	1617.3625
2041.87881	1609.8625
2044.90903	1609.7625
2047.93729	1607.3625
2050.96359	1604.2625
2053.98794	1594.4625
2057.01034	1586.1625
2060.03078	1584.2625
2063.04927	1594.8625
2066.06582	1587.1625
2069.08042	1584.0625
2072.09307	1581.6625
2075.10378	1578.4625
2078.11255	1575.5625
2081.11938	1572.4625
2084.12426	1571.5625
2087.12722	1564.4625
2090.12824	1576.8625
2093.12732	1563.4625
2096.12447	1563.7625
2099.11969	1563.5625
2102.11299	1559.9625
2105.10435	1561.5625
2108.09379	1559.9625
2111.08131	1558.3625
2114.0669	1559.2625
2117.05057	1551.9625
2120.03233	1558.1625
2123.01216	1551.7625
2125.99008	1550.8625
2128.96609	1554.2625
2131.94018	1555.3625
2134.91236	1550.7625
2137.88263	1549.9625
2140.851	1561.1625
2143.81746	1562.1625
2146.78201	1547.6625
2149.74466	1551.2625
2152.7054	1553.6625
2155.66425	1543.3625
2158.6212	1548.4625
2161.57625	1543.2625
2164.52941	1540.8625
2167.48067	1539.7625
2170.43004	1539.4625
2173.37752	1535.0625
2176.32311	1535.1625
2179.26681	1529.8625
2182.20863	1535.0625
2185.14856	1530.1625
2188.08661	1520.6625
2191.02278	1519.0625
2193.95707	1518.1625
2196.88948	1504.2625
2199.82001	1507.8625
2202.74867	1501.9625
2205.67545	1505.7625
2208.60037	1494.1625
2211.52341	1493.5625
2214.44458	1486.1625
2217.36388	1478.5625
2220.28132	1486.4625
2223.1969	1477.1625
2226.11061	1463.7625
2229.02246	1461.1625
2231.93245	1470.4625
2234.84058	1458.4625
2237.74686	1445.2625
2240.65128	1457.1625
2243.55385	1453.4625
2246.45456	1443.3625
2249.35343	1443.3625
2252.25044	1440.2625
2255.14561	1429.1625
2258.03893	1440.2625
2260.93041	1430.7625
2263.82004	1423.1625
2266.70783	1417.4625
2269.59378	1415.6625
2272.4779	1411.8625
2275.36017	1408.2625
2278.24061	1399.4625
2281.11922	1399.5625
2283.996	1390.1625
2286.87094	1386.3625
2289.74405	1393.0625
2292.61534	1370.9625
2295.4848	1377.7625
2298.35243	1370.0625
2301.21824	1367.4625
2304.08223	1392.8625
2306.94439	1370.9625
2309.80474	1360.6625
2312.66327	1364.7625
2315.51999	1365.4625
2318.37489	1360.4625
2321.22797	1350.6625
2324.07925	1350.0625
2326.92871	1353.7625
2329.77637	1348.8625
2332.62222	1340.0625
2335.46626	1336.5625
2338.3085	1328.5625
2341.14893	1326.3625
2343.98756	1322.6625
2346.8244	1316.0625
2349.65943	1316.9625
2352.49267	1316.9625
2355.32411	1316.4625
2358.15376	1316.8625
2360.98161	1313.6625
2363.80768	1309.1625
2366.63195	1301.9625
2369.45444	1310.3625
2372.27514	1298.7625
2375.09405	1301.1625
2377.91118	1294.8625
2380.72652	1296.0625
2383.54009	1288.2625
2386.35187	1284.7625
2389.16188	1282.5625
2391.97011	1280.6625
2394.77657	1269.4625
2397.58125	1269.9625
2400.38416	1265.7625
2403.18529	1265.7625
2405.98466	1270.0625
2408.78226	1254.6625
2411.57809	1265.4625
2414.37216	1251.3625
2417.16446	1254.6625
2419.955	1247.6625
2422.74378	1242.4625
2425.5308	1229.7625
2428.31606	1243.6625
2431.09956	1229.3625
2433.88131	1231.8625
2436.6613	1235.5625
2439.43954	1225.7625
2442.21603	1217.0625
2444.99077	1221.8625
2447.76377	1219.5625
2450.53501	1226.0625
2453.30451	1217.6625
2456.07226	1214.3625
2458.83827	1215.3625
2461.60254	1215.1625
2464.36507	1209.4625
2467.12586	1204.8625
2469.88492	1204.1625
2472.64224	1189.9625
2475.39782	1198.8625
2478.15167	1198.9625
2480.90379	1204.3625
2483.65417	1191.0625
2486.40283	1190.9625
2489.14976	1185.3625
2491.89497	1186.0625
2494.63845	1183.8625
2497.3802	1185.1625
2500.12024	1185.3625
2502.85855	1183.2625
2505.59514	1180.8625
2508.33002	1175.0625
2511.06318	1172.5625
2513.79462	1172.9625
2516.52435	1160.0625
2519.25237	1168.2625
2521.97867	1153.1625
2524.70327	1158.8625
2527.42616	1147.4625
2530.14734	1151.0625
2532.86681	1137.6625
2535.58458	1147.5625
2538.30065	1130.9625
2541.01501	1138.7625
2543.72768	1137.5625
2546.43864	1132.3625
2549.14791	1133.3625
2551.85548	1121.8625
2554.56136	1120.8625
2557.26554	1118.9625
2559.96803	1115.1625
2562.66883	1114.2625
2565.36794	1108.1625
2568.06536	1116.4625
2570.7611	1108.8625
2573.45514	1102.8625
2576.14751	1105.1625
2578.83819	1103.4625
2581.52719	1097.0625
2584.21451	1095.7625
2586.90015	1086.7625
2589.58411	1082.1625
2592.2664	1088.5625
2594.94701	1086.0625
2597.62594	1084.1625
2600.30321	1067.4625
2602.9788	1078.1625
2605.65273	1064.6625
2608.32498	1072.0625
2610.99557	1074.5625
2613.66449	1067.6625
2616.33175	1063.9625
2618.99734	1061.8625
2621.66128	1058.3625
2624.32355	1062.5625
2626.98416	1052.9625
2629.64311	1053.0625
2632.30041	1052.2625
2634.95605	1051.3625
2637.61004	1048.8625
2640.26238	1045.6625
2642.91306	1040.0625
2645.56209	1037.8625
2648.20948	1039.1625
2650.85521	1042.1625
2653.4993	1038.2625
2656.14175	1036.9625
2658.78255	1039.7625
2661.42171	1031.2625
2664.05923	1030.4625
2666.6951	1032.8625
2669.32934	1032.2625
2671.96194	1034.3625
2674.59291	1036.6625
2677.22224	1028.8625
2679.84993	1034.2625
2682.476	1028.6625
2685.10043	1032.5625
2687.72324	1028.4625
2690.34441	1030.9625
2692.96396	1021.7625
2695.58188	1023.9625
2698.19818	1024.5625
2700.81285	1032.5625
2703.4259	1038.2625
2706.03733	1061.9625
2708.64714	1049.1625
2711.25533	1031.8625
2713.86191	1032.0625
2716.46687	1034.9625
2719.07021	1029.7625
2721.67194	1025.8625
2724.27206	1019.0625
2726.87057	1026.5625
2729.46747	1024.3625
2732.06276	1022.9625
2734.65644	1022.4625
2737.24852	1016.4625
2739.83899	1012.2625
2742.42786	1011.6625
2745.01513	1004.4625
2747.60079	1016.9625
2750.18486	1001.0625
2752.76733	1006.6625
2755.3482	1014.0625
2757.92747	1007.9625
2760.50515	1007.9625
2763.08123	1002.7625
2765.65573	993.0625
2768.22863	995.5625
2770.79994	994.6625
2773.36967	989.5625
2775.9378	987.7625
2778.50435	987.4625
2781.06932	987.0625
2783.6327	987.1625
2786.1945	983.4625
2788.75471	986.7625
2791.31335	987.3625
2793.87041	975.4625
2796.42589	978.3625
2798.97979	976.8625
2801.53212	973.9625
2804.08288	978.4625
2806.63206	981.5625
2809.17967	970.5625
2811.72571	972.0625
2814.27018	973.4625
2816.81308	968.1625
2819.35442	962.0625
2821.89419	968.9625
2824.43239	971.3625
2826.96904	971.6625
2829.50412	969.2625
2832.03763	961.4625
2834.56959	967.9625
2837.1	965.2625
2839.62884	963.9625
2842.15613	961.0625
2844.68186	961.6625
2847.20604	968.0625
2849.72867	961.3625
2852.24974	966.1625
2854.76927	967.4625
2857.28724	975.9625
2859.80367	963.5625
2862.31855	964.8625
2864.83189	963.3625
2867.34368	960.7625
2869.85393	960.5625
2872.36264	964.1625
2874.8698	965.4625
2877.37543	965.7625
2879.87952	967.0625
2882.38207	977.1625
2884.88308	971.6625
2887.38256	979.8625
2889.88051	985.3625
2892.37692	983.0625
2894.8718	988.8625
2897.36515	989.5625
2899.85698	985.6625
2902.34727	995.9625
2904.83604	1001.1625
2907.32328	1011.8625
2909.809	1008.0625
2912.29319	1012.8625
2914.77587	1019.4625
2917.25702	1025.2625
2919.73665	1025.8625
2922.21476	1030.5625
2924.69136	1030.7625
2927.16644	1033.8625
2929.64	1038.2625
2932.11205	1044.1625
2934.58258	1043.3625
2937.05161	1046.8625
2939.51912	1041.9625
2941.98513	1043.2625
2944.44962	1035.4625
2946.91261	1033.5625
2949.37409	1029.3625
2951.83407	1042.7625
2954.29254	1040.0625
2956.74951	1027.6625
2959.20498	1020.7625
2961.65895	1014.0625
2964.11142	1022.7625
2966.56239	1010.3625
2969.01186	1007.0625
2971.45984	1003.2625
2973.90632	991.2625
2976.35131	985.9625
2978.7948	983.5625
2981.23681	983.6625
2983.67732	977.0625
2986.11635	974.6625
2988.55388	971.9625
2990.98993	972.6625
2993.4245	968.9625
2995.85758	972.0625
2998.28917	969.9625
3000.71928	973.8625
3003.14791	964.7625
3005.57506	971.2625
3008.00073	968.4625
3010.42493	975.6625
3012.84764	973.6625
3015.26888	976.8625
3017.68865	971.6625
3020.10694	967.9625
3022.52376	967.7625
3024.9391	968.1625
3027.35298	971.7625
3029.76539	968.5625
3032.17632	972.8625
3034.5858	972.3625
3036.9938	971.0625
3039.40034	978.4625
3041.80542	976.9625
3044.20903	966.4625
3046.61118	971.8625
3049.01187	965.8625
3051.4111	964.2625
3053.80888	984.9625
3056.20519	975.4625
3058.60005	973.0625
3060.99345	975.5625
3063.3854	980.3625
3065.7759	975.4625
3068.16494	973.4625
3070.55254	986.1625
3072.93868	983.9625
3075.32338	977.1625
3077.70662	979.7625
3080.08842	994.7625
3082.46878	992.1625
3084.84769	1003.0625
3087.22515	996.0625
3089.60118	1010.4625
3091.97576	1006.6625
3094.3489	1011.5625
3096.72061	1023.3625
3099.09087	1024.9625
3101.4597	1028.7625
3103.82709	1036.3625
3106.19305	1040.3625
3108.55757	1044.6625
3110.92066	1044.3625
3113.28232	1053.7625
3115.64255	1050.8625
3118.00134	1056.5625
3120.35871	1068.0625
3122.71466	1060.0625
3125.06917	1078.5625
3127.42226	1071.3625
3129.77393	1083.2625
3132.12417	1090.1625
3134.47299	1091.2625
3136.82039	1092.4625
3139.16636	1095.9625
3141.51092	1110.5625
3143.85406	1117.1625
3146.19579	1128.7625
3148.53609	1136.2625
3150.87499	1139.1625
3153.21246	1149.1625
3155.54853	1155.9625
3157.88318	1155.6625
3160.21642	1168.9625
3162.54826	1185.0625
3164.87868	1186.2625
3167.2077	1195.1625
3169.5353	1194.3625
3171.86151	1202.4625
3174.18631	1206.3625
3176.5097	1211.8625
3178.83169	1216.3625
3181.15228	1217.0625
3183.47147	1230.6625
3185.78926	1240.9625
3188.10565	1233.0625
3190.42065	1247.8625
3192.73424	1245.4625
3195.04645	1252.4625
3197.35725	1257.2625
3199.66667	1255.1625
3201.97469	1268.0625
3204.28132	1278.7625
3206.58656	1285.5625
3208.8904	1285.1625
3211.19287	1294.8625
3213.49394	1290.4625
3215.79363	1304.2625
3218.09193	1299.5625
3220.38884	1314.9625
3222.68438	1323.9625
3224.97853	1305.3625
3227.2713	1313.7625
3229.56269	1309.9625
3231.8527	1320.3625
3234.14133	1315.5625
3236.42858	1310.8625
3238.71446	1318.1625
3240.99896	1317.0625
3243.28209	1317.8625
3245.56384	1320.4625
3247.84423	1317.6625
3250.12324	1309.0625
3252.40088	1326.8625
3254.67715	1314.6625
3256.95205	1322.5625
3259.22558	1330.4625
3261.49775	1322.9625
3263.76855	1326.6625
3266.03799	1314.2625
3268.30606	1321.8625
3270.57277	1320.3625
3272.83812	1306.0625
3275.10211	1318.0625
3277.36474	1318.7625
3279.62601	1317.0625
3281.88593	1315.6625
3284.14448	1320.9625
3286.40168	1310.4625
3288.65753	1319.1625
3290.91202	1308.5625
3293.16516	1311.3625
3295.41695	1295.6625
3297.66738	1308.2625
3299.91647	1294.9625
3302.16421	1300.2625
3304.4106	1291.4625
3306.65564	1272.8625
3308.89933	1287.7625
3311.14169	1277.4625
3313.38269	1267.8625
3315.62236	1258.3625
3317.86068	1250.9625
3320.09766	1231.2625
3322.3333	1234.6625
3324.5676	1231.6625
3326.80056	1223.5625
3329.03219	1216.0625
3331.26248	0.4625
3333.49143	1.1625
3335.71905	0.8625
