Data from AgNPs_FTO_APTES_UA_0.1mM_CRN_50uM_NaF_0.1M_Addition_RamanShift__20__12-59-57-647.txt Node

Date: Mon Dec 20 12:59:57 GMT 2021
User: TCL
Spectrometer: QEP01345
Trigger mode: 4
Integration Time (sec): 7.000000E0
Scans to average: 10
Electric dark correction enabled: true
Nonlinearity correction enabled: false
Boxcar width: 0
XAxis mode: Raman Shifts
Number of Pixels in Spectrum: 1044
>>>>>Begin Spectral Data<<<<<
46.04893	0.7625
50.45542	1.3625
54.85868	-2.0375
59.25871	0.8625
63.6555	33.7625
68.04907	34.5625
72.43941	35.2625
76.82654	37.0625
81.21044	37.8625
85.59113	46.1625
89.96862	41.2625
94.34289	44.6625
98.71396	42.8625
103.08183	44.6625
107.4465	47.7625
111.80798	50.8625
116.16626	48.7625
120.52136	52.3625
124.87327	56.6625
129.222	53.2625
133.56755	57.6625
137.90993	63.2625
142.24913	65.6625
146.58517	70.6625
150.91804	82.0625
155.24774	99.5625
159.57429	119.6625
163.89768	146.7625
168.21792	194.4625
172.53501	252.5625
176.84895	348.7625
181.15975	488.1625
185.46741	671.0625
189.77193	937.9625
194.07331	1261.4625
198.37157	1624.6625
202.6667	2034.8625
206.9587	2427.4625
211.24758	2825.4625
215.53334	3228.0625
219.81599	3625.1625
224.09553	4057.0625
228.37195	4504.6625
232.64527	5042.1625
236.91549	5546.1625
241.18261	6072.6625
245.44663	6543.8625
249.70755	6963.0625
253.96539	7357.6625
258.22014	7631.3625
262.4718	7856.2625
266.72039	8004.4625
270.96589	8060.1625
275.20832	8020.4625
279.44768	7908.3625
283.68397	7798.5625
287.91719	7650.8625
292.14735	7577.9625
296.37445	7523.7625
300.59849	7521.9625
304.81948	7527.2625
309.03742	7525.2625
313.25231	7463.4625
317.46415	7329.3625
321.67296	7174.0625
325.87872	7069.7625
330.08145	7003.7625
334.28114	7006.7625
338.47781	7031.1625
342.67145	7100.5625
346.86207	7203.5625
351.04966	7320.6625
355.23424	7495.4625
359.4158	7617.0625
363.59435	7739.6625
367.76989	7804.9625
371.94243	7876.3625
376.11196	7932.6625
380.27849	8014.4625
384.44203	8062.8625
388.60257	8111.0625
392.76012	8156.7625
396.91468	8246.2625
401.06626	8314.6625
405.21485	8397.9625
409.36047	8353.7625
413.50311	8317.0625
417.64277	8188.0625
421.77947	8142.0625
425.9132	8154.2625
430.04396	8165.5625
434.17176	8200.1625
438.2966	8236.1625
442.41849	8333.9625
446.53742	8406.6625
450.6534	8511.1625
454.76644	8588.8625
458.87653	8660.8625
462.98368	8652.1625
467.08789	8633.1625
471.18916	8642.8625
475.2875	8636.7625
479.38291	8678.3625
483.4754	8734.1625
487.56496	8811.4625
491.6516	8936.7625
495.73531	8975.0625
499.81612	8968.2625
503.89401	8913.5625
507.96899	8849.6625
512.04106	8782.3625
516.11023	8797.6625
520.1765	8802.1625
524.23987	8816.5625
528.30034	8840.8625
532.35792	8833.8625
536.41261	8778.4625
540.46441	8667.1625
544.51333	8587.8625
548.55936	8539.0625
552.60252	8554.1625
556.64279	8590.3625
560.6802	8612.4625
564.71473	8630.8625
568.7464	8725.7625
572.7752	8806.0625
576.80114	8771.6625
580.82422	8792.0625
584.84444	8839.3625
588.86181	8924.2625
592.87633	9023.0625
596.888	9022.7625
600.89682	9045.2625
604.9028	9243.7625
608.90594	9790.6625
612.90624	10664.4625
616.90371	10651.7625
620.89834	9816.8625
624.89015	9602.7625
628.87913	9904.2625
632.86528	10346.9625
636.84862	10639.5625
640.82913	10591.3625
644.80683	10228.5625
648.78172	9808.2625
652.75379	9433.5625
656.72306	9278.3625
660.68952	9246.2625
664.65319	9174.0625
668.61405	9108.0625
672.57211	9108.8625
676.52738	9179.6625
680.47986	9212.4625
684.42955	9206.0625
688.37646	9148.1625
692.32058	9098.6625
696.26192	9003.2625
700.20048	8942.0625
704.13626	8901.2625
708.06928	8832.8625
711.99952	8728.0625
715.927	8655.5625
719.85171	8642.6625
723.77365	8668.5625
727.69284	8668.4625
731.60928	8634.8625
735.52295	8563.2625
739.43388	8512.5625
743.34206	8530.9625
747.24749	8556.0625
751.15017	8540.0625
755.05012	8553.2625
758.94733	8682.8625
762.8418	8838.9625
766.73354	9207.2625
770.62254	9589.4625
774.50882	9792.0625
778.39237	9628.1625
782.27321	9198.8625
786.15132	8791.8625
790.02671	8600.4625
793.89938	8480.6625
797.76935	8486.3625
801.6366	8570.0625
805.50115	8718.3625
809.36299	8895.3625
813.22213	8950.6625
817.07857	8861.2625
820.93231	8684.9625
824.78336	8458.7625
828.63172	8288.1625
832.47738	8177.7625
836.32036	8138.2625
840.16066	8156.6625
843.99827	8117.8625
847.8332	8091.5625
851.66546	8075.7625
855.49504	8063.5625
859.32195	8092.5625
863.1462	8117.7625
866.96777	8176.3625
870.78668	8240.1625
874.60293	8341.3625
878.41652	8459.5625
882.22745	8593.3625
886.03573	8661.8625
889.84136	8668.3625
893.64433	8535.8625
897.44466	8354.2625
901.24235	8172.3625
905.0374	8032.5625
908.8298	7934.8625
912.61957	7877.5625
916.40671	7837.3625
920.19121	7833.9625
923.97308	7810.0625
927.75233	7803.4625
931.52895	7810.8625
935.30295	7778.2625
939.07433	7745.5625
942.84309	7693.1625
946.60924	7651.9625
950.37278	7622.9625
954.13371	7617.2625
957.89203	7599.6625
961.64774	7557.6625
965.40086	7519.6625
969.15137	7494.4625
972.89929	7460.0625
976.64461	7449.1625
980.38733	7422.9625
984.12747	7426.7625
987.86502	7435.0625
991.59999	7487.4625
995.33237	7536.6625
999.06217	7602.2625
1002.78939	7683.7625
1006.51404	7765.5625
1010.23611	7860.3625
1013.95561	7916.0625
1017.67255	7958.0625
1021.38692	7915.3625
1025.09872	7829.9625
1028.80796	7723.5625
1032.51465	7672.1625
1036.21877	7630.0625
1039.92035	7628.6625
1043.61937	7581.5625
1047.31584	7564.7625
1051.00976	7574.4625
1054.70114	7566.8625
1058.38998	7608.3625
1062.07627	7631.6625
1065.76003	7718.3625
1069.44126	7747.7625
1073.11995	7824.0625
1076.79611	7841.9625
1080.46974	7816.4625
1084.14085	7801.1625
1087.80943	7768.9625
1091.47549	7737.8625
1095.13903	7686.2625
1098.80005	7601.1625
1102.45857	7543.8625
1106.11456	7530.8625
1109.76805	7559.9625
1113.41903	7653.1625
1117.06751	7792.4625
1120.71348	8075.4625
1124.35696	8433.7625
1127.99793	8863.0625
1131.63641	9241.7625
1135.2724	9411.4625
1138.90589	9384.1625
1142.5369	9191.2625
1146.16542	8853.4625
1149.79145	8486.2625
1153.415	8154.0625
1157.03607	7906.6625
1160.65467	7804.3625
1164.27079	7765.2625
1167.88443	7839.0625
1171.49561	7986.8625
1175.10432	8266.4625
1178.71056	8657.2625
1182.31434	9005.2625
1185.91565	9205.8625
1189.51451	9212.2625
1193.11091	9151.3625
1196.70485	9090.3625
1200.29634	9055.5625
1203.88538	9015.6625
1207.47197	8844.3625
1211.05612	8665.6625
1214.63782	8454.5625
1218.21708	8236.6625
1221.79391	8056.3625
1225.36829	7943.4625
1228.94024	7860.6625
1232.50976	7787.5625
1236.07685	7715.3625
1239.6415	7719.1625
1243.20374	7719.8625
1246.76355	7728.5625
1250.32093	7788.3625
1253.8759	7875.9625
1257.42845	7942.0625
1260.97859	8014.3625
1264.52631	8088.8625
1268.07163	8140.6625
1271.61453	8203.5625
1275.15503	8251.0625
1278.69312	8290.3625
1282.22882	8301.4625
1285.76211	8362.2625
1289.29301	8454.8625
1292.82151	8609.9625
1296.34761	8790.1625
1299.87133	9014.5625
1303.39266	9322.7625
1306.9116	9722.9625
1310.42815	10200.5625
1313.94233	10453.8625
1317.45412	10427.1625
1320.96354	10231.4625
1324.47058	10026.9625
1327.97525	9800.5625
1331.47754	9680.0625
1334.97747	9639.5625
1338.47502	9696.5625
1341.97022	9786.2625
1345.46305	9940.0625
1348.95352	10142.8625
1352.44163	10387.7625
1355.92738	10751.8625
1359.41078	11280.7625
1362.89183	11822.9625
1366.37053	11753.6625
1369.84688	10958.7625
1373.32088	10077.5625
1376.79254	9494.8625
1380.26186	9177.9625
1383.72883	8986.8625
1387.19347	8849.0625
1390.65578	8713.8625
1394.11575	8604.4625
1397.57339	8512.5625
1401.0287	8453.2625
1404.48168	8397.9625
1407.93234	8337.9625
1411.38068	8228.1625
1414.82669	8082.0625
1418.27039	7913.0625
1421.71177	7750.2625
1425.15083	7578.0625
1428.58758	7472.4625
1432.02203	7418.2625
1435.45416	7421.6625
1438.88399	7455.8625
1442.31151	7423.7625
1445.73673	7447.6625
1449.15965	7482.3625
1452.58027	7506.7625
1455.9986	7515.7625
1459.41463	7563.4625
1462.82837	7595.8625
1466.23982	7666.6625
1469.64898	7752.8625
1473.05586	7806.8625
1476.46045	7834.7625
1479.86276	7837.6625
1483.26279	7864.7625
1486.66054	7892.9625
1490.05602	7950.5625
1493.44922	8059.7625
1496.84016	8223.5625
1500.22882	8481.9625
1503.61521	8884.0625
1506.99934	9345.7625
1510.38121	9745.5625
1513.76081	9909.8625
1517.13816	9622.5625
1520.51324	9109.0625
1523.88607	8618.2625
1527.25665	8307.5625
1530.62498	8154.8625
1533.99105	8100.1625
1537.35488	8053.4625
1540.71647	8088.0625
1544.07581	8074.3625
1547.4329	8094.6625
1550.78776	8121.8625
1554.14038	8146.7625
1557.49077	8180.2625
1560.83892	8261.1625
1564.18484	8300.6625
1567.52853	8375.7625
1570.86999	8457.6625
1574.20922	8508.8625
1577.54624	8549.5625
1580.88103	8474.3625
1584.2136	8326.3625
1587.54395	8251.5625
1590.87208	8265.6625
1594.19801	8379.0625
1597.52172	8600.3625
1600.84321	8723.9625
1604.16251	8633.1625
1607.47959	8445.4625
1610.79447	8239.9625
1614.10715	8036.6625
1617.41763	7854.5625
1620.7259	7726.9625
1624.03199	7639.8625
1627.33587	7683.9625
1630.63757	7715.8625
1633.93707	7859.1625
1637.23439	8100.5625
1640.52951	8457.2625
1643.82246	8884.1625
1647.11321	9368.7625
1650.40179	9699.7625
1653.68819	9595.3625
1656.97241	9095.5625
1660.25446	8482.0625
1663.53433	8011.4625
1666.81203	7721.5625
1670.08756	7514.1625
1673.36092	7395.1625
1676.63211	7278.7625
1679.90115	7201.6625
1683.16801	7095.4625
1686.43272	7015.5625
1689.69527	6897.4625
1692.95567	6761.9625
1696.2139	6628.8625
1699.46999	6519.8625
1702.72392	6399.5625
1705.97571	6303.0625
1709.22535	6203.7625
1712.47284	6159.8625
1715.71819	6095.1625
1718.96139	6053.1625
1722.20246	5995.1625
1725.44139	5938.6625
1728.67818	5878.0625
1731.91284	5840.8625
1735.14537	5786.1625
1738.37576	5753.0625
1741.60403	5712.1625
1744.83017	5683.9625
1748.05418	5653.2625
1751.27607	5654.7625
1754.49584	5657.5625
1757.71349	5638.5625
1760.92903	5619.3625
1764.14244	5630.0625
1767.35375	5586.2625
1770.56294	5561.3625
1773.77002	5533.0625
1776.97499	5516.0625
1780.17785	5464.7625
1783.37861	5435.2625
1786.57727	5411.2625
1789.77382	5370.0625
1792.96828	5344.1625
1796.16064	5351.2625
1799.3509	5307.7625
1802.53907	5286.5625
1805.72514	5277.3625
1808.90913	5238.4625
1812.09102	5235.9625
1815.27083	5231.7625
1818.44856	5225.9625
1821.6242	5209.1625
1824.79776	5188.5625
1827.96924	5191.4625
1831.13864	5152.7625
1834.30597	5176.1625
1837.47122	5170.4625
1840.6344	5156.4625
1843.7955	5153.0625
1846.95454	5125.7625
1850.11151	5129.9625
1853.26642	5124.0625
1856.41926	5127.7625
1859.57004	5111.2625
1862.71876	5102.4625
1865.86542	5087.0625
1869.01003	5105.2625
1872.15258	5065.1625
1875.29308	5071.1625
1878.43152	5064.9625
1881.56792	5043.1625
1884.70227	5044.4625
1887.83457	5043.7625
1890.96482	5034.6625
1894.09304	5032.7625
1897.21921	5013.3625
1900.34335	5005.7625
1903.46544	4993.1625
1906.58551	5004.1625
1909.70353	4981.4625
1912.81953	4979.3625
1915.93349	4966.2625
1919.04543	4964.4625
1922.15534	4960.4625
1925.26322	4953.8625
1928.36908	4924.8625
1931.47292	4928.7625
1934.57473	4899.3625
1937.67453	4900.1625
1940.77232	4876.9625
1943.86808	4865.0625
1946.96184	4855.6625
1950.05358	4833.2625
1953.14331	4816.2625
1956.23103	4813.2625
1959.31675	4793.6625
1962.40046	4780.3625
1965.48217	4774.4625
1968.56188	4756.5625
1971.63959	4723.8625
1974.7153	4708.4625
1977.78901	4699.4625
1980.86073	4688.4625
1983.93046	4666.0625
1986.99819	4656.6625
1990.06394	4622.6625
1993.1277	4631.0625
1996.18947	4614.1625
1999.24925	4612.9625
2002.30706	4585.9625
2005.36288	4579.5625
2008.41672	4561.7625
2011.46859	4553.3625
2014.51848	4529.3625
2017.56639	4515.9625
2020.61233	4504.0625
2023.6563	4485.2625
2026.6983	4481.6625
2029.73833	4464.4625
2032.7764	4472.0625
2035.8125	4441.5625
2038.84664	4432.3625
2041.87881	4430.3625
2044.90903	4427.2625
2047.93729	4400.1625
2050.96359	4404.2625
2053.98794	4392.8625
2057.01034	4400.8625
2060.03078	4388.1625
2063.04927	4375.3625
2066.06582	4368.5625
2069.08042	4376.3625
2072.09307	4365.2625
2075.10378	4344.8625
2078.11255	4362.0625
2081.11938	4382.0625
2084.12426	4343.0625
2087.12722	4367.2625
2090.12824	4374.7625
2093.12732	4358.5625
2096.12447	4369.7625
2099.11969	4367.7625
2102.11299	4355.2625
2105.10435	4358.0625
2108.09379	4352.7625
2111.08131	4353.0625
2114.0669	4355.7625
2117.05057	4348.6625
2120.03233	4370.5625
2123.01216	4370.3625
2125.99008	4374.1625
2128.96609	4375.9625
2131.94018	4369.7625
2134.91236	4380.4625
2137.88263	4376.9625
2140.851	4379.5625
2143.81746	4372.7625
2146.78201	4380.4625
2149.74466	4365.5625
2152.7054	4379.8625
2155.66425	4385.4625
2158.6212	4380.8625
2161.57625	4376.7625
2164.52941	4375.3625
2167.48067	4369.8625
2170.43004	4361.5625
2173.37752	4352.1625
2176.32311	4359.8625
2179.26681	4360.8625
2182.20863	4362.4625
2185.14856	4344.4625
2188.08661	4363.6625
2191.02278	4335.9625
2193.95707	4347.8625
2196.88948	4332.7625
2199.82001	4332.9625
2202.74867	4328.4625
2205.67545	4313.1625
2208.60037	4317.0625
2211.52341	4313.2625
2214.44458	4288.6625
2217.36388	4289.9625
2220.28132	4284.5625
2223.1969	4273.2625
2226.11061	4270.6625
2229.02246	4243.4625
2231.93245	4242.7625
2234.84058	4228.1625
2237.74686	4240.9625
2240.65128	4223.4625
2243.55385	4207.1625
2246.45456	4207.7625
2249.35343	4205.3625
2252.25044	4185.9625
2255.14561	4172.5625
2258.03893	4202.4625
2260.93041	4190.6625
2263.82004	4169.8625
2266.70783	4145.3625
2269.59378	4139.1625
2272.4779	4130.9625
2275.36017	4134.6625
2278.24061	4114.7625
2281.11922	4104.8625
2283.996	4102.4625
2286.87094	4099.5625
2289.74405	4098.7625
2292.61534	4068.8625
2295.4848	4068.1625
2298.35243	4073.0625
2301.21824	4080.7625
2304.08223	4058.9625
2306.94439	4049.3625
2309.80474	4057.9625
2312.66327	4040.9625
2315.51999	4058.8625
2318.37489	4042.4625
2321.22797	4031.0625
2324.07925	4022.2625
2326.92871	4014.2625
2329.77637	4012.8625
2332.62222	3989.0625
2335.46626	4012.5625
2338.3085	4007.1625
2341.14893	3992.2625
2343.98756	3991.9625
2346.8244	3972.7625
2349.65943	3990.4625
2352.49267	3973.1625
2355.32411	3960.9625
2358.15376	3957.8625
2360.98161	3963.4625
2363.80768	3961.0625
2366.63195	3961.6625
2369.45444	3947.6625
2372.27514	3954.9625
2375.09405	3956.8625
2377.91118	3944.2625
2380.72652	3928.9625
2383.54009	3925.2625
2386.35187	3910.9625
2389.16188	3923.5625
2391.97011	3894.2625
2394.77657	3896.2625
2397.58125	3885.7625
2400.38416	3891.9625
2403.18529	3871.3625
2405.98466	3870.0625
2408.78226	3856.2625
2411.57809	3852.7625
2414.37216	3835.6625
2417.16446	3846.2625
2419.955	3843.0625
2422.74378	3837.2625
2425.5308	3832.8625
2428.31606	3828.0625
2431.09956	3804.1625
2433.88131	3819.9625
2436.6613	3813.0625
2439.43954	3808.4625
2442.21603	3790.1625
2444.99077	3801.9625
2447.76377	3792.7625
2450.53501	3771.1625
2453.30451	3795.0625
2456.07226	3777.8625
2458.83827	3780.8625
2461.60254	3769.3625
2464.36507	3773.6625
2467.12586	3758.3625
2469.88492	3774.2625
2472.64224	3750.1625
2475.39782	3752.2625
2478.15167	3758.0625
2480.90379	3743.1625
2483.65417	3749.7625
2486.40283	3728.4625
2489.14976	3744.5625
2491.89497	3734.0625
2494.63845	3737.0625
2497.3802	3731.7625
2500.12024	3722.5625
2502.85855	3744.2625
2505.59514	3714.8625
2508.33002	3714.9625
2511.06318	3723.2625
2513.79462	3713.2625
2516.52435	3691.9625
2519.25237	3699.1625
2521.97867	3687.9625
2524.70327	3688.4625
2527.42616	3662.0625
2530.14734	3681.9625
2532.86681	3665.9625
2535.58458	3656.2625
2538.30065	3646.0625
2541.01501	3650.0625
2543.72768	3639.7625
2546.43864	3630.6625
2549.14791	3636.1625
2551.85548	3623.3625
2554.56136	3621.0625
2557.26554	3621.2625
2559.96803	3597.8625
2562.66883	3607.2625
2565.36794	3592.8625
2568.06536	3589.5625
2570.7611	3595.3625
2573.45514	3571.4625
2576.14751	3569.1625
2578.83819	3563.8625
2581.52719	3562.4625
2584.21451	3545.1625
2586.90015	3537.4625
2589.58411	3535.0625
2592.2664	3541.4625
2594.94701	3528.0625
2597.62594	3509.5625
2600.30321	3507.2625
2602.9788	3511.0625
2605.65273	3499.3625
2608.32498	3502.6625
2610.99557	3492.3625
2613.66449	3491.0625
2616.33175	3485.1625
2618.99734	3475.3625
2621.66128	3476.9625
2624.32355	3472.2625
2626.98416	3465.1625
2629.64311	3471.7625
2632.30041	3458.3625
2634.95605	3457.2625
2637.61004	3462.3625
2640.26238	3441.3625
2642.91306	3447.0625
2645.56209	3444.2625
2648.20948	3436.1625
2650.85521	3428.6625
2653.4993	3420.2625
2656.14175	3432.0625
2658.78255	3433.7625
2661.42171	3431.1625
2664.05923	3422.8625
2666.6951	3435.5625
2669.32934	3435.0625
2671.96194	3414.9625
2674.59291	3416.9625
2677.22224	3425.7625
2679.84993	3431.7625
2682.476	3420.5625
2685.10043	3434.0625
2687.72324	3430.9625
2690.34441	3423.5625
2692.96396	3416.8625
2695.58188	3422.0625
2698.19818	3422.2625
2700.81285	3429.0625
2703.4259	3435.3625
2706.03733	3453.8625
2708.64714	3435.1625
2711.25533	3442.8625
2713.86191	3423.8625
2716.46687	3440.1625
2719.07021	3427.1625
2721.67194	3422.2625
2724.27206	3418.5625
2726.87057	3430.5625
2729.46747	3428.5625
2732.06276	3423.6625
2734.65644	3430.5625
2737.24852	3423.8625
2739.83899	3416.7625
2742.42786	3411.9625
2745.01513	3412.5625
2747.60079	3413.2625
2750.18486	3396.1625
2752.76733	3389.5625
2755.3482	3383.0625
2757.92747	3389.2625
2760.50515	3373.4625
2763.08123	3383.4625
2765.65573	3360.5625
2768.22863	3376.5625
2770.79994	3367.8625
2773.36967	3363.9625
2775.9378	3369.3625
2778.50435	3352.7625
2781.06932	3359.6625
2783.6327	3344.8625
2786.1945	3336.6625
2788.75471	3330.7625
2791.31335	3336.8625
2793.87041	3317.8625
2796.42589	3315.4625
2798.97979	3309.0625
2801.53212	3305.5625
2804.08288	3299.8625
2806.63206	3301.0625
2809.17967	3291.3625
2811.72571	3285.2625
2814.27018	3278.5625
2816.81308	3267.8625
2819.35442	3273.1625
2821.89419	3276.3625
2824.43239	3272.6625
2826.96904	3264.1625
2829.50412	3257.8625
2832.03763	3259.7625
2834.56959	3250.5625
2837.1	3251.4625
2839.62884	3249.2625
2842.15613	3253.4625
2844.68186	3246.6625
2847.20604	3253.2625
2849.72867	3266.5625
2852.24974	3252.2625
2854.76927	3255.2625
2857.28724	3251.2625
2859.80367	3241.7625
2862.31855	3238.2625
2864.83189	3242.4625
2867.34368	3232.7625
2869.85393	3238.4625
2872.36264	3225.0625
2874.8698	3234.7625
2877.37543	3236.8625
2879.87952	3239.1625
2882.38207	3230.9625
2884.88308	3234.0625
2887.38256	3249.9625
2889.88051	3242.6625
2892.37692	3249.4625
2894.8718	3256.7625
2897.36515	3241.6625
2899.85698	3249.1625
2902.34727	3255.7625
2904.83604	3254.2625
2907.32328	3243.2625
2909.809	3266.5625
2912.29319	3263.3625
2914.77587	3266.5625
2917.25702	3262.1625
2919.73665	3274.5625
2922.21476	3273.2625
2924.69136	3263.5625
2927.16644	3269.8625
2929.64	3277.6625
2932.11205	3264.3625
2934.58258	3280.6625
2937.05161	3270.1625
2939.51912	3266.1625
2941.98513	3273.3625
2944.44962	3268.6625
2946.91261	3243.7625
2949.37409	3258.5625
2951.83407	3251.7625
2954.29254	3261.3625
2956.74951	3248.8625
2959.20498	3241.7625
2961.65895	3246.1625
2964.11142	3247.4625
2966.56239	3214.6625
2969.01186	3230.2625
2971.45984	3223.9625
2973.90632	3201.6625
2976.35131	3185.2625
2978.7948	3191.1625
2981.23681	3180.9625
2983.67732	3180.1625
2986.11635	3184.3625
2988.55388	3157.7625
2990.98993	3158.9625
2993.4245	3160.9625
2995.85758	3158.9625
2998.28917	3149.3625
3000.71928	3135.9625
3003.14791	3147.8625
3005.57506	3153.8625
3008.00073	3136.7625
3010.42493	3145.6625
3012.84764	3137.1625
3015.26888	3132.7625
3017.68865	3128.3625
3020.10694	3134.2625
3022.52376	3116.5625
3024.9391	3119.6625
3027.35298	3118.3625
3029.76539	3097.3625
3032.17632	3107.5625
3034.5858	3100.5625
3036.9938	3103.3625
3039.40034	3123.3625
3041.80542	3113.6625
3044.20903	3099.6625
3046.61118	3101.4625
3049.01187	3085.0625
3051.4111	3089.4625
3053.80888	3088.4625
3056.20519	3100.7625
3058.60005	3095.4625
3060.99345	3095.1625
3063.3854	3072.2625
3065.7759	3083.3625
3068.16494	3075.3625
3070.55254	3065.8625
3072.93868	3083.1625
3075.32338	3080.2625
3077.70662	3067.8625
3080.08842	3070.7625
3082.46878	3075.9625
3084.84769	3077.1625
3087.22515	3084.6625
3089.60118	3087.1625
3091.97576	3090.6625
3094.3489	3089.6625
3096.72061	3091.3625
3099.09087	3096.6625
3101.4597	3094.6625
3103.82709	3107.9625
3106.19305	3108.4625
3108.55757	3106.3625
3110.92066	3094.0625
3113.28232	3094.4625
3115.64255	3088.0625
3118.00134	3090.8625
3120.35871	3099.9625
3122.71466	3092.2625
3125.06917	3085.4625
3127.42226	3094.5625
3129.77393	3085.6625
3132.12417	3106.0625
3134.47299	3121.4625
3136.82039	3120.4625
3139.16636	3115.3625
3141.51092	3142.9625
3143.85406	3133.6625
3146.19579	3145.0625
3148.53609	3143.1625
3150.87499	3170.3625
3153.21246	3179.3625
3155.54853	3187.0625
3157.88318	3174.2625
3160.21642	3180.7625
3162.54826	3198.7625
3164.87868	3195.7625
3167.2077	3197.0625
3169.5353	3186.9625
3171.86151	3203.7625
3174.18631	3211.0625
3176.5097	3207.6625
3178.83169	3209.2625
3181.15228	3222.5625
3183.47147	3212.1625
3185.78926	3212.6625
3188.10565	3227.2625
3190.42065	3233.4625
3192.73424	3228.9625
3195.04645	3240.2625
3197.35725	3230.1625
3199.66667	3258.1625
3201.97469	3252.9625
3204.28132	3251.9625
3206.58656	3258.4625
3208.8904	3262.3625
3211.19287	3267.4625
3213.49394	3283.5625
3215.79363	3274.8625
3218.09193	3282.0625
3220.38884	3284.5625
3222.68438	3293.1625
3224.97853	3290.0625
3227.2713	3284.1625
3229.56269	3270.0625
3231.8527	3295.9625
3234.14133	3274.1625
3236.42858	3290.5625
3238.71446	3279.1625
3240.99896	3270.3625
3243.28209	3260.2625
3245.56384	3269.0625
3247.84423	3267.0625
3250.12324	3272.6625
3252.40088	3264.2625
3254.67715	3267.1625
3256.95205	3258.0625
3259.22558	3269.8625
3261.49775	3262.1625
3263.76855	3266.6625
3266.03799	3250.9625
3268.30606	3242.9625
3270.57277	3258.4625
3272.83812	3230.4625
3275.10211	3228.3625
3277.36474	3247.0625
3279.62601	3229.6625
3281.88593	3242.6625
3284.14448	3240.5625
3286.40168	3228.3625
3288.65753	3229.0625
3290.91202	3214.8625
3293.16516	3204.0625
3295.41695	3198.9625
3297.66738	3193.4625
3299.91647	3178.4625
3302.16421	3156.9625
3304.4106	3153.2625
3306.65564	3139.2625
3308.89933	3138.0625
3311.14169	3104.6625
3313.38269	3083.4625
3315.62236	3067.4625
3317.86068	3045.8625
3320.09766	2999.8625
3322.3333	2994.0625
3324.5676	3002.9625
3326.80056	2966.3625
3329.03219	2937.0625
3331.26248	0.1625
3333.49143	0.2625
3335.71905	-1.5375
