Data from AgNPs_UA_20uM_CRN_500uM_SU_RamanShift__27__13-41-00-296.txt Node

Date: Thu Aug 04 13:41:00 BST 2022
User: TCL
Spectrometer: QEP01345
Trigger mode: 4
Integration Time (sec): 1.000000E0
Scans to average: 10
Electric dark correction enabled: true
Nonlinearity correction enabled: false
Boxcar width: 0
XAxis mode: Raman Shifts
Number of Pixels in Spectrum: 1044
>>>>>Begin Spectral Data<<<<<
46.04893	-1.4375
50.45542	0.8625
54.85868	0.3625
59.25871	-0.5375
63.6555	17.1625
68.04907	15.0625
72.43941	19.4625
76.82654	16.9625
81.21044	16.7625
85.59113	20.1625
89.96862	18.8625
94.34289	19.5625
98.71396	21.1625
103.08183	20.7625
107.4465	21.3625
111.80798	24.3625
116.16626	25.5625
120.52136	25.7625
124.87327	26.5625
129.222	29.9625
133.56755	30.8625
137.90993	31.1625
142.24913	34.3625
146.58517	40.6625
150.91804	47.1625
155.24774	57.7625
159.57429	75.0625
163.89768	97.0625
168.21792	125.6625
172.53501	178.9625
176.84895	242.9625
181.15975	349.2625
185.46741	496.5625
189.77193	690.5625
194.07331	928.2625
198.37157	1199.5625
202.6667	1484.7625
206.9587	1772.0625
211.24758	2072.1625
215.53334	2361.1625
219.81599	2688.4625
224.09553	3049.4625
228.37195	3455.5625
232.64527	3868.0625
236.91549	4296.0625
241.18261	4689.2625
245.44663	4976.5625
249.70755	5216.5625
253.96539	5400.8625
258.22014	5562.3625
262.4718	5687.9625
266.72039	5781.2625
270.96589	5806.6625
275.20832	5768.0625
279.44768	5691.9625
283.68397	5571.6625
287.91719	5527.1625
292.14735	5524.2625
296.37445	5616.0625
300.59849	5827.3625
304.81948	6065.2625
309.03742	6335.0625
313.25231	6457.9625
317.46415	6393.4625
321.67296	6141.0625
325.87872	5861.2625
330.08145	5717.5625
334.28114	5692.8625
338.47781	5767.1625
342.67145	5920.3625
346.86207	6063.5625
351.04966	6313.3625
355.23424	6581.2625
359.4158	6754.7625
363.59435	6834.8625
367.76989	6830.7625
371.94243	6789.5625
376.11196	6753.3625
380.27849	6742.4625
384.44203	6703.5625
388.60257	6714.3625
392.76012	6767.7625
396.91468	6861.8625
401.06626	6976.7625
405.21485	6997.0625
409.36047	6875.6625
413.50311	6644.4625
417.64277	6439.8625
421.77947	6290.5625
425.9132	6243.6625
430.04396	6270.4625
434.17176	6284.2625
438.2966	6377.7625
442.41849	6461.9625
446.53742	6610.0625
450.6534	6773.9625
454.76644	6816.4625
458.87653	6814.2625
462.98368	6773.3625
467.08789	6738.1625
471.18916	6674.1625
475.2875	6526.1625
479.38291	6432.4625
483.4754	6334.5625
487.56496	6292.7625
491.6516	6274.7625
495.73531	6263.4625
499.81612	6299.2625
503.89401	6353.2625
507.96899	6391.8625
512.04106	6466.4625
516.11023	6542.5625
520.1765	6577.6625
524.23987	6601.3625
528.30034	6590.7625
532.35792	6565.3625
536.41261	6530.5625
540.46441	6435.1625
544.51333	6391.4625
548.55936	6418.1625
552.60252	6522.5625
556.64279	6627.8625
560.6802	6702.2625
564.71473	6799.6625
568.7464	6901.5625
572.7752	6883.5625
576.80114	6707.4625
580.82422	6558.0625
584.84444	6509.5625
588.86181	6517.5625
592.87633	6560.5625
596.888	6689.2625
600.89682	6999.2625
604.9028	7800.8625
608.90594	9479.1625
612.90624	11198.3625
616.90371	10372.5625
620.89834	7955.4625
624.89015	6913.1625
628.87913	6804.2625
632.86528	6947.5625
636.84862	7049.6625
640.82913	6946.0625
644.80683	6722.9625
648.78172	6560.9625
652.75379	6551.1625
656.72306	6746.0625
660.68952	6945.2625
664.65319	6883.6625
668.61405	6705.6625
672.57211	6686.9625
676.52738	6701.0625
680.47986	6621.3625
684.42955	6525.2625
688.37646	6482.1625
692.32058	6505.8625
696.26192	6604.8625
700.20048	6715.4625
704.13626	6772.3625
708.06928	6705.8625
711.99952	6662.9625
715.927	6661.3625
719.85171	6700.2625
723.77365	6720.5625
727.69284	6661.7625
731.60928	6605.3625
735.52295	6581.5625
739.43388	6638.1625
743.34206	6651.6625
747.24749	6675.9625
751.15017	6677.3625
755.05012	6758.6625
758.94733	7013.3625
762.8418	7714.1625
766.73354	8721.8625
770.62254	9523.6625
774.50882	9645.8625
778.39237	9201.7625
782.27321	8441.6625
786.15132	7613.4625
790.02671	7084.9625
793.89938	6840.1625
797.76935	6722.7625
801.6366	6661.9625
805.50115	6616.5625
809.36299	6614.3625
813.22213	6587.3625
817.07857	6588.2625
820.93231	6596.0625
824.78336	6610.2625
828.63172	6630.5625
832.47738	6639.3625
836.32036	6617.4625
840.16066	6589.2625
843.99827	6575.6625
847.8332	6592.4625
851.66546	6591.2625
855.49504	6618.0625
859.32195	6622.4625
863.1462	6634.9625
866.96777	6628.3625
870.78668	6612.6625
874.60293	6657.6625
878.41652	6675.6625
882.22745	6740.5625
886.03573	6777.0625
889.84136	6775.9625
893.64433	6745.3625
897.44466	6735.0625
901.24235	6717.3625
905.0374	6711.8625
908.8298	6655.1625
912.61957	6635.6625
916.40671	6644.5625
920.19121	6666.0625
923.97308	6730.0625
927.75233	6806.8625
931.52895	6854.9625
935.30295	6782.2625
939.07433	6681.4625
942.84309	6585.2625
946.60924	6536.7625
950.37278	6528.6625
954.13371	6518.6625
957.89203	6538.9625
961.64774	6518.3625
965.40086	6520.0625
969.15137	6511.7625
972.89929	6512.7625
976.64461	6525.5625
980.38733	6533.9625
984.12747	6539.1625
987.86502	6549.7625
991.59999	6615.3625
995.33237	6644.2625
999.06217	6712.5625
1002.78939	6812.4625
1006.51404	6965.5625
1010.23611	7089.4625
1013.95561	7155.8625
1017.67255	7132.1625
1021.38692	7083.3625
1025.09872	7013.8625
1028.80796	6903.9625
1032.51465	6852.0625
1036.21877	6874.2625
1039.92035	6922.5625
1043.61937	6960.0625
1047.31584	7000.3625
1051.00976	7002.8625
1054.70114	7004.6625
1058.38998	6999.6625
1062.07627	7048.6625
1065.76003	7119.7625
1069.44126	7188.1625
1073.11995	7340.7625
1076.79611	7483.3625
1080.46974	7595.7625
1084.14085	7710.6625
1087.80943	7808.8625
1091.47549	7896.6625
1095.13903	7849.8625
1098.80005	7781.6625
1102.45857	7663.7625
1106.11456	7575.7625
1109.76805	7495.6625
1113.41903	7508.4625
1117.06751	7617.9625
1120.71348	7792.3625
1124.35696	8053.6625
1127.99793	8227.3625
1131.63641	8081.3625
1135.2724	7804.3625
1138.90589	7625.4625
1142.5369	7528.5625
1146.16542	7486.7625
1149.79145	7470.0625
1153.415	7376.4625
1157.03607	7302.1625
1160.65467	7338.7625
1164.27079	7486.6625
1167.88443	7698.4625
1171.49561	8031.8625
1175.10432	8599.7625
1178.71056	9359.5625
1182.31434	10017.8625
1185.91565	10212.5625
1189.51451	10066.5625
1193.11091	9865.6625
1196.70485	9640.4625
1200.29634	9465.8625
1203.88538	9210.7625
1207.47197	8882.7625
1211.05612	8555.9625
1214.63782	8327.1625
1218.21708	8128.4625
1221.79391	7940.3625
1225.36829	7868.8625
1228.94024	7831.6625
1232.50976	7815.9625
1236.07685	7819.4625
1239.6415	7821.0625
1243.20374	7870.5625
1246.76355	7930.9625
1250.32093	8029.0625
1253.8759	8171.2625
1257.42845	8406.7625
1260.97859	8638.3625
1264.52631	8854.9625
1268.07163	8974.5625
1271.61453	9069.5625
1275.15503	9086.5625
1278.69312	9109.8625
1282.22882	9090.7625
1285.76211	9192.3625
1289.29301	9368.8625
1292.82151	9578.6625
1296.34761	9786.8625
1299.87133	10108.3625
1303.39266	10652.9625
1306.9116	11447.5625
1310.42815	12318.8625
1313.94233	12571.7625
1317.45412	12069.4625
1320.96354	11295.3625
1324.47058	10629.2625
1327.97525	10035.8625
1331.47754	9711.7625
1334.97747	9667.7625
1338.47502	9798.9625
1341.97022	10140.6625
1345.46305	10730.5625
1348.95352	11589.8625
1352.44163	12541.9625
1355.92738	13565.2625
1359.41078	14758.7625
1362.89183	15781.8625
1366.37053	15211.3625
1369.84688	13069.6625
1373.32088	11034.6625
1376.79254	9895.9625
1380.26186	9373.7625
1383.72883	9059.9625
1387.19347	8777.2625
1390.65578	8496.0625
1394.11575	8278.6625
1397.57339	8128.9625
1401.0287	7993.5625
1404.48168	7955.8625
1407.93234	7943.5625
1411.38068	8017.3625
1414.82669	8061.7625
1418.27039	8094.8625
1421.71177	8044.2625
1425.15083	7970.8625
1428.58758	7916.7625
1432.02203	7971.3625
1435.45416	8061.3625
1438.88399	8121.8625
1442.31151	8155.7625
1445.73673	8207.3625
1449.15965	8258.1625
1452.58027	8230.8625
1455.9986	8185.5625
1459.41463	8194.4625
1462.82837	8270.1625
1466.23982	8405.9625
1469.64898	8578.1625
1473.05586	8728.8625
1476.46045	8794.6625
1479.86276	8866.0625
1483.26279	8983.4625
1486.66054	9126.5625
1490.05602	9403.5625
1493.44922	9832.6625
1496.84016	10495.0625
1500.22882	11477.8625
1503.61521	12796.4625
1506.99934	14018.6625
1510.38121	14695.0625
1513.76081	14401.7625
1517.13816	13227.6625
1520.51324	11740.4625
1523.88607	10568.0625
1527.25665	9913.8625
1530.62498	9603.2625
1533.99105	9442.6625
1537.35488	9363.1625
1540.71647	9268.3625
1544.07581	9217.1625
1547.4329	9120.6625
1550.78776	8998.3625
1554.14038	8933.1625
1557.49077	8883.2625
1560.83892	8920.7625
1564.18484	9117.5625
1567.52853	9390.0625
1570.86999	9623.5625
1574.20922	9722.3625
1577.54624	9588.5625
1580.88103	9171.8625
1584.2136	8651.7625
1587.54395	8350.4625
1590.87208	8348.5625
1594.19801	8574.5625
1597.52172	8923.0625
1600.84321	9088.6625
1604.16251	9067.4625
1607.47959	8895.9625
1610.79447	8625.9625
1614.10715	8235.3625
1617.41763	7856.2625
1620.7259	7561.3625
1624.03199	7420.1625
1627.33587	7366.7625
1630.63757	7433.1625
1633.93707	7637.2625
1637.23439	8009.2625
1640.52951	8660.4625
1643.82246	9519.2625
1647.11321	10492.2625
1650.40179	11007.9625
1653.68819	10645.0625
1656.97241	9565.1625
1660.25446	8416.5625
1663.53433	7592.9625
1666.81203	7085.1625
1670.08756	6828.5625
1673.36092	6666.3625
1676.63211	6543.6625
1679.90115	6462.8625
1683.16801	6389.7625
1686.43272	6318.4625
1689.69527	6302.7625
1692.95567	6266.2625
1696.2139	6258.8625
1699.46999	6218.7625
1702.72392	6206.5625
1705.97571	6217.0625
1709.22535	6200.4625
1712.47284	6200.2625
1715.71819	6177.6625
1718.96139	6182.1625
1722.20246	6164.6625
1725.44139	6151.4625
1728.67818	6118.1625
1731.91284	6098.7625
1735.14537	6076.9625
1738.37576	6039.2625
1741.60403	6032.6625
1744.83017	6022.4625
1748.05418	6003.2625
1751.27607	5976.5625
1754.49584	5977.6625
1757.71349	5966.0625
1760.92903	5946.7625
1764.14244	5924.0625
1767.35375	5930.1625
1770.56294	5915.7625
1773.77002	5892.8625
1776.97499	5914.8625
1780.17785	5876.4625
1783.37861	5851.0625
1786.57727	5843.1625
1789.77382	5831.8625
1792.96828	5823.8625
1796.16064	5795.9625
1799.3509	5803.5625
1802.53907	5793.7625
1805.72514	5787.5625
1808.90913	5765.3625
1812.09102	5765.1625
1815.27083	5738.8625
1818.44856	5714.8625
1821.6242	5715.0625
1824.79776	5709.2625
1827.96924	5698.2625
1831.13864	5691.9625
1834.30597	5691.6625
1837.47122	5694.8625
1840.6344	5646.2625
1843.7955	5645.4625
1846.95454	5641.2625
1850.11151	5645.3625
1853.26642	5639.5625
1856.41926	5638.7625
1859.57004	5631.3625
1862.71876	5640.4625
1865.86542	5632.6625
1869.01003	5610.6625
1872.15258	5590.9625
1875.29308	5594.1625
1878.43152	5577.6625
1881.56792	5572.9625
1884.70227	5579.4625
1887.83457	5562.8625
1890.96482	5563.2625
1894.09304	5552.0625
1897.21921	5540.0625
1900.34335	5532.1625
1903.46544	5539.7625
1906.58551	5541.1625
1909.70353	5535.9625
1912.81953	5532.7625
1915.93349	5523.4625
1919.04543	5492.7625
1922.15534	5500.3625
1925.26322	5473.6625
1928.36908	5475.1625
1931.47292	5450.2625
1934.57473	5447.1625
1937.67453	5442.6625
1940.77232	5420.9625
1943.86808	5399.8625
1946.96184	5383.6625
1950.05358	5374.7625
1953.14331	5357.6625
1956.23103	5338.8625
1959.31675	5302.3625
1962.40046	5297.1625
1965.48217	5302.5625
1968.56188	5279.8625
1971.63959	5264.2625
1974.7153	5255.2625
1977.78901	5230.9625
1980.86073	5222.8625
1983.93046	5200.6625
1986.99819	5198.3625
1990.06394	5151.0625
1993.1277	5148.8625
1996.18947	5150.0625
1999.24925	5125.1625
2002.30706	5111.1625
2005.36288	5079.5625
2008.41672	5062.8625
2011.46859	5047.1625
2014.51848	5032.6625
2017.56639	5023.2625
2020.61233	5013.4625
2023.6563	4998.9625
2026.6983	4984.5625
2029.73833	4980.1625
2032.7764	4962.1625
2035.8125	4943.7625
2038.84664	4929.9625
2041.87881	4930.8625
2044.90903	4926.4625
2047.93729	4915.3625
2050.96359	4905.9625
2053.98794	4901.6625
2057.01034	4883.3625
2060.03078	4877.9625
2063.04927	4861.8625
2066.06582	4858.0625
2069.08042	4863.2625
2072.09307	4865.7625
2075.10378	4846.0625
2078.11255	4867.0625
2081.11938	4844.6625
2084.12426	4842.9625
2087.12722	4840.4625
2090.12824	4848.2625
2093.12732	4858.3625
2096.12447	4845.3625
2099.11969	4851.5625
2102.11299	4842.3625
2105.10435	4844.1625
2108.09379	4841.3625
2111.08131	4849.4625
2114.0669	4857.5625
2117.05057	4842.4625
2120.03233	4830.0625
2123.01216	4846.1625
2125.99008	4858.4625
2128.96609	4861.6625
2131.94018	4869.5625
2134.91236	4856.0625
2137.88263	4866.1625
2140.851	4852.6625
2143.81746	4868.7625
2146.78201	4865.3625
2149.74466	4860.7625
2152.7054	4848.2625
2155.66425	4848.2625
2158.6212	4854.6625
2161.57625	4857.9625
2164.52941	4865.7625
2167.48067	4865.5625
2170.43004	4846.1625
2173.37752	4842.9625
2176.32311	4836.7625
2179.26681	4832.5625
2182.20863	4836.2625
2185.14856	4842.1625
2188.08661	4836.8625
2191.02278	4824.8625
2193.95707	4821.0625
2196.88948	4823.1625
2199.82001	4823.6625
2202.74867	4803.0625
2205.67545	4805.0625
2208.60037	4810.0625
2211.52341	4785.5625
2214.44458	4755.5625
2217.36388	4763.6625
2220.28132	4743.7625
2223.1969	4720.6625
2226.11061	4737.8625
2229.02246	4722.3625
2231.93245	4696.0625
2234.84058	4700.4625
2237.74686	4693.7625
2240.65128	4691.7625
2243.55385	4693.8625
2246.45456	4696.2625
2249.35343	4682.2625
2252.25044	4677.6625
2255.14561	4664.6625
2258.03893	4669.9625
2260.93041	4661.0625
2263.82004	4662.7625
2266.70783	4636.7625
2269.59378	4643.6625
2272.4779	4617.5625
2275.36017	4618.2625
2278.24061	4593.3625
2281.11922	4593.4625
2283.996	4578.5625
2286.87094	4556.6625
2289.74405	4566.7625
2292.61534	4553.1625
2295.4848	4544.3625
2298.35243	4549.3625
2301.21824	4556.5625
2304.08223	4545.0625
2306.94439	4540.1625
2309.80474	4533.0625
2312.66327	4509.1625
2315.51999	4502.1625
2318.37489	4501.7625
2321.22797	4510.2625
2324.07925	4478.9625
2326.92871	4462.3625
2329.77637	4472.7625
2332.62222	4474.0625
2335.46626	4459.0625
2338.3085	4461.6625
2341.14893	4464.5625
2343.98756	4453.2625
2346.8244	4444.2625
2349.65943	4437.1625
2352.49267	4439.3625
2355.32411	4437.5625
2358.15376	4432.1625
2360.98161	4432.5625
2363.80768	4432.9625
2366.63195	4428.9625
2369.45444	4432.8625
2372.27514	4430.4625
2375.09405	4433.5625
2377.91118	4407.6625
2380.72652	4417.2625
2383.54009	4392.6625
2386.35187	4387.6625
2389.16188	4378.9625
2391.97011	4356.8625
2394.77657	4359.7625
2397.58125	4345.8625
2400.38416	4330.3625
2403.18529	4324.5625
2405.98466	4321.7625
2408.78226	4310.2625
2411.57809	4297.3625
2414.37216	4297.0625
2417.16446	4298.0625
2419.955	4288.6625
2422.74378	4287.7625
2425.5308	4294.2625
2428.31606	4276.8625
2431.09956	4269.5625
2433.88131	4271.4625
2436.6613	4262.8625
2439.43954	4263.3625
2442.21603	4266.2625
2444.99077	4265.3625
2447.76377	4267.6625
2450.53501	4244.4625
2453.30451	4253.5625
2456.07226	4259.9625
2458.83827	4234.0625
2461.60254	4236.3625
2464.36507	4234.7625
2467.12586	4230.1625
2469.88492	4214.1625
2472.64224	4218.3625
2475.39782	4218.3625
2478.15167	4240.9625
2480.90379	4213.1625
2483.65417	4230.2625
2486.40283	4220.3625
2489.14976	4227.5625
2491.89497	4208.4625
2494.63845	4225.5625
2497.3802	4223.5625
2500.12024	4200.7625
2502.85855	4191.3625
2505.59514	4182.6625
2508.33002	4172.3625
2511.06318	4162.1625
2513.79462	4149.4625
2516.52435	4143.5625
2519.25237	4137.5625
2521.97867	4131.9625
2524.70327	4127.5625
2527.42616	4122.2625
2530.14734	4115.4625
2532.86681	4097.0625
2535.58458	4100.4625
2538.30065	4109.4625
2541.01501	4098.1625
2543.72768	4091.0625
2546.43864	4096.1625
2549.14791	4084.6625
2551.85548	4089.2625
2554.56136	4075.7625
2557.26554	4071.9625
2559.96803	4066.7625
2562.66883	4063.4625
2565.36794	4055.8625
2568.06536	4035.6625
2570.7611	4018.5625
2573.45514	4025.9625
2576.14751	4007.5625
2578.83819	4011.2625
2581.52719	3988.7625
2584.21451	3972.2625
2586.90015	3970.1625
2589.58411	3950.1625
2592.2664	3951.3625
2594.94701	3952.8625
2597.62594	3947.7625
2600.30321	3937.5625
2602.9788	3932.3625
2605.65273	3928.0625
2608.32498	3918.0625
2610.99557	3917.8625
2613.66449	3922.3625
2616.33175	3898.4625
2618.99734	3896.2625
2621.66128	3889.2625
2624.32355	3883.5625
2626.98416	3886.3625
2629.64311	3872.5625
2632.30041	3873.4625
2634.95605	3858.5625
2637.61004	3844.7625
2640.26238	3848.4625
2642.91306	3845.2625
2645.56209	3829.4625
2648.20948	3837.7625
2650.85521	3830.2625
2653.4993	3811.7625
2656.14175	3831.8625
2658.78255	3833.5625
2661.42171	3835.5625
2664.05923	3844.8625
2666.6951	3847.0625
2669.32934	3843.1625
2671.96194	3848.1625
2674.59291	3850.4625
2677.22224	3842.7625
2679.84993	3839.5625
2682.476	3836.8625
2685.10043	3826.2625
2687.72324	3803.7625
2690.34441	3817.3625
2692.96396	3822.8625
2695.58188	3810.3625
2698.19818	3809.3625
2700.81285	3823.1625
2703.4259	3825.8625
2706.03733	3798.3625
2708.64714	3804.4625
2711.25533	3793.0625
2713.86191	3787.6625
2716.46687	3801.1625
2719.07021	3792.6625
2721.67194	3811.2625
2724.27206	3797.0625
2726.87057	3809.9625
2729.46747	3811.2625
2732.06276	3803.4625
2734.65644	3793.1625
2737.24852	3792.0625
2739.83899	3789.3625
2742.42786	3781.4625
2745.01513	3772.4625
2747.60079	3767.4625
2750.18486	3766.8625
2752.76733	3754.6625
2755.3482	3754.3625
2757.92747	3758.0625
2760.50515	3734.5625
2763.08123	3730.5625
2765.65573	3721.0625
2768.22863	3718.3625
2770.79994	3695.3625
2773.36967	3702.4625
2775.9378	3706.6625
2778.50435	3696.4625
2781.06932	3677.9625
2783.6327	3688.0625
2786.1945	3663.8625
2788.75471	3665.8625
2791.31335	3663.9625
2793.87041	3648.2625
2796.42589	3638.8625
2798.97979	3651.1625
2801.53212	3637.7625
2804.08288	3634.2625
2806.63206	3644.5625
2809.17967	3619.1625
2811.72571	3612.4625
2814.27018	3623.9625
2816.81308	3609.8625
2819.35442	3582.1625
2821.89419	3583.3625
2824.43239	3572.8625
2826.96904	3571.1625
2829.50412	3573.6625
2832.03763	3568.7625
2834.56959	3547.0625
2837.1	3537.5625
2839.62884	3535.8625
2842.15613	3532.6625
2844.68186	3525.8625
2847.20604	3534.1625
2849.72867	3524.1625
2852.24974	3522.0625
2854.76927	3511.5625
2857.28724	3482.5625
2859.80367	3485.8625
2862.31855	3493.3625
2864.83189	3485.7625
2867.34368	3492.2625
2869.85393	3487.4625
2872.36264	3487.2625
2874.8698	3479.4625
2877.37543	3463.4625
2879.87952	3459.6625
2882.38207	3459.4625
2884.88308	3460.3625
2887.38256	3462.8625
2889.88051	3443.0625
2892.37692	3434.9625
2894.8718	3448.7625
2897.36515	3436.7625
2899.85698	3438.0625
2902.34727	3435.9625
2904.83604	3434.2625
2907.32328	3444.8625
2909.809	3459.0625
2912.29319	3454.2625
2914.77587	3437.5625
2917.25702	3447.0625
2919.73665	3448.5625
2922.21476	3462.4625
2924.69136	3422.2625
2927.16644	3440.4625
2929.64	3426.3625
2932.11205	3423.9625
2934.58258	3404.4625
2937.05161	3405.3625
2939.51912	3399.4625
2941.98513	3406.2625
2944.44962	3396.5625
2946.91261	3375.9625
2949.37409	3387.3625
2951.83407	3386.5625
2954.29254	3388.4625
2956.74951	3387.1625
2959.20498	3374.5625
2961.65895	3378.4625
2964.11142	3362.5625
2966.56239	3351.9625
2969.01186	3370.2625
2971.45984	3361.2625
2973.90632	3364.5625
2976.35131	3367.6625
2978.7948	3340.7625
2981.23681	3330.7625
2983.67732	3329.6625
2986.11635	3320.0625
2988.55388	3324.1625
2990.98993	3309.2625
2993.4245	3310.3625
2995.85758	3305.1625
2998.28917	3299.8625
3000.71928	3286.0625
3003.14791	3288.3625
3005.57506	3266.9625
3008.00073	3251.5625
3010.42493	3257.2625
3012.84764	3234.6625
3015.26888	3230.3625
3017.68865	3231.0625
3020.10694	3233.1625
3022.52376	3220.5625
3024.9391	3222.8625
3027.35298	3201.8625
3029.76539	3184.2625
3032.17632	3175.5625
3034.5858	3189.1625
3036.9938	3174.6625
3039.40034	3169.7625
3041.80542	3142.4625
3044.20903	3158.2625
3046.61118	3160.4625
3049.01187	3136.3625
3051.4111	3129.8625
3053.80888	3125.4625
3056.20519	3120.8625
3058.60005	3103.5625
3060.99345	3108.8625
3063.3854	3097.5625
3065.7759	3089.6625
3068.16494	3088.6625
3070.55254	3084.0625
3072.93868	3083.7625
3075.32338	3053.0625
3077.70662	3047.6625
3080.08842	3028.4625
3082.46878	3044.4625
3084.84769	3032.2625
3087.22515	3012.2625
3089.60118	3021.0625
3091.97576	3033.6625
3094.3489	3027.3625
3096.72061	3018.6625
3099.09087	3017.8625
3101.4597	3002.8625
3103.82709	3002.0625
3106.19305	2999.0625
3108.55757	2990.8625
3110.92066	2991.7625
3113.28232	2979.0625
3115.64255	2967.8625
3118.00134	2968.7625
3120.35871	2960.5625
3122.71466	2946.9625
3125.06917	2956.4625
3127.42226	2946.6625
3129.77393	2936.6625
3132.12417	2942.6625
3134.47299	2935.4625
3136.82039	2923.5625
3139.16636	2913.2625
3141.51092	2915.4625
3143.85406	2925.5625
3146.19579	2904.9625
3148.53609	2908.9625
3150.87499	2920.6625
3153.21246	2910.8625
3155.54853	2912.3625
3157.88318	2900.6625
3160.21642	2910.7625
3162.54826	2907.7625
3164.87868	2897.8625
3167.2077	2887.9625
3169.5353	2892.6625
3171.86151	2889.2625
3174.18631	2881.8625
3176.5097	2889.7625
3178.83169	2877.5625
3181.15228	2859.9625
3183.47147	2862.1625
3185.78926	2858.4625
3188.10565	2859.0625
3190.42065	2840.8625
3192.73424	2839.1625
3195.04645	2822.7625
3197.35725	2815.6625
3199.66667	2817.4625
3201.97469	2814.3625
3204.28132	2814.0625
3206.58656	2815.1625
3208.8904	2823.2625
3211.19287	2823.6625
3213.49394	2826.7625
3215.79363	2808.6625
3218.09193	2813.1625
3220.38884	2820.3625
3222.68438	2815.7625
3224.97853	2814.5625
3227.2713	2816.1625
3229.56269	2810.7625
3231.8527	2799.9625
3234.14133	2791.0625
3236.42858	2772.6625
3238.71446	2781.8625
3240.99896	2766.3625
3243.28209	2761.6625
3245.56384	2756.3625
3247.84423	2759.0625
3250.12324	2756.3625
3252.40088	2745.0625
3254.67715	2750.1625
3256.95205	2740.3625
3259.22558	2727.6625
3261.49775	2736.3625
3263.76855	2732.4625
3266.03799	2741.5625
3268.30606	2736.9625
3270.57277	2741.6625
3272.83812	2718.6625
3275.10211	2708.1625
3277.36474	2703.0625
3279.62601	2701.1625
3281.88593	2686.3625
3284.14448	2701.9625
3286.40168	2695.4625
3288.65753	2689.5625
3290.91202	2673.5625
3293.16516	2681.7625
3295.41695	2668.7625
3297.66738	2655.1625
3299.91647	2648.7625
3302.16421	2637.1625
3304.4106	2624.7625
3306.65564	2586.9625
3308.89933	2572.1625
3311.14169	2555.1625
3313.38269	2535.4625
3315.62236	2517.6625
3317.86068	2500.9625
3320.09766	2478.3625
3322.3333	2455.3625
3324.5676	2428.3625
3326.80056	2394.9625
3329.03219	2376.9625
3331.26248	1.5625
3333.49143	-1.1375
3335.71905	-0.4375
