Data from AgNPs_UA_5uM_CRN_500uM_SU_RamanShift__303__12-19-53-200.txt Node

Date: Thu Aug 04 12:19:53 BST 2022
User: TCL
Spectrometer: QEP01345
Trigger mode: 4
Integration Time (sec): 1.000000E0
Scans to average: 10
Electric dark correction enabled: true
Nonlinearity correction enabled: false
Boxcar width: 0
XAxis mode: Raman Shifts
Number of Pixels in Spectrum: 1044
>>>>>Begin Spectral Data<<<<<
46.04893	1.675
50.45542	0.675
54.85868	-0.525
59.25871	-0.525
63.6555	-73.825
68.04907	-58.225
72.43941	-88.225
76.82654	-75.125
81.21044	-74.925
85.59113	-67.925
89.96862	-94.725
94.34289	-76.925
98.71396	-97.625
103.08183	-79.325
107.4465	-70.825
111.80798	-80.225
116.16626	-69.225
120.52136	-100.125
124.87327	-76.225
129.222	-90.625
133.56755	-79.825
137.90993	-96.625
142.24913	-88.325
146.58517	-84.925
150.91804	-88.525
155.24774	-89.125
159.57429	-84.025
163.89768	-103.525
168.21792	-91.325
172.53501	-122.225
176.84895	-111.825
181.15975	-88.825
185.46741	-91.525
189.77193	-116.125
194.07331	-77.425
198.37157	-79.325
202.6667	-97.125
206.9587	-84.225
211.24758	-85.025
215.53334	-86.725
219.81599	-92.025
224.09553	-79.925
228.37195	-79.825
232.64527	-84.925
236.91549	-62.825
241.18261	-71.925
245.44663	-54.725
249.70755	-62.225
253.96539	-61.825
258.22014	-48.925
262.4718	-48.125
266.72039	-34.525
270.96589	-34.525
275.20832	-40.825
279.44768	-34.025
283.68397	-38.525
287.91719	-50.325
292.14735	-52.325
296.37445	-39.825
300.59849	-27.125
304.81948	-43.925
309.03742	-44.125
313.25231	-52.125
317.46415	-26.525
321.67296	-52.125
325.87872	-51.225
330.08145	-34.725
334.28114	-37.625
338.47781	-42.325
342.67145	-43.425
346.86207	-48.825
351.04966	-43.125
355.23424	-47.225
359.4158	-37.425
363.59435	-53.525
367.76989	-39.625
371.94243	-36.025
376.11196	-39.125
380.27849	-20.125
384.44203	-26.725
388.60257	-27.225
392.76012	-33.625
396.91468	-12.525
401.06626	-1.225
405.21485	-20.825
409.36047	-9.425
413.50311	11.175
417.64277	46.075
421.77947	60.375
425.9132	112.975
430.04396	130.375
434.17176	132.575
438.2966	116.675
442.41849	71.575
446.53742	37.975
450.6534	14.675
454.76644	19.475
458.87653	14.775
462.98368	-10.325
467.08789	-32.825
471.18916	-27.925
475.2875	-3.525
479.38291	17.875
483.4754	16.175
487.56496	38.975
491.6516	32.575
495.73531	26.875
499.81612	14.875
503.89401	25.375
507.96899	-1.925
512.04106	-4.825
516.11023	-0.625
520.1765	-5.025
524.23987	-13.125
528.30034	3.375
532.35792	-37.525
536.41261	-14.725
540.46441	-7.425
544.51333	-21.925
548.55936	-20.225
552.60252	3.075
556.64279	-21.725
560.6802	-1.025
564.71473	-16.525
568.7464	-16.725
572.7752	-16.925
576.80114	-20.925
580.82422	-10.025
584.84444	-17.525
588.86181	-9.925
592.87633	4.075
596.888	9.975
600.89682	10.475
604.9028	21.375
608.90594	2.075
612.90624	3.275
616.90371	-23.825
620.89834	-31.225
624.89015	-8.825
628.87913	-26.125
632.86528	-27.725
636.84862	-14.525
640.82913	-2.225
644.80683	-32.225
648.78172	-16.425
652.75379	-13.825
656.72306	-12.625
660.68952	-24.025
664.65319	-19.925
668.61405	-24.325
672.57211	-28.525
676.52738	-9.825
680.47986	-29.725
684.42955	-9.525
688.37646	7.075
692.32058	9.175
696.26192	39.575
700.20048	69.375
704.13626	99.775
708.06928	102.375
711.99952	107.975
715.927	56.075
719.85171	29.175
723.77365	24.975
727.69284	-2.825
731.60928	14.675
735.52295	-9.725
739.43388	7.275
743.34206	-12.025
747.24749	5.275
751.15017	8.875
755.05012	-28.325
758.94733	-12.725
762.8418	-41.525
766.73354	-32.225
770.62254	-18.825
774.50882	-32.725
778.39237	-29.925
782.27321	-33.725
786.15132	-29.925
790.02671	-0.925
793.89938	-51.825
797.76935	-15.825
801.6366	-27.325
805.50115	-25.025
809.36299	-11.725
813.22213	-10.225
817.07857	-10.825
820.93231	-20.525
824.78336	-15.025
828.63172	-26.625
832.47738	-31.525
836.32036	-7.125
840.16066	-17.525
843.99827	-17.125
847.8332	-28.225
851.66546	-29.525
855.49504	-53.325
859.32195	-27.925
863.1462	-36.825
866.96777	-31.925
870.78668	-53.425
874.60293	-55.825
878.41652	-61.325
882.22745	-37.125
886.03573	-47.125
889.84136	-64.725
893.64433	-43.725
897.44466	-56.025
901.24235	-53.225
905.0374	-25.225
908.8298	-45.625
912.61957	-43.025
916.40671	-88.525
920.19121	-59.625
923.97308	-30.825
927.75233	-71.625
931.52895	-86.225
935.30295	-50.525
939.07433	-48.425
942.84309	-72.425
946.60924	-56.225
950.37278	-66.425
954.13371	-61.725
957.89203	-71.225
961.64774	-46.825
965.40086	-65.225
969.15137	-80.425
972.89929	-42.325
976.64461	-56.625
980.38733	-40.725
984.12747	-60.425
987.86502	-64.425
991.59999	-67.325
995.33237	-44.325
999.06217	-42.925
1002.78939	-57.525
1006.51404	-68.325
1010.23611	-69.825
1013.95561	-54.925
1017.67255	-44.425
1021.38692	-43.625
1025.09872	-50.325
1028.80796	-69.925
1032.51465	-43.925
1036.21877	-70.425
1039.92035	-53.625
1043.61937	-60.325
1047.31584	-50.325
1051.00976	-31.125
1054.70114	-24.125
1058.38998	-26.525
1062.07627	-36.625
1065.76003	-41.125
1069.44126	-23.825
1073.11995	-40.825
1076.79611	-35.225
1080.46974	-30.225
1084.14085	-22.425
1087.80943	-29.325
1091.47549	-19.725
1095.13903	-15.525
1098.80005	-6.425
1102.45857	-15.425
1106.11456	-7.325
1109.76805	-47.125
1113.41903	-4.625
1117.06751	-8.925
1120.71348	-26.925
1124.35696	-16.225
1127.99793	-25.325
1131.63641	-21.425
1135.2724	-11.625
1138.90589	-10.325
1142.5369	-42.025
1146.16542	-25.225
1149.79145	-35.925
1153.415	-26.625
1157.03607	-31.325
1160.65467	-30.925
1164.27079	-24.025
1167.88443	-43.325
1171.49561	-21.325
1175.10432	-37.725
1178.71056	-36.525
1182.31434	-28.925
1185.91565	-29.425
1189.51451	-26.625
1193.11091	-16.725
1196.70485	-5.625
1200.29634	-9.925
1203.88538	-8.925
1207.47197	-23.825
1211.05612	-22.825
1214.63782	-26.425
1218.21708	-6.125
1221.79391	0.675
1225.36829	-22.525
1228.94024	-10.025
1232.50976	-5.925
1236.07685	6.875
1239.6415	10.375
1243.20374	13.375
1246.76355	21.875
1250.32093	61.575
1253.8759	57.875
1257.42845	84.975
1260.97859	83.675
1264.52631	102.975
1268.07163	76.775
1271.61453	72.675
1275.15503	52.675
1278.69312	26.375
1282.22882	19.875
1285.76211	20.975
1289.29301	-22.425
1292.82151	-16.225
1296.34761	-32.225
1299.87133	-24.525
1303.39266	-34.225
1306.9116	-38.825
1310.42815	-44.225
1313.94233	-43.625
1317.45412	-54.025
1320.96354	-34.225
1324.47058	-11.025
1327.97525	6.475
1331.47754	-45.025
1334.97747	-39.925
1338.47502	-49.625
1341.97022	-54.325
1345.46305	-47.525
1348.95352	-54.525
1352.44163	-32.925
1355.92738	-50.325
1359.41078	-50.525
1362.89183	-46.725
1366.37053	-62.325
1369.84688	-56.525
1373.32088	-29.825
1376.79254	2.475
1380.26186	16.675
1383.72883	62.175
1387.19347	96.875
1390.65578	87.175
1394.11575	58.475
1397.57339	19.975
1401.0287	-13.425
1404.48168	-26.725
1407.93234	-20.225
1411.38068	-60.225
1414.82669	-60.225
1418.27039	-40.025
1421.71177	-43.425
1425.15083	-56.125
1428.58758	-54.425
1432.02203	-50.225
1435.45416	-27.425
1438.88399	-54.325
1442.31151	-75.025
1445.73673	-36.525
1449.15965	-36.725
1452.58027	-58.625
1455.9986	-60.925
1459.41463	-59.225
1462.82837	-50.225
1466.23982	-51.625
1469.64898	-45.825
1473.05586	-66.025
1476.46045	-54.925
1479.86276	-58.025
1483.26279	-70.625
1486.66054	-44.025
1490.05602	-63.425
1493.44922	-48.125
1496.84016	-63.125
1500.22882	-47.625
1503.61521	-52.925
1506.99934	-57.425
1510.38121	-64.925
1513.76081	-64.725
1517.13816	-59.825
1520.51324	-72.725
1523.88607	-70.525
1527.25665	-59.125
1530.62498	-65.225
1533.99105	-51.025
1537.35488	-53.125
1540.71647	-43.425
1544.07581	-49.525
1547.4329	-58.425
1550.78776	-51.425
1554.14038	-54.225
1557.49077	-58.925
1560.83892	-45.525
1564.18484	-52.925
1567.52853	-64.525
1570.86999	-50.125
1574.20922	-59.525
1577.54624	-47.425
1580.88103	-41.525
1584.2136	-67.525
1587.54395	-35.025
1590.87208	-27.125
1594.19801	-58.425
1597.52172	-24.825
1600.84321	7.475
1604.16251	-4.725
1607.47959	-30.325
1610.79447	-12.325
1614.10715	-9.225
1617.41763	16.575
1620.7259	4.275
1624.03199	30.175
1627.33587	36.775
1630.63757	41.275
1633.93707	68.375
1637.23439	88.675
1640.52951	130.975
1643.82246	147.475
1647.11321	193.075
1650.40179	219.675
1653.68819	270.075
1656.97241	304.575
1660.25446	304.675
1663.53433	294.475
1666.81203	260.475
1670.08756	219.675
1673.36092	191.875
1676.63211	127.575
1679.90115	113.175
1683.16801	102.975
1686.43272	94.875
1689.69527	149.575
1692.95567	235.375
1696.2139	417.075
1699.46999	538.075
1702.72392	558.275
1705.97571	423.875
1709.22535	220.475
1712.47284	128.675
1715.71819	66.975
1718.96139	25.575
1722.20246	10.175
1725.44139	1.375
1728.67818	16.875
1731.91284	2.475
1735.14537	7.175
1738.37576	13.075
1741.60403	30.075
1744.83017	33.575
1748.05418	79.775
1751.27607	143.475
1754.49584	211.875
1757.71349	296.075
1760.92903	352.275
1764.14244	309.675
1767.35375	316.675
1770.56294	314.675
1773.77002	266.675
1776.97499	194.075
1780.17785	96.575
1783.37861	41.075
1786.57727	28.375
1789.77382	-47.925
1792.96828	-13.125
1796.16064	-10.625
1799.3509	-33.025
1802.53907	-21.125
1805.72514	-42.225
1808.90913	-46.725
1812.09102	-36.625
1815.27083	-34.925
1818.44856	-45.125
1821.6242	-39.025
1824.79776	-42.025
1827.96924	-45.925
1831.13864	-58.325
1834.30597	-36.425
1837.47122	-49.525
1840.6344	-48.925
1843.7955	-63.525
1846.95454	-67.925
1850.11151	-42.425
1853.26642	-74.225
1856.41926	-65.525
1859.57004	-63.525
1862.71876	-67.425
1865.86542	-59.125
1869.01003	-63.725
1872.15258	-80.625
1875.29308	-55.625
1878.43152	-46.825
1881.56792	-56.825
1884.70227	-69.225
1887.83457	-58.525
1890.96482	-76.925
1894.09304	-63.125
1897.21921	-61.725
1900.34335	-52.525
1903.46544	-72.025
1906.58551	-56.125
1909.70353	-57.325
1912.81953	-60.125
1915.93349	-63.025
1919.04543	-60.025
1922.15534	-71.525
1925.26322	-64.525
1928.36908	-70.225
1931.47292	-54.525
1934.57473	-33.125
1937.67453	-48.425
1940.77232	-59.625
1943.86808	-52.925
1946.96184	-44.725
1950.05358	-55.325
1953.14331	-59.225
1956.23103	-40.625
1959.31675	-59.825
1962.40046	-92.425
1965.48217	-54.525
1968.56188	-55.925
1971.63959	-58.525
1974.7153	-50.925
1977.78901	-48.725
1980.86073	-51.425
1983.93046	-68.925
1986.99819	-122.425
1990.06394	-93.125
1993.1277	-56.425
1996.18947	-57.925
1999.24925	-76.325
2002.30706	-55.925
2005.36288	-45.625
2008.41672	-56.325
2011.46859	-69.325
2014.51848	-65.225
2017.56639	-71.525
2020.61233	-64.125
2023.6563	-47.725
2026.6983	-80.425
2029.73833	-62.125
2032.7764	-42.225
2035.8125	-84.025
2038.84664	-69.725
2041.87881	-73.825
2044.90903	-57.025
2047.93729	-59.125
2050.96359	-77.025
2053.98794	-55.025
2057.01034	-51.125
2060.03078	-67.925
2063.04927	-74.625
2066.06582	-63.225
2069.08042	-70.725
2072.09307	-58.125
2075.10378	-51.725
2078.11255	-59.025
2081.11938	-59.725
2084.12426	-64.125
2087.12722	-67.825
2090.12824	-71.925
2093.12732	-65.025
2096.12447	-55.825
2099.11969	-60.725
2102.11299	-68.425
2105.10435	-44.925
2108.09379	-58.825
2111.08131	-68.625
2114.0669	-59.525
2117.05057	-65.225
2120.03233	-88.125
2123.01216	-68.725
2125.99008	-68.125
2128.96609	-66.425
2131.94018	-49.525
2134.91236	-64.325
2137.88263	-71.325
2140.851	-62.225
2143.81746	-45.425
2146.78201	-57.225
2149.74466	-68.825
2152.7054	-51.625
2155.66425	-61.525
2158.6212	-61.725
2161.57625	-75.525
2164.52941	-93.625
2167.48067	-74.425
2170.43004	-75.325
2173.37752	-54.525
2176.32311	-65.125
2179.26681	-62.925
2182.20863	-59.625
2185.14856	-60.825
2188.08661	-59.025
2191.02278	-50.825
2193.95707	-70.825
2196.88948	-76.625
2199.82001	-62.125
2202.74867	-69.425
2205.67545	-65.825
2208.60037	-53.325
2211.52341	-59.825
2214.44458	-59.825
2217.36388	-54.025
2220.28132	-63.125
2223.1969	-68.325
2226.11061	-55.525
2229.02246	-62.025
2231.93245	-51.825
2234.84058	-64.725
2237.74686	-65.025
2240.65128	-66.725
2243.55385	-50.625
2246.45456	-72.625
2249.35343	-52.825
2252.25044	-66.925
2255.14561	-58.425
2258.03893	-38.625
2260.93041	-12.125
2263.82004	-40.925
2266.70783	-44.325
2269.59378	-58.425
2272.4779	-70.425
2275.36017	-49.925
2278.24061	-61.425
2281.11922	-82.825
2283.996	-60.525
2286.87094	-76.925
2289.74405	-60.025
2292.61534	-58.225
2295.4848	-57.525
2298.35243	-60.725
2301.21824	-64.925
2304.08223	-62.925
2306.94439	-53.625
2309.80474	-46.925
2312.66327	-47.825
2315.51999	-54.025
2318.37489	-52.125
2321.22797	-64.325
2324.07925	-56.625
2326.92871	-55.425
2329.77637	-63.425
2332.62222	-51.425
2335.46626	-65.425
2338.3085	-61.525
2341.14893	-44.025
2343.98756	-35.825
2346.8244	-53.725
2349.65943	-60.325
2352.49267	-53.425
2355.32411	-51.625
2358.15376	-59.425
2360.98161	-52.925
2363.80768	-72.625
2366.63195	-62.625
2369.45444	-56.925
2372.27514	-59.725
2375.09405	-44.225
2377.91118	-75.825
2380.72652	-71.525
2383.54009	-66.025
2386.35187	-52.025
2389.16188	-65.625
2391.97011	-58.825
2394.77657	-64.225
2397.58125	-51.325
2400.38416	-48.825
2403.18529	-57.025
2405.98466	-63.525
2408.78226	-48.225
2411.57809	-46.925
2414.37216	-50.425
2417.16446	-46.825
2419.955	-65.325
2422.74378	-44.325
2425.5308	-67.125
2428.31606	-57.725
2431.09956	-50.125
2433.88131	-66.625
2436.6613	-49.125
2439.43954	-59.625
2442.21603	-64.925
2444.99077	-72.525
2447.76377	-59.725
2450.53501	-66.525
2453.30451	-73.525
2456.07226	-56.825
2458.83827	-62.325
2461.60254	-100.225
2464.36507	-56.425
2467.12586	-69.925
2469.88492	-58.525
2472.64224	-59.625
2475.39782	-45.825
2478.15167	-27.725
2480.90379	-53.225
2483.65417	-47.625
2486.40283	-46.825
2489.14976	-48.525
2491.89497	-63.725
2494.63845	-26.725
2497.3802	-29.025
2500.12024	-50.825
2502.85855	-55.425
2505.59514	-44.725
2508.33002	-51.525
2511.06318	-65.725
2513.79462	-50.625
2516.52435	-79.225
2519.25237	-87.625
2521.97867	-69.225
2524.70327	-62.425
2527.42616	-58.225
2530.14734	-43.525
2532.86681	-63.025
2535.58458	-58.325
2538.30065	-64.325
2541.01501	-47.825
2543.72768	-60.825
2546.43864	-55.325
2549.14791	-57.925
2551.85548	-67.325
2554.56136	-69.325
2557.26554	-59.425
2559.96803	-61.925
2562.66883	-60.525
2565.36794	-69.725
2568.06536	-87.025
2570.7611	-54.525
2573.45514	-59.925
2576.14751	-61.525
2578.83819	-66.925
2581.52719	-66.125
2584.21451	-56.025
2586.90015	-73.925
2589.58411	-76.825
2592.2664	-61.025
2594.94701	-55.925
2597.62594	-50.725
2600.30321	-104.025
2602.9788	-76.725
2605.65273	-77.125
2608.32498	-72.125
2610.99557	-49.425
2613.66449	-82.725
2616.33175	-65.125
2618.99734	-63.925
2621.66128	-57.525
2624.32355	-60.425
2626.98416	-70.825
2629.64311	-66.225
2632.30041	-64.225
2634.95605	-77.625
2637.61004	-82.425
2640.26238	-96.225
2642.91306	-93.925
2645.56209	-68.425
2648.20948	-74.425
2650.85521	-89.625
2653.4993	-70.025
2656.14175	-78.225
2658.78255	-84.025
2661.42171	-114.425
2664.05923	-83.525
2666.6951	-79.225
2669.32934	-77.625
2671.96194	-63.725
2674.59291	-77.025
2677.22224	-65.625
2679.84993	-69.825
2682.476	-77.625
2685.10043	-77.325
2687.72324	-85.225
2690.34441	-83.925
2692.96396	-81.225
2695.58188	-64.925
2698.19818	-73.625
2700.81285	-77.625
2703.4259	2.175
2706.03733	96.875
2708.64714	5.675
2711.25533	-15.625
2713.86191	-29.525
2716.46687	-49.425
2719.07021	-59.425
2721.67194	-74.025
2724.27206	-59.725
2726.87057	-80.025
2729.46747	-86.425
2732.06276	-76.725
2734.65644	-84.325
2737.24852	-77.325
2739.83899	-92.625
2742.42786	-75.425
2745.01513	-60.125
2747.60079	-76.325
2750.18486	-86.025
2752.76733	-74.525
2755.3482	-77.925
2757.92747	-70.325
2760.50515	-77.325
2763.08123	-75.425
2765.65573	-69.125
2768.22863	-76.725
2770.79994	-77.425
2773.36967	-75.425
2775.9378	-77.325
2778.50435	-74.625
2781.06932	-73.225
2783.6327	-84.325
2786.1945	-58.525
2788.75471	-71.325
2791.31335	-67.325
2793.87041	-63.225
2796.42589	-78.525
2798.97979	-84.225
2801.53212	-72.025
2804.08288	-56.425
2806.63206	-68.125
2809.17967	-82.625
2811.72571	-59.825
2814.27018	-64.025
2816.81308	-67.725
2819.35442	-97.725
2821.89419	-69.325
2824.43239	-79.525
2826.96904	-48.625
2829.50412	-74.425
2832.03763	-64.625
2834.56959	-61.125
2837.1	-67.225
2839.62884	-63.425
2842.15613	-65.825
2844.68186	-53.025
2847.20604	-76.825
2849.72867	-75.025
2852.24974	-59.025
2854.76927	-47.725
2857.28724	-60.525
2859.80367	-32.325
2862.31855	-38.525
2864.83189	-54.125
2867.34368	-51.525
2869.85393	-44.025
2872.36264	-72.125
2874.8698	-67.725
2877.37543	-62.725
2879.87952	-68.325
2882.38207	-85.325
2884.88308	-67.625
2887.38256	-64.525
2889.88051	-65.125
2892.37692	-62.725
2894.8718	-77.125
2897.36515	-59.625
2899.85698	-65.825
2902.34727	-73.225
2904.83604	-71.625
2907.32328	-70.025
2909.809	-73.525
2912.29319	-85.425
2914.77587	-81.225
2917.25702	-73.525
2919.73665	-68.325
2922.21476	-64.225
2924.69136	-56.025
2927.16644	-72.025
2929.64	-66.225
2932.11205	-76.425
2934.58258	-63.825
2937.05161	-73.125
2939.51912	-69.925
2941.98513	-51.425
2944.44962	-63.825
2946.91261	-83.325
2949.37409	-76.925
2951.83407	-78.425
2954.29254	-72.425
2956.74951	-70.125
2959.20498	-80.225
2961.65895	-69.925
2964.11142	-74.025
2966.56239	-64.125
2969.01186	-63.125
2971.45984	-68.125
2973.90632	-74.725
2976.35131	-53.625
2978.7948	-62.425
2981.23681	-70.525
2983.67732	-64.025
2986.11635	-58.125
2988.55388	-82.225
2990.98993	-67.025
2993.4245	-73.025
2995.85758	-75.725
2998.28917	-72.025
3000.71928	-73.425
3003.14791	-64.225
3005.57506	-71.825
3008.00073	-77.125
3010.42493	-131.225
3012.84764	-67.725
3015.26888	-64.725
3017.68865	-64.625
3020.10694	-101.425
3022.52376	-73.925
3024.9391	-70.225
3027.35298	-72.225
3029.76539	-82.925
3032.17632	-71.125
3034.5858	-73.025
3036.9938	-60.125
3039.40034	-64.425
3041.80542	-70.625
3044.20903	-76.025
3046.61118	-76.225
3049.01187	-56.425
3051.4111	-68.525
3053.80888	-69.025
3056.20519	-68.625
3058.60005	-81.125
3060.99345	-53.125
3063.3854	-71.825
3065.7759	-78.925
3068.16494	-80.325
3070.55254	-83.025
3072.93868	-62.325
3075.32338	-64.125
3077.70662	-64.625
3080.08842	-65.225
3082.46878	-74.125
3084.84769	-49.425
3087.22515	-68.525
3089.60118	-54.225
3091.97576	-69.725
3094.3489	-56.225
3096.72061	-61.725
3099.09087	-74.125
3101.4597	-59.625
3103.82709	-67.125
3106.19305	-78.125
3108.55757	-66.725
3110.92066	-71.825
3113.28232	-60.325
3115.64255	-55.125
3118.00134	-53.025
3120.35871	-70.125
3122.71466	-78.425
3125.06917	-64.825
3127.42226	-66.325
3129.77393	-82.525
3132.12417	-63.925
3134.47299	-55.325
3136.82039	-73.225
3139.16636	-93.225
3141.51092	-64.525
3143.85406	-60.825
3146.19579	-77.525
3148.53609	-75.725
3150.87499	-67.625
3153.21246	-72.625
3155.54853	-66.325
3157.88318	-64.225
3160.21642	-64.825
3162.54826	-68.125
3164.87868	-62.325
3167.2077	-94.625
3169.5353	-70.025
3171.86151	-55.325
3174.18631	-69.825
3176.5097	-67.425
3178.83169	-61.525
3181.15228	-56.725
3183.47147	-73.025
3185.78926	-83.325
3188.10565	-62.525
3190.42065	-80.625
3192.73424	-66.425
3195.04645	-71.025
3197.35725	-79.525
3199.66667	-64.025
3201.97469	-71.125
3204.28132	-77.925
3206.58656	-66.725
3208.8904	-59.125
3211.19287	-71.525
3213.49394	-79.525
3215.79363	-83.425
3218.09193	-66.225
3220.38884	-39.725
3222.68438	-17.025
3224.97853	-63.425
3227.2713	-51.625
3229.56269	-66.425
3231.8527	-65.525
3234.14133	-71.225
3236.42858	-66.325
3238.71446	-87.225
3240.99896	-65.325
3243.28209	-82.325
3245.56384	-64.725
3247.84423	-76.325
3250.12324	-62.825
3252.40088	-66.525
3254.67715	-74.825
3256.95205	-81.225
3259.22558	-67.325
3261.49775	-66.225
3263.76855	-73.325
3266.03799	-64.725
3268.30606	-66.125
3270.57277	-63.325
3272.83812	-77.125
3275.10211	-70.825
3277.36474	-52.425
3279.62601	-56.925
3281.88593	-74.025
3284.14448	-89.325
3286.40168	-65.925
3288.65753	-76.525
3290.91202	-75.425
3293.16516	-87.525
3295.41695	-63.425
3297.66738	-55.925
3299.91647	-69.525
3302.16421	-53.625
3304.4106	-84.425
3306.65564	-50.525
3308.89933	-66.925
3311.14169	-43.825
3313.38269	-23.625
3315.62236	-42.525
3317.86068	-50.325
3320.09766	-40.425
3322.3333	-56.425
3324.5676	-28.925
3326.80056	7.175
3329.03219	-15.125
3331.26248	-2.525
3333.49143	-0.925
3335.71905	1.175
