Data from AgNPs_UA_5uM_CRN_500uM_SU_RamanShift__243__12-09-53-188.txt Node

Date: Thu Aug 04 12:09:53 BST 2022
User: TCL
Spectrometer: QEP01345
Trigger mode: 4
Integration Time (sec): 1.000000E0
Scans to average: 10
Electric dark correction enabled: true
Nonlinearity correction enabled: false
Boxcar width: 0
XAxis mode: Raman Shifts
Number of Pixels in Spectrum: 1044
>>>>>Begin Spectral Data<<<<<
46.04893	0.2625
50.45542	0.3625
54.85868	-0.0375
59.25871	-0.5375
63.6555	-58.1375
68.04907	-38.6375
72.43941	-73.0375
76.82654	-58.5375
81.21044	-58.0375
85.59113	-48.5375
89.96862	-76.4375
94.34289	-56.0375
98.71396	-77.6375
103.08183	-58.7375
107.4465	-51.0375
111.80798	-59.4375
116.16626	-45.3375
120.52136	-75.2375
124.87327	-49.0375
129.222	-64.2375
133.56755	-50.0375
137.90993	-63.4375
142.24913	-53.5375
146.58517	-45.3375
150.91804	-40.4375
155.24774	-32.8375
159.57429	-11.0375
163.89768	-6.7375
168.21792	36.4625
172.53501	56.6625
176.84895	137.1625
181.15975	267.0625
185.46741	418.6625
189.77193	597.1625
194.07331	885.7625
198.37157	1176.5625
202.6667	1451.1625
206.9587	1770.3625
211.24758	2086.6625
215.53334	2400.7625
219.81599	2757.2625
224.09553	3173.6625
228.37195	3597.4625
232.64527	4049.2625
236.91549	4526.1625
241.18261	4880.5625
245.44663	5173.4625
249.70755	5319.8625
253.96539	5452.4625
258.22014	5553.4625
262.4718	5625.9625
266.72039	5660.3625
270.96589	5641.2625
275.20832	5545.2625
279.44768	5424.8625
283.68397	5328.3625
287.91719	5266.0625
292.14735	5309.2625
296.37445	5488.1625
300.59849	5775.0625
304.81948	6122.4625
309.03742	6506.3625
313.25231	6737.8625
317.46415	6693.3625
321.67296	6306.4625
325.87872	5901.9625
330.08145	5708.8625
334.28114	5645.9625
338.47781	5715.7625
342.67145	5860.4625
346.86207	6090.9625
351.04966	6452.6625
355.23424	6822.1625
359.4158	7100.0625
363.59435	7149.8625
367.76989	7080.8625
371.94243	6946.5625
376.11196	6828.7625
380.27849	6743.8625
384.44203	6663.7625
388.60257	6628.6625
392.76012	6652.2625
396.91468	6769.2625
401.06626	6920.3625
405.21485	6951.5625
409.36047	6797.0625
413.50311	6477.7625
417.64277	6166.2625
421.77947	5949.4625
425.9132	5880.8625
430.04396	5874.7625
434.17176	5929.9625
438.2966	6001.0625
442.41849	6066.4625
446.53742	6209.6625
450.6534	6278.5625
454.76644	6375.1625
458.87653	6376.2625
462.98368	6338.1625
467.08789	6270.9625
471.18916	6178.0625
475.2875	6063.9625
479.38291	5946.7625
483.4754	5857.1625
487.56496	5820.0625
491.6516	5778.3625
495.73531	5791.4625
499.81612	5819.6625
503.89401	5909.3625
507.96899	5962.2625
512.04106	6053.5625
516.11023	6149.8625
520.1765	6225.3625
524.23987	6262.0625
528.30034	6240.1625
532.35792	6172.0625
536.41261	6122.6625
540.46441	6031.0625
544.51333	5958.8625
548.55936	5999.6625
552.60252	6139.8625
556.64279	6288.4625
560.6802	6380.0625
564.71473	6500.1625
568.7464	6692.2625
572.7752	6687.1625
576.80114	6376.2625
580.82422	6131.7625
584.84444	6027.0625
588.86181	6008.6625
592.87633	6046.8625
596.888	6165.8625
600.89682	6539.7625
604.9028	7521.0625
608.90594	9639.1625
612.90624	12009.5625
616.90371	11130.2625
620.89834	8022.9625
624.89015	6667.7625
628.87913	6441.1625
632.86528	6605.2625
636.84862	6758.5625
640.82913	6640.8625
644.80683	6293.8625
648.78172	6076.2625
652.75379	6126.5625
656.72306	6353.1625
660.68952	6617.7625
664.65319	6510.6625
668.61405	6281.2625
672.57211	6202.3625
676.52738	6186.8625
680.47986	6101.4625
684.42955	6001.8625
688.37646	5954.8625
692.32058	5952.0625
696.26192	6032.2625
700.20048	6123.9625
704.13626	6167.5625
708.06928	6122.5625
711.99952	6105.8625
715.927	6071.4625
719.85171	6085.1625
723.77365	6166.1625
727.69284	6143.2625
731.60928	6098.9625
735.52295	6079.5625
739.43388	6130.1625
743.34206	6150.9625
747.24749	6165.3625
751.15017	6179.8625
755.05012	6257.3625
758.94733	6637.5625
762.8418	7511.0625
766.73354	8851.7625
770.62254	9893.3625
774.50882	10001.9625
778.39237	9460.4625
782.27321	8508.1625
786.15132	7430.0625
790.02671	6750.3625
793.89938	6345.5625
797.76935	6231.0625
801.6366	6131.6625
805.50115	6083.5625
809.36299	6076.5625
813.22213	6068.8625
817.07857	6061.8625
820.93231	6056.6625
824.78336	6082.5625
828.63172	6121.4625
832.47738	6089.2625
836.32036	6109.5625
840.16066	6073.6625
843.99827	6048.0625
847.8332	6035.5625
851.66546	6053.5625
855.49504	6064.6625
859.32195	6091.9625
863.1462	6080.2625
866.96777	6074.9625
870.78668	6058.4625
874.60293	6085.1625
878.41652	6117.3625
882.22745	6190.0625
886.03573	6240.7625
889.84136	6223.1625
893.64433	6210.8625
897.44466	6201.4625
901.24235	6196.2625
905.0374	6183.7625
908.8298	6125.0625
912.61957	6083.4625
916.40671	6052.9625
920.19121	6105.3625
923.97308	6215.8625
927.75233	6242.3625
931.52895	6313.4625
935.30295	6284.7625
939.07433	6125.9625
942.84309	6033.5625
946.60924	5974.9625
950.37278	5949.3625
954.13371	5951.1625
957.89203	5935.5625
961.64774	5940.0625
965.40086	5940.0625
969.15137	5918.6625
972.89929	5952.2625
976.64461	5944.3625
980.38733	5965.3625
984.12747	5963.0625
987.86502	5968.0625
991.59999	6008.8625
995.33237	6079.8625
999.06217	6137.8625
1002.78939	6213.5625
1006.51404	6327.5625
1010.23611	6447.7625
1013.95561	6490.2625
1017.67255	6488.4625
1021.38692	6482.4625
1025.09872	6397.3625
1028.80796	6325.6625
1032.51465	6336.0625
1036.21877	6317.0625
1039.92035	6344.7625
1043.61937	6398.5625
1047.31584	6471.3625
1051.00976	6479.0625
1054.70114	6514.5625
1058.38998	6517.4625
1062.07627	6504.7625
1065.76003	6524.9625
1069.44126	6596.1625
1073.11995	6687.0625
1076.79611	6813.7625
1080.46974	6968.4625
1084.14085	7132.8625
1087.80943	7271.5625
1091.47549	7297.1625
1095.13903	7219.0625
1098.80005	7122.4625
1102.45857	6977.0625
1106.11456	6970.6625
1109.76805	6902.3625
1113.41903	7026.1625
1117.06751	7201.1625
1120.71348	7460.6625
1124.35696	7869.9625
1127.99793	8141.0625
1131.63641	7986.2625
1135.2724	7572.1625
1138.90589	7271.6625
1142.5369	7059.4625
1146.16542	6950.6625
1149.79145	6823.6625
1153.415	6803.9625
1157.03607	6801.5625
1160.65467	6888.7625
1164.27079	7098.8625
1167.88443	7393.9625
1171.49561	7802.8625
1175.10432	8440.8625
1178.71056	9378.5625
1182.31434	10191.2625
1185.91565	10442.6625
1189.51451	10289.3625
1193.11091	10021.3625
1196.70485	9778.0625
1200.29634	9529.2625
1203.88538	9236.0625
1207.47197	8763.8625
1211.05612	8292.3625
1214.63782	7845.0625
1218.21708	7601.1625
1221.79391	7445.0625
1225.36829	7377.0625
1228.94024	7375.5625
1232.50976	7403.9625
1236.07685	7406.0625
1239.6415	7437.9625
1243.20374	7462.7625
1246.76355	7487.8625
1250.32093	7564.5625
1253.8759	7630.5625
1257.42845	7817.3625
1260.97859	8020.5625
1264.52631	8256.6625
1268.07163	8419.7625
1271.61453	8563.7625
1275.15503	8602.7625
1278.69312	8625.4625
1282.22882	8681.7625
1285.76211	8884.0625
1289.29301	9137.6625
1292.82151	9414.3625
1296.34761	9623.3625
1299.87133	10043.6625
1303.39266	10763.1625
1306.9116	11919.6625
1310.42815	13178.9625
1313.94233	13622.0625
1317.45412	12828.6625
1320.96354	11638.7625
1324.47058	10615.3625
1327.97525	9856.3625
1331.47754	9446.4625
1334.97747	9338.7625
1338.47502	9447.6625
1341.97022	9802.6625
1345.46305	10569.8625
1348.95352	11682.6625
1352.44163	13032.6625
1355.92738	14446.0625
1359.41078	16139.0625
1362.89183	17699.1625
1366.37053	17067.9625
1369.84688	14159.3625
1373.32088	11389.3625
1376.79254	9919.2625
1380.26186	9213.9625
1383.72883	8813.5625
1387.19347	8390.5625
1390.65578	8025.2625
1394.11575	7801.1625
1397.57339	7597.6625
1401.0287	7508.8625
1404.48168	7439.2625
1407.93234	7471.0625
1411.38068	7478.2625
1414.82669	7561.1625
1418.27039	7621.7625
1421.71177	7630.6625
1425.15083	7519.6625
1428.58758	7454.4625
1432.02203	7476.5625
1435.45416	7558.4625
1438.88399	7552.3625
1442.31151	7559.0625
1445.73673	7600.0625
1449.15965	7677.0625
1452.58027	7680.9625
1455.9986	7680.6625
1459.41463	7676.3625
1462.82837	7802.3625
1466.23982	7968.2625
1469.64898	8199.5625
1473.05586	8359.7625
1476.46045	8436.5625
1479.86276	8516.4625
1483.26279	8622.0625
1486.66054	8834.6625
1490.05602	9129.8625
1493.44922	9692.5625
1496.84016	10596.1625
1500.22882	12004.3625
1503.61521	13782.9625
1506.99934	15636.5625
1510.38121	16870.5625
1513.76081	16690.9625
1517.13816	15096.5625
1520.51324	12919.8625
1523.88607	11147.6625
1527.25665	10131.9625
1530.62498	9616.5625
1533.99105	9419.7625
1537.35488	9281.0625
1540.71647	9196.9625
1544.07581	9060.9625
1547.4329	8909.3625
1550.78776	8763.0625
1554.14038	8693.9625
1557.49077	8688.9625
1560.83892	8765.8625
1564.18484	9011.6625
1567.52853	9337.7625
1570.86999	9691.2625
1574.20922	9837.5625
1577.54624	9727.5625
1580.88103	9187.5625
1584.2136	8455.8625
1587.54395	8104.8625
1590.87208	8009.2625
1594.19801	8175.2625
1597.52172	8543.0625
1600.84321	8687.3625
1604.16251	8550.2625
1607.47959	8341.6625
1610.79447	8132.9625
1614.10715	7859.5625
1617.41763	7546.4625
1620.7259	7296.9625
1624.03199	7133.1625
1627.33587	7064.0625
1630.63757	7107.3625
1633.93707	7347.5625
1637.23439	7764.5625
1640.52951	8466.6625
1643.82246	9445.5625
1647.11321	10649.8625
1650.40179	11416.4625
1653.68819	11073.1625
1656.97241	9800.5625
1660.25446	8376.9625
1663.53433	7354.8625
1666.81203	6736.5625
1670.08756	6391.6625
1673.36092	6200.1625
1676.63211	6057.8625
1679.90115	5953.8625
1683.16801	5873.6625
1686.43272	5802.4625
1689.69527	5727.1625
1692.95567	5686.8625
1696.2139	5679.7625
1699.46999	5615.5625
1702.72392	5616.9625
1705.97571	5641.5625
1709.22535	5601.4625
1712.47284	5636.7625
1715.71819	5662.6625
1718.96139	5653.4625
1722.20246	5640.6625
1725.44139	5592.9625
1728.67818	5569.4625
1731.91284	5516.9625
1735.14537	5488.6625
1738.37576	5453.3625
1741.60403	5435.2625
1744.83017	5412.6625
1748.05418	5399.8625
1751.27607	5416.0625
1754.49584	5370.7625
1757.71349	5335.6625
1760.92903	5331.8625
1764.14244	5302.1625
1767.35375	5304.7625
1770.56294	5295.7625
1773.77002	5266.3625
1776.97499	5281.7625
1780.17785	5239.0625
1783.37861	5241.3625
1786.57727	5255.1625
1789.77382	5198.7625
1792.96828	5225.7625
1796.16064	5234.5625
1799.3509	5184.6625
1802.53907	5218.7625
1805.72514	5191.9625
1808.90913	5171.8625
1812.09102	5151.5625
1815.27083	5138.3625
1818.44856	5128.8625
1821.6242	5137.4625
1824.79776	5111.3625
1827.96924	5103.1625
1831.13864	5087.0625
1834.30597	5091.3625
1837.47122	5069.6625
1840.6344	5047.6625
1843.7955	5038.8625
1846.95454	5016.2625
1850.11151	5055.6625
1853.26642	5008.8625
1856.41926	5012.6625
1859.57004	5020.3625
1862.71876	5012.4625
1865.86542	4996.5625
1869.01003	5008.1625
1872.15258	4977.6625
1875.29308	5007.1625
1878.43152	5004.4625
1881.56792	4971.4625
1884.70227	4937.6625
1887.83457	4978.4625
1890.96482	4930.9625
1894.09304	4939.7625
1897.21921	4933.7625
1900.34335	4933.0625
1903.46544	4902.6625
1906.58551	4935.6625
1909.70353	4919.7625
1912.81953	4913.7625
1915.93349	4889.2625
1919.04543	4901.9625
1922.15534	4847.7625
1925.26322	4879.3625
1928.36908	4846.4625
1931.47292	4847.1625
1934.57473	4843.4625
1937.67453	4814.8625
1940.77232	4793.6625
1943.86808	4795.4625
1946.96184	4781.9625
1950.05358	4776.9625
1953.14331	4742.6625
1956.23103	4743.9625
1959.31675	4711.9625
1962.40046	4668.8625
1965.48217	4693.4625
1968.56188	4683.1625
1971.63959	4683.1625
1974.7153	4669.5625
1977.78901	4651.0625
1980.86073	4635.7625
1983.93046	4598.3625
1986.99819	4528.8625
1990.06394	4534.8625
1993.1277	4551.6625
1996.18947	4547.2625
1999.24925	4510.7625
2002.30706	4498.6625
2005.36288	4493.5625
2008.41672	4470.9625
2011.46859	4451.5625
2014.51848	4436.5625
2017.56639	4409.3625
2020.61233	4398.1625
2023.6563	4400.8625
2026.6983	4373.2625
2029.73833	4365.4625
2032.7764	4371.2625
2035.8125	4326.2625
2038.84664	4325.0625
2041.87881	4320.0625
2044.90903	4305.5625
2047.93729	4307.6625
2050.96359	4299.5625
2053.98794	4280.6625
2057.01034	4292.3625
2060.03078	4296.6625
2063.04927	4261.7625
2066.06582	4274.9625
2069.08042	4262.8625
2072.09307	4266.0625
2075.10378	4259.1625
2078.11255	4246.4625
2081.11938	4247.6625
2084.12426	4252.7625
2087.12722	4230.3625
2090.12824	4220.6625
2093.12732	4230.6625
2096.12447	4247.5625
2099.11969	4236.7625
2102.11299	4218.2625
2105.10435	4243.6625
2108.09379	4229.5625
2111.08131	4223.9625
2114.0669	4225.9625
2117.05057	4211.3625
2120.03233	4222.5625
2123.01216	4237.6625
2125.99008	4230.4625
2128.96609	4244.3625
2131.94018	4247.6625
2134.91236	4240.8625
2137.88263	4237.9625
2140.851	4251.6625
2143.81746	4276.1625
2146.78201	4234.2625
2149.74466	4227.2625
2152.7054	4240.2625
2155.66425	4242.5625
2158.6212	4222.1625
2161.57625	4190.2625
2164.52941	4172.0625
2167.48067	4202.6625
2170.43004	4188.9625
2173.37752	4214.4625
2176.32311	4195.9625
2179.26681	4196.8625
2182.20863	4198.3625
2185.14856	4198.7625
2188.08661	4205.5625
2191.02278	4219.1625
2193.95707	4181.2625
2196.88948	4171.6625
2199.82001	4187.6625
2202.74867	4163.1625
2205.67545	4168.8625
2208.60037	4169.4625
2211.52341	4156.8625
2214.44458	4135.4625
2217.36388	4124.5625
2220.28132	4122.2625
2223.1969	4097.9625
2226.11061	4098.8625
2229.02246	4098.0625
2231.93245	4067.4625
2234.84058	4064.0625
2237.74686	4050.9625
2240.65128	4062.2625
2243.55385	4047.3625
2246.45456	4023.0625
2249.35343	4055.3625
2252.25044	4026.6625
2255.14561	4027.9625
2258.03893	4027.7625
2260.93041	4015.4625
2263.82004	4008.9625
2266.70783	4010.6625
2269.59378	3983.9625
2272.4779	3970.1625
2275.36017	3982.0625
2278.24061	3951.5625
2281.11922	3934.0625
2283.996	3944.3625
2286.87094	3928.9625
2289.74405	3922.0625
2292.61534	3937.5625
2295.4848	3911.3625
2298.35243	3904.0625
2301.21824	3899.0625
2304.08223	3897.6625
2306.94439	3880.7625
2309.80474	3884.4625
2312.66327	3881.6625
2315.51999	3877.1625
2318.37489	3864.2625
2321.22797	3857.2625
2324.07925	3847.9625
2326.92871	3835.5625
2329.77637	3838.9625
2332.62222	3825.7625
2335.46626	3805.3625
2338.3085	3789.7625
2341.14893	3816.3625
2343.98756	3814.6625
2346.8244	3787.5625
2349.65943	3767.1625
2352.49267	3779.3625
2355.32411	3788.9625
2358.15376	3797.7625
2360.98161	3789.2625
2363.80768	3769.5625
2366.63195	3778.4625
2369.45444	3779.2625
2372.27514	3784.3625
2375.09405	3800.8625
2377.91118	3739.6625
2380.72652	3749.1625
2383.54009	3739.8625
2386.35187	3747.9625
2389.16188	3713.3625
2391.97011	3720.8625
2394.77657	3698.8625
2397.58125	3699.6625
2400.38416	3694.3625
2403.18529	3669.0625
2405.98466	3666.1625
2408.78226	3665.7625
2411.57809	3651.2625
2414.37216	3645.2625
2417.16446	3665.8625
2419.955	3618.2625
2422.74378	3643.4625
2425.5308	3615.6625
2428.31606	3617.8625
2431.09956	3630.6625
2433.88131	3599.5625
2436.6613	3615.6625
2439.43954	3601.3625
2442.21603	3601.8625
2444.99077	3594.9625
2447.76377	3605.2625
2450.53501	3596.3625
2453.30451	3588.9625
2456.07226	3597.5625
2458.83827	3575.1625
2461.60254	3542.3625
2464.36507	3574.4625
2467.12586	3551.8625
2469.88492	3556.4625
2472.64224	3572.2625
2475.39782	3538.0625
2478.15167	3564.4625
2480.90379	3550.1625
2483.65417	3563.5625
2486.40283	3555.9625
2489.14976	3568.4625
2491.89497	3555.2625
2494.63845	3548.0625
2497.3802	3551.4625
2500.12024	3547.9625
2502.85855	3529.6625
2505.59514	3534.6625
2508.33002	3521.3625
2511.06318	3491.3625
2513.79462	3507.9625
2516.52435	3464.2625
2519.25237	3449.9625
2521.97867	3449.5625
2524.70327	3451.4625
2527.42616	3442.8625
2530.14734	3462.2625
2532.86681	3429.0625
2535.58458	3426.8625
2538.30065	3420.6625
2541.01501	3436.8625
2543.72768	3415.8625
2546.43864	3422.8625
2549.14791	3393.3625
2551.85548	3402.5625
2554.56136	3387.2625
2557.26554	3392.9625
2559.96803	3386.1625
2562.66883	3375.9625
2565.36794	3366.4625
2568.06536	3336.4625
2570.7611	3356.9625
2573.45514	3353.9625
2576.14751	3329.4625
2578.83819	3319.8625
2581.52719	3311.3625
2584.21451	3312.7625
2586.90015	3293.6625
2589.58411	3286.5625
2592.2664	3294.3625
2594.94701	3288.6625
2597.62594	3280.5625
2600.30321	3222.2625
2602.9788	3236.9625
2605.65273	3236.8625
2608.32498	3229.2625
2610.99557	3256.6625
2613.66449	3215.0625
2616.33175	3250.8625
2618.99734	3227.3625
2621.66128	3232.4625
2624.32355	3212.4625
2626.98416	3199.8625
2629.64311	3204.1625
2632.30041	3186.2625
2634.95605	3181.3625
2637.61004	3164.2625
2640.26238	3154.5625
2642.91306	3143.4625
2645.56209	3186.5625
2648.20948	3158.6625
2650.85521	3139.2625
2653.4993	3160.2625
2656.14175	3155.6625
2658.78255	3148.3625
2661.42171	3100.6625
2664.05923	3156.4625
2666.6951	3153.8625
2669.32934	3168.4625
2671.96194	3172.9625
2674.59291	3142.8625
2677.22224	3156.7625
2679.84993	3155.9625
2682.476	3150.3625
2685.10043	3139.8625
2687.72324	3120.1625
2690.34441	3123.9625
2692.96396	3133.0625
2695.58188	3145.8625
2698.19818	3140.3625
2700.81285	3123.9625
2703.4259	3103.3625
2706.03733	3086.0625
2708.64714	3084.3625
2711.25533	3117.3625
2713.86191	3130.2625
2716.46687	3111.4625
2719.07021	3101.1625
2721.67194	3132.6625
2724.27206	3123.4625
2726.87057	3107.9625
2729.46747	3102.2625
2732.06276	3116.5625
2734.65644	3087.0625
2737.24852	3096.6625
2739.83899	3072.6625
2742.42786	3096.1625
2745.01513	3085.8625
2747.60079	3065.2625
2750.18486	3063.3625
2752.76733	3068.8625
2755.3482	3045.1625
2757.92747	3044.1625
2760.50515	3031.0625
2763.08123	3026.4625
2765.65573	3023.4625
2768.22863	3015.8625
2770.79994	3012.4625
2773.36967	3016.6625
2775.9378	2989.2625
2778.50435	3000.9625
2781.06932	2993.0625
2783.6327	2986.3625
2786.1945	2996.4625
2788.75471	2985.5625
2791.31335	2980.4625
2793.87041	2969.6625
2796.42589	2948.7625
2798.97979	2940.2625
2801.53212	2952.1625
2804.08288	2960.2625
2806.63206	2937.3625
2809.17967	2912.5625
2811.72571	2928.5625
2814.27018	2933.1625
2816.81308	2914.6625
2819.35442	2885.2625
2821.89419	2900.4625
2824.43239	2886.9625
2826.96904	2903.2625
2829.50412	2887.8625
2832.03763	2890.5625
2834.56959	2900.0625
2837.1	2884.9625
2839.62884	2876.6625
2842.15613	2878.3625
2844.68186	2889.2625
2847.20604	2856.3625
2849.72867	2848.4625
2852.24974	2861.5625
2854.76927	2830.8625
2857.28724	2800.8625
2859.80367	2850.2625
2862.31855	2858.7625
2864.83189	2844.1625
2867.34368	2849.6625
2869.85393	2854.0625
2872.36264	2818.4625
2874.8698	2822.6625
2877.37543	2839.1625
2879.87952	2832.9625
2882.38207	2800.3625
2884.88308	2826.2625
2887.38256	2815.3625
2889.88051	2803.9625
2892.37692	2798.4625
2894.8718	2785.9625
2897.36515	2817.0625
2899.85698	2797.2625
2902.34727	2803.0625
2904.83604	2812.0625
2907.32328	2808.0625
2909.809	2810.0625
2912.29319	2822.1625
2914.77587	2802.9625
2917.25702	2826.5625
2919.73665	2842.4625
2922.21476	2842.2625
2924.69136	2833.4625
2927.16644	2808.7625
2929.64	2804.9625
2932.11205	2793.6625
2934.58258	2791.8625
2937.05161	2778.8625
2939.51912	2789.1625
2941.98513	2791.8625
2944.44962	2774.9625
2946.91261	2756.8625
2949.37409	2759.0625
2951.83407	2760.3625
2954.29254	2753.6625
2956.74951	2758.8625
2959.20498	2749.5625
2961.65895	2743.1625
2964.11142	2725.7625
2966.56239	2722.5625
2969.01186	2727.2625
2971.45984	2720.9625
2973.90632	2714.4625
2976.35131	2720.7625
2978.7948	2704.7625
2981.23681	2715.8625
2983.67732	2701.0625
2986.11635	2696.8625
2988.55388	2658.8625
2990.98993	2689.0625
2993.4245	2671.0625
2995.85758	2656.1625
2998.28917	2657.8625
3000.71928	2645.9625
3003.14791	2643.6625
3005.57506	2629.3625
3008.00073	2610.6625
3010.42493	2549.6625
3012.84764	2606.0625
3015.26888	2598.8625
3017.68865	2605.6625
3020.10694	2556.7625
3022.52376	2559.5625
3024.9391	2577.8625
3027.35298	2550.3625
3029.76539	2544.1625
3032.17632	2550.0625
3034.5858	2538.8625
3036.9938	2540.3625
3039.40034	2531.2625
3041.80542	2517.7625
3044.20903	2513.7625
3046.61118	2507.7625
3049.01187	2517.8625
3051.4111	2497.4625
3053.80888	2482.8625
3056.20519	2481.1625
3058.60005	2455.2625
3060.99345	2493.9625
3063.3854	2463.6625
3065.7759	2452.3625
3068.16494	2434.9625
3070.55254	2437.6625
3072.93868	2450.5625
3075.32338	2432.4625
3077.70662	2425.7625
3080.08842	2422.7625
3082.46878	2398.6625
3084.84769	2424.2625
3087.22515	2397.4625
3089.60118	2414.8625
3091.97576	2406.8625
3094.3489	2415.0625
3096.72061	2402.2625
3099.09087	2384.4625
3101.4597	2403.8625
3103.82709	2384.7625
3106.19305	2368.2625
3108.55757	2381.2625
3110.92066	2377.3625
3113.28232	2392.2625
3115.64255	2378.4625
3118.00134	2369.1625
3120.35871	2349.8625
3122.71466	2332.3625
3125.06917	2351.4625
3127.42226	2334.4625
3129.77393	2308.9625
3132.12417	2325.1625
3134.47299	2329.2625
3136.82039	2302.7625
3139.16636	2275.7625
3141.51092	2300.2625
3143.85406	2319.3625
3146.19579	2288.8625
3148.53609	2291.6625
3150.87499	2304.3625
3153.21246	2288.6625
3155.54853	2296.9625
3157.88318	2297.1625
3160.21642	2301.4625
3162.54826	2289.8625
3164.87868	2297.7625
3167.2077	2261.6625
3169.5353	2271.6625
3171.86151	2284.9625
3174.18631	2270.1625
3176.5097	2269.9625
3178.83169	2273.3625
3181.15228	2262.4625
3183.47147	2233.6625
3185.78926	2217.2625
3188.10565	2242.7625
3190.42065	2219.4625
3192.73424	2230.8625
3195.04645	2216.5625
3197.35725	2204.5625
3199.66667	2199.7625
3201.97469	2208.8625
3204.28132	2192.6625
3206.58656	2216.8625
3208.8904	2217.6625
3211.19287	2212.4625
3213.49394	2192.5625
3215.79363	2188.3625
3218.09193	2207.2625
3220.38884	2200.6625
3222.68438	2196.9625
3224.97853	2176.5625
3227.2713	2206.2625
3229.56269	2183.6625
3231.8527	2182.2625
3234.14133	2167.7625
3236.42858	2161.8625
3238.71446	2143.3625
3240.99896	2150.8625
3243.28209	2154.1625
3245.56384	2150.7625
3247.84423	2125.1625
3250.12324	2140.6625
3252.40088	2137.9625
3254.67715	2128.6625
3256.95205	2122.8625
3259.22558	2133.0625
3261.49775	2130.1625
3263.76855	2120.5625
3266.03799	2131.6625
3268.30606	2116.0625
3270.57277	2120.0625
3272.83812	2105.8625
3275.10211	2105.0625
3277.36474	2123.8625
3279.62601	2100.6625
3281.88593	2085.5625
3284.14448	2064.0625
3286.40168	2084.6625
3288.65753	2076.7625
3290.91202	2074.9625
3293.16516	2062.2625
3295.41695	2081.0625
3297.66738	2078.4625
3299.91647	2061.6625
3302.16421	2044.5625
3304.4106	2023.2625
3306.65564	2028.6625
3308.89933	1990.3625
3311.14169	1987.9625
3313.38269	1981.8625
3315.62236	1958.8625
3317.86068	1946.8625
3320.09766	1939.8625
3322.3333	1909.9625
3324.5676	1905.9625
3326.80056	1864.5625
3329.03219	1869.1625
3331.26248	-0.6375
3333.49143	0.0625
3335.71905	0.5625
