Data from AgNPs_UA_5uM_CRN_500uM_SU_RamanShift__277__12-15-33-195.txt Node

Date: Thu Aug 04 12:15:33 BST 2022
User: TCL
Spectrometer: QEP01345
Trigger mode: 4
Integration Time (sec): 1.000000E0
Scans to average: 10
Electric dark correction enabled: true
Nonlinearity correction enabled: false
Boxcar width: 0
XAxis mode: Raman Shifts
Number of Pixels in Spectrum: 1044
>>>>>Begin Spectral Data<<<<<
46.04893	-0.7375
50.45542	1.7625
54.85868	-1.0375
59.25871	-1.4375
63.6555	-58.0375
68.04907	-41.1375
72.43941	-71.6375
76.82654	-56.5375
81.21044	-56.5375
85.59113	-48.8375
89.96862	-75.3375
94.34289	-56.0375
98.71396	-77.0375
103.08183	-60.4375
107.4465	-48.9375
111.80798	-56.6375
116.16626	-44.1375
120.52136	-74.2375
124.87327	-50.1375
129.222	-61.9375
133.56755	-47.0375
137.90993	-62.1375
142.24913	-51.6375
146.58517	-43.4375
150.91804	-40.6375
155.24774	-31.0375
159.57429	-8.5375
163.89768	-7.0375
168.21792	37.6625
172.53501	59.2625
176.84895	140.8625
181.15975	269.0625
185.46741	422.3625
189.77193	598.8625
194.07331	890.1625
198.37157	1173.9625
202.6667	1452.9625
206.9587	1773.9625
211.24758	2096.8625
215.53334	2416.3625
219.81599	2766.9625
224.09553	3182.6625
228.37195	3604.6625
232.64527	4078.7625
236.91549	4531.1625
241.18261	4894.6625
245.44663	5158.5625
249.70755	5313.5625
253.96539	5452.8625
258.22014	5548.4625
262.4718	5626.0625
266.72039	5676.3625
270.96589	5654.2625
275.20832	5563.9625
279.44768	5445.8625
283.68397	5351.8625
287.91719	5277.4625
292.14735	5336.2625
296.37445	5481.7625
300.59849	5791.6625
304.81948	6132.4625
309.03742	6516.5625
313.25231	6763.7625
317.46415	6728.5625
321.67296	6329.5625
325.87872	5936.8625
330.08145	5713.0625
334.28114	5681.2625
338.47781	5727.3625
342.67145	5848.3625
346.86207	6081.6625
351.04966	6460.8625
355.23424	6838.7625
359.4158	7121.6625
363.59435	7135.8625
367.76989	7080.6625
371.94243	6960.5625
376.11196	6843.4625
380.27849	6740.7625
384.44203	6671.9625
388.60257	6641.2625
392.76012	6656.3625
396.91468	6763.3625
401.06626	6936.4625
405.21485	6948.2625
409.36047	6776.6625
413.50311	6479.7625
417.64277	6156.2625
421.77947	5957.1625
425.9132	5886.3625
430.04396	5884.8625
434.17176	5910.5625
438.2966	5991.4625
442.41849	6075.4625
446.53742	6200.2625
450.6534	6293.3625
454.76644	6369.1625
458.87653	6377.7625
462.98368	6331.7625
467.08789	6256.6625
471.18916	6169.4625
475.2875	6039.1625
479.38291	5934.9625
483.4754	5841.9625
487.56496	5788.5625
491.6516	5743.5625
495.73531	5771.5625
499.81612	5795.1625
503.89401	5881.5625
507.96899	5934.6625
512.04106	6045.5625
516.11023	6133.6625
520.1765	6223.8625
524.23987	6239.8625
528.30034	6214.2625
532.35792	6141.7625
536.41261	6088.8625
540.46441	5984.5625
544.51333	5940.4625
548.55936	5987.3625
552.60252	6114.8625
556.64279	6231.4625
560.6802	6340.2625
564.71473	6486.8625
568.7464	6666.2625
572.7752	6641.7625
576.80114	6333.0625
580.82422	6100.2625
584.84444	6011.0625
588.86181	5997.3625
592.87633	6029.5625
596.888	6134.5625
600.89682	6533.1625
604.9028	7493.9625
608.90594	9638.6625
612.90624	12032.3625
616.90371	11137.0625
620.89834	7982.3625
624.89015	6641.8625
628.87913	6418.3625
632.86528	6565.1625
636.84862	6712.1625
640.82913	6587.0625
644.80683	6261.3625
648.78172	6029.7625
652.75379	6065.1625
656.72306	6312.1625
660.68952	6580.9625
664.65319	6472.9625
668.61405	6226.2625
672.57211	6148.6625
676.52738	6156.7625
680.47986	6048.3625
684.42955	5973.1625
688.37646	5902.6625
692.32058	5922.3625
696.26192	5971.2625
700.20048	6079.5625
704.13626	6127.5625
708.06928	6079.0625
711.99952	6055.2625
715.927	6024.4625
719.85171	6072.6625
723.77365	6124.8625
727.69284	6091.9625
731.60928	6062.7625
735.52295	6038.6625
739.43388	6074.6625
743.34206	6092.9625
747.24749	6113.1625
751.15017	6144.6625
755.05012	6220.0625
758.94733	6622.4625
762.8418	7466.5625
766.73354	8876.9625
770.62254	9926.5625
774.50882	10002.8625
778.39237	9438.2625
782.27321	8476.6625
786.15132	7405.2625
790.02671	6704.5625
793.89938	6298.5625
797.76935	6169.4625
801.6366	6089.3625
805.50115	6032.4625
809.36299	6025.2625
813.22213	6004.9625
817.07857	6017.3625
820.93231	6022.9625
824.78336	6050.4625
828.63172	6044.1625
832.47738	6073.9625
836.32036	6062.7625
840.16066	6007.2625
843.99827	6006.6625
847.8332	5984.3625
851.66546	6011.3625
855.49504	6002.5625
859.32195	6044.8625
863.1462	6036.0625
866.96777	6033.2625
870.78668	5998.6625
874.60293	6020.8625
878.41652	6051.7625
882.22745	6127.0625
886.03573	6167.1625
889.84136	6156.6625
893.64433	6152.9625
897.44466	6151.8625
901.24235	6144.5625
905.0374	6143.7625
908.8298	6066.3625
912.61957	6034.5625
916.40671	6006.3625
920.19121	6065.8625
923.97308	6128.6625
927.75233	6203.9625
931.52895	6258.4625
935.30295	6226.5625
939.07433	6064.8625
942.84309	5968.1625
946.60924	5912.3625
950.37278	5876.7625
954.13371	5872.2625
957.89203	5875.8625
961.64774	5894.4625
965.40086	5870.8625
969.15137	5857.7625
972.89929	5894.4625
976.64461	5894.1625
980.38733	5899.0625
984.12747	5898.9625
987.86502	5916.0625
991.59999	5943.5625
995.33237	5992.0625
999.06217	6073.7625
1002.78939	6142.6625
1006.51404	6268.0625
1010.23611	6384.5625
1013.95561	6445.2625
1017.67255	6418.0625
1021.38692	6395.4625
1025.09872	6331.9625
1028.80796	6250.5625
1032.51465	6269.0625
1036.21877	6254.2625
1039.92035	6298.8625
1043.61937	6357.9625
1047.31584	6385.9625
1051.00976	6434.4625
1054.70114	6445.4625
1058.38998	6423.2625
1062.07627	6434.7625
1065.76003	6476.0625
1069.44126	6537.3625
1073.11995	6636.1625
1076.79611	6760.3625
1080.46974	6924.2625
1084.14085	7090.7625
1087.80943	7219.9625
1091.47549	7261.2625
1095.13903	7162.9625
1098.80005	7025.5625
1102.45857	6947.1625
1106.11456	6900.0625
1109.76805	6839.8625
1113.41903	6945.7625
1117.06751	7155.2625
1120.71348	7426.6625
1124.35696	7806.5625
1127.99793	8099.2625
1131.63641	7930.3625
1135.2724	7531.3625
1138.90589	7208.6625
1142.5369	7015.3625
1146.16542	6890.9625
1149.79145	6789.8625
1153.415	6753.2625
1157.03607	6744.5625
1160.65467	6864.8625
1164.27079	7081.8625
1167.88443	7327.2625
1171.49561	7805.3625
1175.10432	8413.6625
1178.71056	9388.1625
1182.31434	10212.0625
1185.91565	10474.8625
1189.51451	10336.6625
1193.11091	10046.0625
1196.70485	9783.8625
1200.29634	9555.0625
1203.88538	9232.5625
1207.47197	8761.2625
1211.05612	8238.2625
1214.63782	7831.7625
1218.21708	7556.0625
1221.79391	7417.7625
1225.36829	7325.4625
1228.94024	7334.9625
1232.50976	7375.6625
1236.07685	7383.9625
1239.6415	7411.5625
1243.20374	7425.4625
1246.76355	7448.2625
1250.32093	7522.3625
1253.8759	7587.7625
1257.42845	7763.7625
1260.97859	7973.4625
1264.52631	8216.4625
1268.07163	8384.3625
1271.61453	8521.3625
1275.15503	8567.0625
1278.69312	8593.4625
1282.22882	8657.1625
1285.76211	8832.7625
1289.29301	9119.9625
1292.82151	9407.6625
1296.34761	9627.5625
1299.87133	10032.4625
1303.39266	10769.7625
1306.9116	11933.1625
1310.42815	13188.3625
1313.94233	13640.4625
1317.45412	12866.9625
1320.96354	11678.9625
1324.47058	10632.9625
1327.97525	9868.9625
1331.47754	9426.3625
1334.97747	9292.6625
1338.47502	9429.1625
1341.97022	9813.6625
1345.46305	10574.2625
1348.95352	11708.9625
1352.44163	13075.7625
1355.92738	14518.7625
1359.41078	16259.0625
1362.89183	17868.3625
1366.37053	17227.5625
1369.84688	14266.2625
1373.32088	11430.4625
1376.79254	9937.3625
1380.26186	9205.7625
1383.72883	8790.1625
1387.19347	8379.9625
1390.65578	7985.1625
1394.11575	7741.2625
1397.57339	7563.2625
1401.0287	7443.4625
1404.48168	7389.5625
1407.93234	7411.1625
1411.38068	7416.8625
1414.82669	7484.1625
1418.27039	7566.8625
1421.71177	7570.9625
1425.15083	7480.8625
1428.58758	7394.4625
1432.02203	7411.1625
1435.45416	7497.3625
1438.88399	7493.7625
1442.31151	7481.2625
1445.73673	7549.6625
1449.15965	7597.2625
1452.58027	7628.4625
1455.9986	7599.0625
1459.41463	7629.7625
1462.82837	7733.0625
1466.23982	7928.3625
1469.64898	8137.5625
1473.05586	8289.7625
1476.46045	8414.5625
1479.86276	8480.5625
1483.26279	8628.5625
1486.66054	8807.1625
1490.05602	9108.4625
1493.44922	9683.0625
1496.84016	10627.9625
1500.22882	12056.4625
1503.61521	13879.6625
1506.99934	15782.4625
1510.38121	16985.9625
1513.76081	16827.1625
1517.13816	15188.7625
1520.51324	12943.1625
1523.88607	11170.1625
1527.25665	10140.1625
1530.62498	9668.6625
1533.99105	9441.7625
1537.35488	9304.8625
1540.71647	9203.1625
1544.07581	9066.0625
1547.4329	8885.2625
1550.78776	8767.3625
1554.14038	8640.9625
1557.49077	8617.2625
1560.83892	8711.7625
1564.18484	8984.9625
1567.52853	9315.5625
1570.86999	9664.2625
1574.20922	9859.6625
1577.54624	9724.3625
1580.88103	9150.7625
1584.2136	8431.7625
1587.54395	8054.5625
1590.87208	7950.1625
1594.19801	8119.4625
1597.52172	8501.8625
1600.84321	8656.2625
1604.16251	8492.9625
1607.47959	8281.8625
1610.79447	8091.9625
1614.10715	7806.6625
1617.41763	7508.7625
1620.7259	7218.1625
1624.03199	7074.0625
1627.33587	7013.4625
1630.63757	7055.2625
1633.93707	7259.5625
1637.23439	7703.8625
1640.52951	8410.4625
1643.82246	9416.1625
1647.11321	10626.3625
1650.40179	11403.1625
1653.68819	11085.8625
1656.97241	9785.1625
1660.25446	8349.7625
1663.53433	7287.3625
1666.81203	6673.2625
1670.08756	6310.7625
1673.36092	6132.7625
1676.63211	5975.3625
1679.90115	5886.1625
1683.16801	5799.2625
1686.43272	5706.7625
1689.69527	5672.1625
1692.95567	5619.1625
1696.2139	5600.2625
1699.46999	5530.9625
1702.72392	5542.5625
1705.97571	5544.6625
1709.22535	5530.9625
1712.47284	5561.8625
1715.71819	5582.1625
1718.96139	5575.7625
1722.20246	5552.6625
1725.44139	5516.8625
1728.67818	5493.2625
1731.91284	5445.9625
1735.14537	5419.5625
1738.37576	5387.2625
1741.60403	5366.6625
1744.83017	5313.3625
1748.05418	5320.4625
1751.27607	5333.7625
1754.49584	5295.5625
1757.71349	5263.5625
1760.92903	5267.4625
1764.14244	5221.7625
1767.35375	5226.3625
1770.56294	5190.8625
1773.77002	5187.3625
1776.97499	5199.1625
1780.17785	5182.9625
1783.37861	5182.9625
1786.57727	5186.1625
1789.77382	5121.5625
1792.96828	5122.0625
1796.16064	5144.5625
1799.3509	5123.3625
1802.53907	5151.0625
1805.72514	5108.6625
1808.90913	5096.1625
1812.09102	5072.3625
1815.27083	5072.1625
1818.44856	5047.2625
1821.6242	5046.7625
1824.79776	5033.6625
1827.96924	5017.3625
1831.13864	4991.0625
1834.30597	5029.1625
1837.47122	4984.3625
1840.6344	4980.4625
1843.7955	4971.9625
1846.95454	4958.7625
1850.11151	4977.6625
1853.26642	4925.8625
1856.41926	4953.8625
1859.57004	4933.2625
1862.71876	4917.8625
1865.86542	4936.4625
1869.01003	4926.6625
1872.15258	4889.3625
1875.29308	4908.6625
1878.43152	4919.6625
1881.56792	4905.5625
1884.70227	4879.9625
1887.83457	4878.1625
1890.96482	4840.6625
1894.09304	4849.5625
1897.21921	4861.7625
1900.34335	4848.9625
1903.46544	4840.6625
1906.58551	4844.2625
1909.70353	4864.4625
1912.81953	4822.5625
1915.93349	4809.2625
1919.04543	4794.5625
1922.15534	4776.9625
1925.26322	4789.2625
1928.36908	4761.6625
1931.47292	4772.7625
1934.57473	4773.4625
1937.67453	4748.1625
1940.77232	4718.1625
1943.86808	4701.9625
1946.96184	4708.0625
1950.05358	4669.6625
1953.14331	4667.1625
1956.23103	4667.5625
1959.31675	4635.7625
1962.40046	4589.5625
1965.48217	4619.2625
1968.56188	4604.4625
1971.63959	4577.9625
1974.7153	4599.1625
1977.78901	4581.2625
1980.86073	4555.8625
1983.93046	4512.6625
1986.99819	4432.2625
1990.06394	4443.9625
1993.1277	4470.7625
1996.18947	4451.1625
1999.24925	4430.8625
2002.30706	4427.3625
2005.36288	4431.6625
2008.41672	4389.4625
2011.46859	4364.9625
2014.51848	4359.6625
2017.56639	4351.4625
2020.61233	4334.8625
2023.6563	4331.2625
2026.6983	4280.7625
2029.73833	4295.7625
2032.7764	4289.7625
2035.8125	4257.5625
2038.84664	4264.0625
2041.87881	4249.1625
2044.90903	4250.2625
2047.93729	4237.8625
2050.96359	4208.2625
2053.98794	4220.0625
2057.01034	4234.9625
2060.03078	4203.5625
2063.04927	4193.0625
2066.06582	4200.5625
2069.08042	4184.9625
2072.09307	4196.6625
2075.10378	4180.0625
2078.11255	4160.9625
2081.11938	4166.6625
2084.12426	4152.8625
2087.12722	4160.2625
2090.12824	4142.4625
2093.12732	4152.6625
2096.12447	4160.9625
2099.11969	4156.6625
2102.11299	4150.4625
2105.10435	4178.1625
2108.09379	4159.4625
2111.08131	4158.4625
2114.0669	4157.9625
2117.05057	4158.1625
2120.03233	4158.1625
2123.01216	4174.1625
2125.99008	4161.3625
2128.96609	4165.5625
2131.94018	4192.1625
2134.91236	4154.9625
2137.88263	4176.6625
2140.851	4179.1625
2143.81746	4191.2625
2146.78201	4166.7625
2149.74466	4159.9625
2152.7054	4167.2625
2155.66425	4154.3625
2158.6212	4152.7625
2161.57625	4119.1625
2164.52941	4096.3625
2167.48067	4133.0625
2170.43004	4123.4625
2173.37752	4140.2625
2176.32311	4125.1625
2179.26681	4120.4625
2182.20863	4132.2625
2185.14856	4128.9625
2188.08661	4127.3625
2191.02278	4133.3625
2193.95707	4099.0625
2196.88948	4095.5625
2199.82001	4108.1625
2202.74867	4090.1625
2205.67545	4090.1625
2208.60037	4100.6625
2211.52341	4090.0625
2214.44458	4060.8625
2217.36388	4060.2625
2220.28132	4041.5625
2223.1969	4033.2625
2226.11061	4021.6625
2229.02246	4014.0625
2231.93245	4019.5625
2234.84058	4000.3625
2237.74686	3989.0625
2240.65128	3975.0625
2243.55385	3988.8625
2246.45456	3949.5625
2249.35343	3994.8625
2252.25044	3953.6625
2255.14561	3965.9625
2258.03893	3967.6625
2260.93041	3943.5625
2263.82004	3942.4625
2266.70783	3953.8625
2269.59378	3924.6625
2272.4779	3898.8625
2275.36017	3909.7625
2278.24061	3899.1625
2281.11922	3869.2625
2283.996	3881.6625
2286.87094	3862.3625
2289.74405	3860.9625
2292.61534	3853.5625
2295.4848	3847.6625
2298.35243	3847.5625
2301.21824	3827.4625
2304.08223	3828.4625
2306.94439	3830.0625
2309.80474	3822.7625
2312.66327	3821.4625
2315.51999	3797.4625
2318.37489	3795.6625
2321.22797	3787.2625
2324.07925	3776.4625
2326.92871	3758.7625
2329.77637	3761.8625
2332.62222	3755.6625
2335.46626	3732.0625
2338.3085	3736.6625
2341.14893	3739.4625
2343.98756	3753.9625
2346.8244	3725.2625
2349.65943	3713.3625
2352.49267	3716.6625
2355.32411	3724.1625
2358.15376	3710.6625
2360.98161	3725.0625
2363.80768	3709.1625
2366.63195	3704.5625
2369.45444	3720.9625
2372.27514	3707.6625
2375.09405	3725.6625
2377.91118	3691.3625
2380.72652	3679.4625
2383.54009	3674.8625
2386.35187	3680.6625
2389.16188	3664.6625
2391.97011	3647.3625
2394.77657	3640.4625
2397.58125	3635.6625
2400.38416	3621.1625
2403.18529	3610.0625
2405.98466	3594.0625
2408.78226	3597.4625
2411.57809	3590.3625
2414.37216	3584.2625
2417.16446	3593.6625
2419.955	3545.8625
2422.74378	3571.2625
2425.5308	3544.1625
2428.31606	3567.8625
2431.09956	3554.4625
2433.88131	3536.5625
2436.6613	3557.7625
2439.43954	3537.5625
2442.21603	3533.4625
2444.99077	3523.8625
2447.76377	3535.9625
2450.53501	3525.6625
2453.30451	3517.6625
2456.07226	3534.0625
2458.83827	3513.8625
2461.60254	3469.0625
2464.36507	3507.1625
2467.12586	3486.5625
2469.88492	3508.8625
2472.64224	3496.0625
2475.39782	3486.5625
2478.15167	3501.1625
2480.90379	3473.4625
2483.65417	3507.4625
2486.40283	3498.0625
2489.14976	3498.6625
2491.89497	3481.3625
2494.63845	3507.2625
2497.3802	3478.0625
2500.12024	3465.4625
2502.85855	3468.1625
2505.59514	3468.2625
2508.33002	3453.4625
2511.06318	3429.3625
2513.79462	3436.2625
2516.52435	3398.1625
2519.25237	3386.6625
2521.97867	3382.3625
2524.70327	3386.6625
2527.42616	3391.0625
2530.14734	3399.1625
2532.86681	3356.7625
2535.58458	3372.5625
2538.30065	3360.0625
2541.01501	3367.4625
2543.72768	3366.9625
2546.43864	3354.4625
2549.14791	3347.7625
2551.85548	3327.9625
2554.56136	3328.7625
2557.26554	3326.2625
2559.96803	3334.4625
2562.66883	3321.2625
2565.36794	3297.6625
2568.06536	3268.5625
2570.7611	3286.9625
2573.45514	3267.5625
2576.14751	3278.7625
2578.83819	3245.9625
2581.52719	3250.5625
2584.21451	3245.8625
2586.90015	3225.9625
2589.58411	3211.4625
2592.2664	3233.7625
2594.94701	3214.7625
2597.62594	3219.3625
2600.30321	3161.0625
2602.9788	3183.8625
2605.65273	3167.5625
2608.32498	3187.9625
2610.99557	3183.6625
2613.66449	3172.8625
2616.33175	3175.1625
2618.99734	3169.7625
2621.66128	3176.3625
2624.32355	3168.3625
2626.98416	3152.1625
2629.64311	3134.4625
2632.30041	3121.5625
2634.95605	3119.1625
2637.61004	3092.3625
2640.26238	3081.0625
2642.91306	3088.1625
2645.56209	3104.3625
2648.20948	3102.7625
2650.85521	3087.4625
2653.4993	3109.9625
2656.14175	3095.2625
2658.78255	3077.0625
2661.42171	3064.9625
2664.05923	3093.4625
2666.6951	3098.3625
2669.32934	3106.8625
2671.96194	3107.6625
2674.59291	3086.7625
2677.22224	3102.8625
2679.84993	3097.8625
2682.476	3088.8625
2685.10043	3088.8625
2687.72324	3062.2625
2690.34441	3068.8625
2692.96396	3069.1625
2695.58188	3088.7625
2698.19818	3070.6625
2700.81285	3061.1625
2703.4259	3052.5625
2706.03733	3020.8625
2708.64714	3013.9625
2711.25533	3059.0625
2713.86191	3049.3625
2716.46687	3064.7625
2719.07021	3053.1625
2721.67194	3049.3625
2724.27206	3073.4625
2726.87057	3065.4625
2729.46747	3032.7625
2732.06276	3056.5625
2734.65644	3023.6625
2737.24852	3027.8625
2739.83899	3006.4625
2742.42786	3025.7625
2745.01513	3031.3625
2747.60079	3006.1625
2750.18486	2995.0625
2752.76733	3002.6625
2755.3482	2994.3625
2757.92747	2990.3625
2760.50515	2964.4625
2763.08123	2970.7625
2765.65573	2980.1625
2768.22863	2964.1625
2770.79994	2947.4625
2773.36967	2936.1625
2775.9378	2947.1625
2778.50435	2934.0625
2781.06932	2931.2625
2783.6327	2910.3625
2786.1945	2942.8625
2788.75471	2916.4625
2791.31335	2917.0625
2793.87041	2917.7625
2796.42589	2897.3625
2798.97979	2898.5625
2801.53212	2891.2625
2804.08288	2901.2625
2806.63206	2887.3625
2809.17967	2872.4625
2811.72571	2889.5625
2814.27018	2871.5625
2816.81308	2867.5625
2819.35442	2828.2625
2821.89419	2835.9625
2824.43239	2833.9625
2826.96904	2859.8625
2829.50412	2842.8625
2832.03763	2830.6625
2834.56959	2830.8625
2837.1	2832.1625
2839.62884	2827.1625
2842.15613	2826.2625
2844.68186	2842.2625
2847.20604	2800.5625
2849.72867	2796.5625
2852.24974	2800.1625
2854.76927	2761.3625
2857.28724	2741.1625
2859.80367	2803.6625
2862.31855	2804.6625
2864.83189	2779.3625
2867.34368	2791.8625
2869.85393	2807.4625
2872.36264	2778.6625
2874.8698	2775.3625
2877.37543	2784.8625
2879.87952	2772.9625
2882.38207	2755.6625
2884.88308	2759.5625
2887.38256	2757.8625
2889.88051	2754.0625
2892.37692	2751.6625
2894.8718	2744.7625
2897.36515	2752.4625
2899.85698	2750.7625
2902.34727	2759.8625
2904.83604	2739.1625
2907.32328	2776.0625
2909.809	2776.7625
2912.29319	2761.4625
2914.77587	2774.1625
2917.25702	2775.0625
2919.73665	2781.0625
2922.21476	2774.2625
2924.69136	2775.4625
2927.16644	2764.4625
2929.64	2766.9625
2932.11205	2742.6625
2934.58258	2745.4625
2937.05161	2738.7625
2939.51912	2736.7625
2941.98513	2749.6625
2944.44962	2730.4625
2946.91261	2706.3625
2949.37409	2718.9625
2951.83407	2695.7625
2954.29254	2705.2625
2956.74951	2716.6625
2959.20498	2679.4625
2961.65895	2678.5625
2964.11142	2688.1625
2966.56239	2676.2625
2969.01186	2678.8625
2971.45984	2668.5625
2973.90632	2653.1625
2976.35131	2675.4625
2978.7948	2666.1625
2981.23681	2656.4625
2983.67732	2653.0625
2986.11635	2638.2625
2988.55388	2616.5625
2990.98993	2626.2625
2993.4245	2611.4625
2995.85758	2609.3625
2998.28917	2607.3625
3000.71928	2589.0625
3003.14791	2587.8625
3005.57506	2573.6625
3008.00073	2563.0625
3010.42493	2496.6625
3012.84764	2558.5625
3015.26888	2569.7625
3017.68865	2555.1625
3020.10694	2521.1625
3022.52376	2514.2625
3024.9391	2522.6625
3027.35298	2507.7625
3029.76539	2488.7625
3032.17632	2494.6625
3034.5858	2495.5625
3036.9938	2498.7625
3039.40034	2487.7625
3041.80542	2480.3625
3044.20903	2475.4625
3046.61118	2460.8625
3049.01187	2454.8625
3051.4111	2451.0625
3053.80888	2441.0625
3056.20519	2436.4625
3058.60005	2418.0625
3060.99345	2445.3625
3063.3854	2409.2625
3065.7759	2408.2625
3068.16494	2403.7625
3070.55254	2388.1625
3072.93868	2401.7625
3075.32338	2402.7625
3077.70662	2383.0625
3080.08842	2373.8625
3082.46878	2344.7625
3084.84769	2381.8625
3087.22515	2363.3625
3089.60118	2369.4625
3091.97576	2362.3625
3094.3489	2358.1625
3096.72061	2349.0625
3099.09087	2342.4625
3101.4597	2358.6625
3103.82709	2330.7625
3106.19305	2319.6625
3108.55757	2333.3625
3110.92066	2327.5625
3113.28232	2330.3625
3115.64255	2319.7625
3118.00134	2321.3625
3120.35871	2299.2625
3122.71466	2285.5625
3125.06917	2297.9625
3127.42226	2292.3625
3129.77393	2257.8625
3132.12417	2284.4625
3134.47299	2281.9625
3136.82039	2267.1625
3139.16636	2244.1625
3141.51092	2259.7625
3143.85406	2269.1625
3146.19579	2249.9625
3148.53609	2245.6625
3150.87499	2252.6625
3153.21246	2243.3625
3155.54853	2258.0625
3157.88318	2259.9625
3160.21642	2257.2625
3162.54826	2251.6625
3164.87868	2239.3625
3167.2077	2219.1625
3169.5353	2235.5625
3171.86151	2239.7625
3174.18631	2222.8625
3176.5097	2221.1625
3178.83169	2226.9625
3181.15228	2215.5625
3183.47147	2198.2625
3185.78926	2181.2625
3188.10565	2192.1625
3190.42065	2176.0625
3192.73424	2186.0625
3195.04645	2169.2625
3197.35725	2170.5625
3199.66667	2178.4625
3201.97469	2173.3625
3204.28132	2159.4625
3206.58656	2174.1625
3208.8904	2175.5625
3211.19287	2162.9625
3213.49394	2162.2625
3215.79363	2153.5625
3218.09193	2174.4625
3220.38884	2150.3625
3222.68438	2160.8625
3224.97853	2135.7625
3227.2713	2149.2625
3229.56269	2132.2625
3231.8527	2139.9625
3234.14133	2126.9625
3236.42858	2130.5625
3238.71446	2101.9625
3240.99896	2112.3625
3243.28209	2103.2625
3245.56384	2117.7625
3247.84423	2089.5625
3250.12324	2095.1625
3252.40088	2110.0625
3254.67715	2080.8625
3256.95205	2083.5625
3259.22558	2094.0625
3261.49775	2101.9625
3263.76855	2081.0625
3266.03799	2089.0625
3268.30606	2095.1625
3270.57277	2082.6625
3272.83812	2064.3625
3275.10211	2067.1625
3277.36474	2076.1625
3279.62601	2075.5625
3281.88593	2047.2625
3284.14448	2033.0625
3286.40168	2043.5625
3288.65753	2025.7625
3290.91202	2032.1625
3293.16516	2025.3625
3295.41695	2040.4625
3297.66738	2043.4625
3299.91647	2018.8625
3302.16421	2019.1625
3304.4106	1977.1625
3306.65564	1984.9625
3308.89933	1953.1625
3311.14169	1961.1625
3313.38269	1937.5625
3315.62236	1924.2625
3317.86068	1915.5625
3320.09766	1916.4625
3322.3333	1869.4625
3324.5676	1878.0625
3326.80056	1826.5625
3329.03219	1827.1625
3331.26248	-1.3375
3333.49143	0.8625
3335.71905	0.6625
