Data from AgNPs_UA_20uM_CRN_500uM_SU_RamanShift__31__13-41-40-297.txt Node

Date: Thu Aug 04 13:41:40 BST 2022
User: TCL
Spectrometer: QEP01345
Trigger mode: 4
Integration Time (sec): 1.000000E0
Scans to average: 10
Electric dark correction enabled: true
Nonlinearity correction enabled: false
Boxcar width: 0
XAxis mode: Raman Shifts
Number of Pixels in Spectrum: 1044
>>>>>Begin Spectral Data<<<<<
46.04893	-1.8
50.45542	-0.7
54.85868	1.4
59.25871	-0.1
63.6555	16
68.04907	13.4
72.43941	17.8
76.82654	17.4
81.21044	16.5
85.59113	18.1
89.96862	17.7
94.34289	19.4
98.71396	20.2
103.08183	21.5
107.4465	20.8
111.80798	22.9
116.16626	25.1
120.52136	26
124.87327	25.1
129.222	29
133.56755	28.5
137.90993	29.9
142.24913	36.2
146.58517	38.4
150.91804	45.5
155.24774	55.5
159.57429	69.4
163.89768	89.3
168.21792	121.6
172.53501	165.7
176.84895	228.7
181.15975	327.4
185.46741	463
189.77193	653.7
194.07331	868.6
198.37157	1120.1
202.6667	1396.4
206.9587	1657.7
211.24758	1923.2
215.53334	2202.4
219.81599	2484.1
224.09553	2812.6
228.37195	3187.7
232.64527	3564.2
236.91549	3960.2
241.18261	4320.4
245.44663	4621.6
249.70755	4876.4
253.96539	5077.9
258.22014	5253
262.4718	5385.9
266.72039	5481.6
270.96589	5501.3
275.20832	5475.2
279.44768	5404.4
283.68397	5315.7
287.91719	5266.3
292.14735	5264.6
296.37445	5303.8
300.59849	5456.9
304.81948	5628.7
309.03742	5792.4
313.25231	5912
317.46415	5851.9
321.67296	5638.9
325.87872	5449.3
330.08145	5347.9
334.28114	5364.6
338.47781	5420.4
342.67145	5529.8
346.86207	5684.9
351.04966	5876
355.23424	6084.7
359.4158	6255.6
363.59435	6315.9
367.76989	6334.4
371.94243	6331.8
376.11196	6307.9
380.27849	6290
384.44203	6306.6
388.60257	6317.3
392.76012	6375.6
396.91468	6470.9
401.06626	6551.5
405.21485	6594.2
409.36047	6514.3
413.50311	6332.9
417.64277	6201.8
421.77947	6078.8
425.9132	6059.4
430.04396	6071
434.17176	6084.7
438.2966	6160.2
442.41849	6258.6
446.53742	6393.9
450.6534	6501.5
454.76644	6558.5
458.87653	6562.5
462.98368	6575.5
467.08789	6537.6
471.18916	6472.2
475.2875	6365.1
479.38291	6273.1
483.4754	6219.8
487.56496	6191.2
491.6516	6175.8
495.73531	6176.8
499.81612	6179.9
503.89401	6241
507.96899	6294.5
512.04106	6349.6
516.11023	6392
520.1765	6446.7
524.23987	6456.9
528.30034	6453.3
532.35792	6428
536.41261	6390.6
540.46441	6339.9
544.51333	6305.6
548.55936	6341.5
552.60252	6437
556.64279	6508.5
560.6802	6571
564.71473	6649.5
568.7464	6715.4
572.7752	6707.3
576.80114	6571.5
580.82422	6497.4
584.84444	6432.6
588.86181	6467.1
592.87633	6500.4
596.888	6611
600.89682	6864.9
604.9028	7492.1
608.90594	8803
612.90624	10159.7
616.90371	9479.2
620.89834	7598.8
624.89015	6812.2
628.87913	6721.1
632.86528	6830.1
636.84862	6938.9
640.82913	6869.2
644.80683	6685.1
648.78172	6556.1
652.75379	6552.2
656.72306	6722.5
660.68952	6887.6
664.65319	6812.3
668.61405	6716.5
672.57211	6733.4
676.52738	6736.7
680.47986	6674.7
684.42955	6568.1
688.37646	6529.6
692.32058	6584.4
696.26192	6668.3
700.20048	6778
704.13626	6798.8
708.06928	6778.5
711.99952	6715
715.927	6724.7
719.85171	6773.6
723.77365	6761.9
727.69284	6745.4
731.60928	6694.3
735.52295	6693.3
739.43388	6709.6
743.34206	6750.8
747.24749	6761.8
751.15017	6757.2
755.05012	6826.3
758.94733	7041.9
762.8418	7549.5
766.73354	8318
770.62254	8963.5
774.50882	9085.4
778.39237	8763.1
782.27321	8190.8
786.15132	7552.2
790.02671	7137.9
793.89938	6920.4
797.76935	6826
801.6366	6792.2
805.50115	6756.4
809.36299	6731.8
813.22213	6729
817.07857	6738.2
820.93231	6755.5
824.78336	6765.4
828.63172	6786.7
832.47738	6790.9
836.32036	6773
840.16066	6750
843.99827	6760.9
847.8332	6767.4
851.66546	6771.8
855.49504	6803
859.32195	6799.7
863.1462	6813
866.96777	6815.7
870.78668	6817
874.60293	6831.7
878.41652	6871.3
882.22745	6903.4
886.03573	6931.4
889.84136	6938.9
893.64433	6913.1
897.44466	6901
901.24235	6909
905.0374	6895.5
908.8298	6858.6
912.61957	6833.4
916.40671	6849.4
920.19121	6854.8
923.97308	6908.9
927.75233	6966
931.52895	6993.9
935.30295	6962.9
939.07433	6853.8
942.84309	6785
946.60924	6758.8
950.37278	6747.5
954.13371	6765.3
957.89203	6756.6
961.64774	6769.2
965.40086	6758.2
969.15137	6731.6
972.89929	6734
976.64461	6737.9
980.38733	6763.8
984.12747	6759
987.86502	6792.2
991.59999	6821.6
995.33237	6863
999.06217	6919.6
1002.78939	7001.5
1006.51404	7118.1
1010.23611	7223.4
1013.95561	7261.6
1017.67255	7262.9
1021.38692	7248.7
1025.09872	7183.1
1028.80796	7094.7
1032.51465	7063.6
1036.21877	7061.6
1039.92035	7107
1043.61937	7143.8
1047.31584	7162.6
1051.00976	7176.9
1054.70114	7173.2
1058.38998	7200.9
1062.07627	7233
1065.76003	7255.2
1069.44126	7348.7
1073.11995	7482.7
1076.79611	7598
1080.46974	7693.4
1084.14085	7769.8
1087.80943	7858.7
1091.47549	7896
1095.13903	7899.3
1098.80005	7845.8
1102.45857	7803
1106.11456	7692.3
1109.76805	7646.5
1113.41903	7654.9
1117.06751	7714
1120.71348	7845.5
1124.35696	8020.8
1127.99793	8145
1131.63641	8046.5
1135.2724	7844.2
1138.90589	7707.4
1142.5369	7624.2
1146.16542	7590.7
1149.79145	7573.2
1153.415	7472
1157.03607	7430.4
1160.65467	7467.9
1164.27079	7595.4
1167.88443	7761.7
1171.49561	8052.1
1175.10432	8467
1178.71056	9070.7
1182.31434	9606.2
1185.91565	9774.5
1189.51451	9692.4
1193.11091	9570.5
1196.70485	9384.3
1200.29634	9212.8
1203.88538	9020.4
1207.47197	8764.1
1211.05612	8494.2
1214.63782	8286.4
1218.21708	8125.2
1221.79391	8013.2
1225.36829	7945.6
1228.94024	7903.2
1232.50976	7877.6
1236.07685	7906.2
1239.6415	7934.5
1243.20374	7935.2
1246.76355	8020.6
1250.32093	8075.7
1253.8759	8195.4
1257.42845	8381.8
1260.97859	8569.7
1264.52631	8767.6
1268.07163	8853.9
1271.61453	8941.2
1275.15503	8971.6
1278.69312	8976.8
1282.22882	8964.1
1285.76211	9021.3
1289.29301	9142.1
1292.82151	9293.6
1296.34761	9473.9
1299.87133	9728.6
1303.39266	10128.7
1306.9116	10774.6
1310.42815	11448.7
1313.94233	11655.9
1317.45412	11269.5
1320.96354	10716.6
1324.47058	10184.3
1327.97525	9748.1
1331.47754	9490.1
1334.97747	9453
1338.47502	9535.2
1341.97022	9825.7
1345.46305	10282.4
1348.95352	10978
1352.44163	11737
1355.92738	12488.3
1359.41078	13379.1
1362.89183	14127.5
1366.37053	13644.1
1369.84688	11987.4
1373.32088	10427.8
1376.79254	9524.8
1380.26186	9130.6
1383.72883	8880.7
1387.19347	8621.5
1390.65578	8410.2
1394.11575	8227.3
1397.57339	8107.7
1401.0287	8007.4
1404.48168	7977.9
1407.93234	7957.6
1411.38068	8020.4
1414.82669	8071.2
1418.27039	8089.4
1421.71177	8046.2
1425.15083	8002.1
1428.58758	7951
1432.02203	7961.8
1435.45416	8031.6
1438.88399	8103.3
1442.31151	8125.2
1445.73673	8149.7
1449.15965	8176.1
1452.58027	8125.9
1455.9986	8113.1
1459.41463	8132.3
1462.82837	8178.9
1466.23982	8299.7
1469.64898	8456.4
1473.05586	8583.2
1476.46045	8655.7
1479.86276	8711.4
1483.26279	8798.6
1486.66054	8901.1
1490.05602	9131.7
1493.44922	9445.1
1496.84016	9962.1
1500.22882	10755.1
1503.61521	11744
1506.99934	12661.9
1510.38121	13156.4
1513.76081	12932.5
1517.13816	12029.5
1520.51324	10905.2
1523.88607	10024.2
1527.25665	9496.2
1530.62498	9246.4
1533.99105	9111.2
1537.35488	9078.9
1540.71647	8999.4
1544.07581	8941.9
1547.4329	8868.6
1550.78776	8791.7
1554.14038	8708.5
1557.49077	8686.2
1560.83892	8714.1
1564.18484	8869.9
1567.52853	9054.7
1570.86999	9264
1574.20922	9339.3
1577.54624	9240.4
1580.88103	8895.4
1584.2136	8536.8
1587.54395	8299.9
1590.87208	8310.7
1594.19801	8500.3
1597.52172	8774.5
1600.84321	8930.4
1604.16251	8878
1607.47959	8746.1
1610.79447	8534
1614.10715	8206.4
1617.41763	7899.7
1620.7259	7644.2
1624.03199	7526.1
1627.33587	7472.9
1630.63757	7529.2
1633.93707	7697.1
1637.23439	8006
1640.52951	8514.3
1643.82246	9213.1
1647.11321	9953.3
1650.40179	10357.3
1653.68819	10043.6
1656.97241	9170.3
1660.25446	8268.2
1663.53433	7613
1666.81203	7224.3
1670.08756	7006.5
1673.36092	6863
1676.63211	6807.7
1679.90115	6717.5
1683.16801	6657.7
1686.43272	6610.2
1689.69527	6571.8
1692.95567	6558.8
1696.2139	6528.1
1699.46999	6509.3
1702.72392	6518.9
1705.97571	6506.6
1709.22535	6489.2
1712.47284	6517.3
1715.71819	6484.2
1718.96139	6484
1722.20246	6478.7
1725.44139	6458.5
1728.67818	6420.8
1731.91284	6380.9
1735.14537	6386.8
1738.37576	6357.2
1741.60403	6343.3
1744.83017	6331.4
1748.05418	6326.6
1751.27607	6310.1
1754.49584	6279.9
1757.71349	6272.8
1760.92903	6253.1
1764.14244	6277.2
1767.35375	6250.1
1770.56294	6255.1
1773.77002	6255
1776.97499	6252.6
1780.17785	6206
1783.37861	6194.3
1786.57727	6171.9
1789.77382	6178
1792.96828	6164.4
1796.16064	6142.9
1799.3509	6134.9
1802.53907	6147
1805.72514	6120
1808.90913	6110.9
1812.09102	6099.9
1815.27083	6100.9
1818.44856	6062.8
1821.6242	6058.1
1824.79776	6070.5
1827.96924	6045.5
1831.13864	6046.3
1834.30597	6029.7
1837.47122	6035.6
1840.6344	6007.9
1843.7955	6007.5
1846.95454	6003.4
1850.11151	5987
1853.26642	5998.2
1856.41926	6006.1
1859.57004	6001.5
1862.71876	5987.6
1865.86542	5966.3
1869.01003	5974.9
1872.15258	5950.5
1875.29308	5946.8
1878.43152	5934.3
1881.56792	5936.7
1884.70227	5919.7
1887.83457	5933.4
1890.96482	5924.5
1894.09304	5902.7
1897.21921	5878.5
1900.34335	5888.2
1903.46544	5888.8
1906.58551	5875.1
1909.70353	5886.6
1912.81953	5867.1
1915.93349	5842.4
1919.04543	5827.6
1922.15534	5834.5
1925.26322	5837.3
1928.36908	5808.6
1931.47292	5796.6
1934.57473	5802.5
1937.67453	5782.2
1940.77232	5775.7
1943.86808	5757.2
1946.96184	5726.8
1950.05358	5726
1953.14331	5698.8
1956.23103	5690.8
1959.31675	5664.4
1962.40046	5638
1965.48217	5630.9
1968.56188	5611.9
1971.63959	5610.1
1974.7153	5585.2
1977.78901	5581.9
1980.86073	5566.9
1983.93046	5526
1986.99819	5528
1990.06394	5514.4
1993.1277	5477.3
1996.18947	5481.2
1999.24925	5457.4
2002.30706	5435.4
2005.36288	5420.3
2008.41672	5385.7
2011.46859	5385.2
2014.51848	5378.5
2017.56639	5356.7
2020.61233	5346.7
2023.6563	5343.9
2026.6983	5334.8
2029.73833	5293.5
2032.7764	5297.8
2035.8125	5272.8
2038.84664	5256.8
2041.87881	5260.6
2044.90903	5260
2047.93729	5245.3
2050.96359	5233.3
2053.98794	5221.6
2057.01034	5216.5
2060.03078	5204.9
2063.04927	5191.2
2066.06582	5202.6
2069.08042	5193
2072.09307	5190.9
2075.10378	5182.7
2078.11255	5189.8
2081.11938	5186.2
2084.12426	5159.8
2087.12722	5166.4
2090.12824	5157.9
2093.12732	5172.6
2096.12447	5188.5
2099.11969	5173.2
2102.11299	5171.2
2105.10435	5171.6
2108.09379	5181.7
2111.08131	5182
2114.0669	5148
2117.05057	5178.9
2120.03233	5180.7
2123.01216	5170.5
2125.99008	5183.2
2128.96609	5205.2
2131.94018	5200.1
2134.91236	5201.1
2137.88263	5191.5
2140.851	5199.1
2143.81746	5201.8
2146.78201	5188.8
2149.74466	5194.8
2152.7054	5191.9
2155.66425	5181.4
2158.6212	5207.3
2161.57625	5213.5
2164.52941	5197.2
2167.48067	5181
2170.43004	5173.2
2173.37752	5186.3
2176.32311	5178
2179.26681	5177.4
2182.20863	5181.6
2185.14856	5164.2
2188.08661	5154.1
2191.02278	5166.9
2193.95707	5175.7
2196.88948	5176.9
2199.82001	5160.3
2202.74867	5143.7
2205.67545	5149.2
2208.60037	5148.9
2211.52341	5145.2
2214.44458	5121.1
2217.36388	5114.2
2220.28132	5077.1
2223.1969	5064.1
2226.11061	5062.1
2229.02246	5051.4
2231.93245	5040.4
2234.84058	5039.1
2237.74686	5032.9
2240.65128	5038.9
2243.55385	5024.8
2246.45456	5020
2249.35343	5012.1
2252.25044	4999
2255.14561	5005.4
2258.03893	4991.1
2260.93041	4991.2
2263.82004	4991.7
2266.70783	4972.3
2269.59378	4951.2
2272.4779	4932.7
2275.36017	4924.7
2278.24061	4924.4
2281.11922	4908.8
2283.996	4884.8
2286.87094	4884.7
2289.74405	4873.3
2292.61534	4870.5
2295.4848	4851
2298.35243	4866.5
2301.21824	4861.4
2304.08223	4851.9
2306.94439	4853.7
2309.80474	4849.8
2312.66327	4844.5
2315.51999	4825.9
2318.37489	4826.7
2321.22797	4815.7
2324.07925	4826.3
2326.92871	4786.2
2329.77637	4795
2332.62222	4793.1
2335.46626	4793.3
2338.3085	4762.4
2341.14893	4750.6
2343.98756	4747.9
2346.8244	4751
2349.65943	4762.7
2352.49267	4756.6
2355.32411	4747.2
2358.15376	4746.3
2360.98161	4742.2
2363.80768	4737.3
2366.63195	4724.1
2369.45444	4739.3
2372.27514	4730.1
2375.09405	4715
2377.91118	4715.9
2380.72652	4711.2
2383.54009	4685.5
2386.35187	4681.3
2389.16188	4687.6
2391.97011	4666.8
2394.77657	4641.7
2397.58125	4624.4
2400.38416	4642.2
2403.18529	4627.6
2405.98466	4613.1
2408.78226	4603.3
2411.57809	4606
2414.37216	4581
2417.16446	4587
2419.955	4581.1
2422.74378	4586.6
2425.5308	4586
2428.31606	4566.4
2431.09956	4559.5
2433.88131	4561.3
2436.6613	4568.6
2439.43954	4549
2442.21603	4554.5
2444.99077	4537.8
2447.76377	4547
2450.53501	4524.4
2453.30451	4528.1
2456.07226	4532.6
2458.83827	4511.7
2461.60254	4517
2464.36507	4503.2
2467.12586	4497.6
2469.88492	4495.9
2472.64224	4493
2475.39782	4502.9
2478.15167	4483.8
2480.90379	4489
2483.65417	4478.6
2486.40283	4492.3
2489.14976	4492.4
2491.89497	4495
2494.63845	4478.7
2497.3802	4483.9
2500.12024	4473.4
2502.85855	4458.1
2505.59514	4441.9
2508.33002	4443.1
2511.06318	4425
2513.79462	4423.6
2516.52435	4408.7
2519.25237	4398.2
2521.97867	4420.7
2524.70327	4391.1
2527.42616	4384.5
2530.14734	4391.9
2532.86681	4359.9
2535.58458	4365.8
2538.30065	4355.2
2541.01501	4359.6
2543.72768	4366.6
2546.43864	4354.2
2549.14791	4355
2551.85548	4356.9
2554.56136	4350.2
2557.26554	4337.6
2559.96803	4327.5
2562.66883	4306.5
2565.36794	4299.9
2568.06536	4282
2570.7611	4266.3
2573.45514	4262
2576.14751	4266.7
2578.83819	4245.9
2581.52719	4242.1
2584.21451	4226.8
2586.90015	4204
2589.58411	4207.9
2592.2664	4215.6
2594.94701	4191.8
2597.62594	4194.2
2600.30321	4172.4
2602.9788	4182.6
2605.65273	4173.7
2608.32498	4162.8
2610.99557	4164.7
2613.66449	4145.8
2616.33175	4162.2
2618.99734	4145.5
2621.66128	4129
2624.32355	4137.1
2626.98416	4133.8
2629.64311	4113.1
2632.30041	4108.6
2634.95605	4099.6
2637.61004	4072.6
2640.26238	4084.2
2642.91306	4093.6
2645.56209	4070.7
2648.20948	4075.8
2650.85521	4049.2
2653.4993	4069.1
2656.14175	4083.9
2658.78255	4086.5
2661.42171	4054.7
2664.05923	4072.8
2666.6951	4085.8
2669.32934	4075.1
2671.96194	4060.3
2674.59291	4074.2
2677.22224	4061.3
2679.84993	4062.6
2682.476	4047.8
2685.10043	4061.8
2687.72324	4046.8
2690.34441	4057.2
2692.96396	4042.1
2695.58188	4050.4
2698.19818	4055.1
2700.81285	4055.2
2703.4259	4045.3
2706.03733	4049.9
2708.64714	4040.4
2711.25533	4027
2713.86191	4020.2
2716.46687	4021.7
2719.07021	4034.7
2721.67194	4044.1
2724.27206	4038
2726.87057	4026.7
2729.46747	4034.4
2732.06276	4010.9
2734.65644	4026.7
2737.24852	4015.3
2739.83899	4009.5
2742.42786	4007.4
2745.01513	4009.9
2747.60079	4005.8
2750.18486	3993.1
2752.76733	3985.6
2755.3482	3980.2
2757.92747	3961
2760.50515	3959.4
2763.08123	3950.9
2765.65573	3944.2
2768.22863	3947.6
2770.79994	3935.9
2773.36967	3920.4
2775.9378	3930.3
2778.50435	3923.1
2781.06932	3906
2783.6327	3914.8
2786.1945	3895.4
2788.75471	3897.3
2791.31335	3871.7
2793.87041	3864.9
2796.42589	3854.4
2798.97979	3861.8
2801.53212	3859
2804.08288	3855.9
2806.63206	3855.7
2809.17967	3847.8
2811.72571	3833.4
2814.27018	3833.9
2816.81308	3816
2819.35442	3794.4
2821.89419	3793.9
2824.43239	3789.6
2826.96904	3762.3
2829.50412	3779.1
2832.03763	3765.5
2834.56959	3745.4
2837.1	3745.5
2839.62884	3736.2
2842.15613	3747.5
2844.68186	3751.2
2847.20604	3737.8
2849.72867	3725.3
2852.24974	3712.9
2854.76927	3692.2
2857.28724	3691.3
2859.80367	3713.6
2862.31855	3691.1
2864.83189	3681.2
2867.34368	3681.5
2869.85393	3670
2872.36264	3675
2874.8698	3667.5
2877.37543	3656.8
2879.87952	3654.4
2882.38207	3662.5
2884.88308	3648.9
2887.38256	3653
2889.88051	3640.6
2892.37692	3644.7
2894.8718	3646.5
2897.36515	3638.1
2899.85698	3642.1
2902.34727	3630
2904.83604	3627.8
2907.32328	3642.5
2909.809	3654.8
2912.29319	3639.9
2914.77587	3645.3
2917.25702	3653.7
2919.73665	3639.8
2922.21476	3621.6
2924.69136	3643
2927.16644	3637.7
2929.64	3625.2
2932.11205	3622.8
2934.58258	3602.1
2937.05161	3603.5
2939.51912	3591.5
2941.98513	3593.3
2944.44962	3587.5
2946.91261	3572.9
2949.37409	3588.6
2951.83407	3593.8
2954.29254	3572.2
2956.74951	3571.3
2959.20498	3577.8
2961.65895	3566.3
2964.11142	3566.6
2966.56239	3557.1
2969.01186	3564.7
2971.45984	3567.2
2973.90632	3562.4
2976.35131	3547.6
2978.7948	3546
2981.23681	3539
2983.67732	3530
2986.11635	3535.6
2988.55388	3506.5
2990.98993	3512.1
2993.4245	3504.5
2995.85758	3509.2
2998.28917	3496.3
3000.71928	3482
3003.14791	3477.4
3005.57506	3466.2
3008.00073	3447.1
3010.42493	3457.6
3012.84764	3430.3
3015.26888	3425.3
3017.68865	3408.4
3020.10694	3406.7
3022.52376	3404.3
3024.9391	3415.1
3027.35298	3389.7
3029.76539	3383.3
3032.17632	3381.5
3034.5858	3388.4
3036.9938	3372.1
3039.40034	3355.7
3041.80542	3344.1
3044.20903	3343.8
3046.61118	3341.4
3049.01187	3335.7
3051.4111	3335.1
3053.80888	3328.1
3056.20519	3322.3
3058.60005	3311.3
3060.99345	3305.5
3063.3854	3289.7
3065.7759	3298.8
3068.16494	3300.9
3070.55254	3285
3072.93868	3258.3
3075.32338	3265.3
3077.70662	3239.2
3080.08842	3230.6
3082.46878	3239
3084.84769	3203.4
3087.22515	3202.2
3089.60118	3212.6
3091.97576	3223
3094.3489	3215.1
3096.72061	3198.1
3099.09087	3211.1
3101.4597	3201.3
3103.82709	3199.1
3106.19305	3193.5
3108.55757	3204.9
3110.92066	3174.4
3113.28232	3186.9
3115.64255	3170.4
3118.00134	3164.2
3120.35871	3147.5
3122.71466	3150.3
3125.06917	3145.7
3127.42226	3145.3
3129.77393	3134.3
3132.12417	3130.2
3134.47299	3116.1
3136.82039	3107.6
3139.16636	3113.7
3141.51092	3113.2
3143.85406	3096.7
3146.19579	3101
3148.53609	3108.9
3150.87499	3096.5
3153.21246	3094.6
3155.54853	3101.5
3157.88318	3103.4
3160.21642	3103.5
3162.54826	3103.9
3164.87868	3099.6
3167.2077	3085.2
3169.5353	3089.9
3171.86151	3078.9
3174.18631	3078.2
3176.5097	3076.1
3178.83169	3066.3
3181.15228	3066.7
3183.47147	3043.6
3185.78926	3057.7
3188.10565	3027.7
3190.42065	3022.8
3192.73424	3032.3
3195.04645	3019.3
3197.35725	3006.1
3199.66667	3013.6
3201.97469	3013.1
3204.28132	3009.2
3206.58656	3005.9
3208.8904	3007.6
3211.19287	3024.3
3213.49394	3020.8
3215.79363	3019.7
3218.09193	3012.6
3220.38884	3000.3
3222.68438	3005.3
3224.97853	3007.3
3227.2713	3005.1
3229.56269	2995.3
3231.8527	2996.5
3234.14133	2981.6
3236.42858	2965.8
3238.71446	2968.3
3240.99896	2949.5
3243.28209	2961.8
3245.56384	2946.6
3247.84423	2956
3250.12324	2941.5
3252.40088	2935.3
3254.67715	2917.6
3256.95205	2925.9
3259.22558	2921.2
3261.49775	2911.3
3263.76855	2925.8
3266.03799	2918.8
3268.30606	2918
3270.57277	2919.8
3272.83812	2906.7
3275.10211	2897.7
3277.36474	2908.9
3279.62601	2889.6
3281.88593	2883.4
3284.14448	2882.8
3286.40168	2876.6
3288.65753	2869.1
3290.91202	2851.5
3293.16516	2853.3
3295.41695	2853.6
3297.66738	2831.2
3299.91647	2816
3302.16421	2796.1
3304.4106	2798.4
3306.65564	2771.8
3308.89933	2743.3
3311.14169	2730.3
3313.38269	2704.9
3315.62236	2674.6
3317.86068	2658.3
3320.09766	2646.1
3322.3333	2612.3
3324.5676	2593.9
3326.80056	2559
3329.03219	2542.2
3331.26248	2.2
3333.49143	0.2
3335.71905	-1.8
