Data from AgNPs_UA_5uM_CRN_500uM_SU_RamanShift__215__12-05-13-182.txt Node

Date: Thu Aug 04 12:05:13 BST 2022
User: TCL
Spectrometer: QEP01345
Trigger mode: 4
Integration Time (sec): 1.000000E0
Scans to average: 10
Electric dark correction enabled: true
Nonlinearity correction enabled: false
Boxcar width: 0
XAxis mode: Raman Shifts
Number of Pixels in Spectrum: 1044
>>>>>Begin Spectral Data<<<<<
46.04893	-1.8375
50.45542	-0.1375
54.85868	1.0625
59.25871	0.2625
63.6555	-57.9375
68.04907	-41.0375
72.43941	-71.9375
76.82654	-57.4375
81.21044	-58.6375
85.59113	-49.2375
89.96862	-76.8375
94.34289	-56.3375
98.71396	-77.9375
103.08183	-58.6375
107.4465	-48.3375
111.80798	-57.6375
116.16626	-47.0375
120.52136	-74.4375
124.87327	-50.5375
129.222	-62.5375
133.56755	-51.2375
137.90993	-64.1375
142.24913	-53.1375
146.58517	-43.9375
150.91804	-41.5375
155.24774	-30.4375
159.57429	-9.9375
163.89768	-8.8375
168.21792	32.7625
172.53501	53.0625
176.84895	129.9625
181.15975	263.9625
185.46741	410.1625
189.77193	581.8625
194.07331	865.0625
198.37157	1136.8625
202.6667	1428.2625
206.9587	1740.2625
211.24758	2039.6625
215.53334	2361.8625
219.81599	2703.2625
224.09553	3104.7625
228.37195	3528.9625
232.64527	3988.8625
236.91549	4435.1625
241.18261	4785.3625
245.44663	5058.5625
249.70755	5215.1625
253.96539	5341.9625
258.22014	5443.3625
262.4718	5507.1625
266.72039	5557.7625
270.96589	5529.5625
275.20832	5428.7625
279.44768	5323.9625
283.68397	5217.4625
287.91719	5166.3625
292.14735	5183.1625
296.37445	5363.5625
300.59849	5662.5625
304.81948	5984.3625
309.03742	6348.2625
313.25231	6585.0625
317.46415	6537.3625
321.67296	6151.6625
325.87872	5757.5625
330.08145	5549.8625
334.28114	5517.5625
338.47781	5585.1625
342.67145	5715.6625
346.86207	5956.7625
351.04966	6305.4625
355.23424	6694.9625
359.4158	6957.7625
363.59435	6976.9625
367.76989	6930.6625
371.94243	6805.1625
376.11196	6659.8625
380.27849	6588.9625
384.44203	6535.6625
388.60257	6479.3625
392.76012	6504.8625
396.91468	6600.8625
401.06626	6770.6625
405.21485	6807.0625
409.36047	6643.1625
413.50311	6336.7625
417.64277	6032.0625
421.77947	5825.0625
425.9132	5775.7625
430.04396	5749.2625
434.17176	5785.0625
438.2966	5883.5625
442.41849	5956.5625
446.53742	6073.3625
450.6534	6182.7625
454.76644	6254.4625
458.87653	6263.7625
462.98368	6225.5625
467.08789	6162.4625
471.18916	6063.0625
475.2875	5958.2625
479.38291	5858.3625
483.4754	5755.1625
487.56496	5721.5625
491.6516	5675.2625
495.73531	5692.7625
499.81612	5723.3625
503.89401	5795.3625
507.96899	5854.5625
512.04106	5940.6625
516.11023	6025.9625
520.1765	6127.4625
524.23987	6129.7625
528.30034	6140.9625
532.35792	6063.7625
536.41261	6030.4625
540.46441	5907.8625
544.51333	5873.2625
548.55936	5905.2625
552.60252	6039.4625
556.64279	6131.0625
560.6802	6271.3625
564.71473	6383.8625
568.7464	6581.1625
572.7752	6542.7625
576.80114	6244.3625
580.82422	6027.0625
584.84444	5926.9625
588.86181	5891.4625
592.87633	5928.6625
596.888	6053.6625
600.89682	6420.4625
604.9028	7363.9625
608.90594	9425.1625
612.90624	11715.3625
616.90371	10896.1625
620.89834	7866.6625
624.89015	6548.4625
628.87913	6328.8625
632.86528	6517.9625
636.84862	6634.1625
640.82913	6531.8625
644.80683	6181.9625
648.78172	5991.8625
652.75379	6033.1625
656.72306	6246.6625
660.68952	6504.2625
664.65319	6412.1625
668.61405	6170.2625
672.57211	6100.0625
676.52738	6089.7625
680.47986	6009.3625
684.42955	5924.4625
688.37646	5876.4625
692.32058	5870.8625
696.26192	5952.6625
700.20048	6046.2625
704.13626	6068.1625
708.06928	6030.1625
711.99952	5996.2625
715.927	5983.8625
719.85171	6019.6625
723.77365	6065.0625
727.69284	6048.8625
731.60928	6044.2625
735.52295	6016.7625
739.43388	6030.6625
743.34206	6060.2625
747.24749	6083.5625
751.15017	6106.0625
755.05012	6171.3625
758.94733	6544.6625
762.8418	7378.1625
766.73354	8691.3625
770.62254	9674.1625
774.50882	9773.7625
778.39237	9229.0625
782.27321	8337.4625
786.15132	7298.5625
790.02671	6647.7625
793.89938	6253.8625
797.76935	6142.4625
801.6366	6047.5625
805.50115	6005.5625
809.36299	5988.2625
813.22213	5979.1625
817.07857	5984.3625
820.93231	5997.9625
824.78336	6022.2625
828.63172	6034.8625
832.47738	6043.8625
836.32036	6029.2625
840.16066	6014.0625
843.99827	5976.9625
847.8332	5975.6625
851.66546	6003.0625
855.49504	5996.1625
859.32195	6042.0625
863.1462	6013.8625
866.96777	6022.4625
870.78668	5994.2625
874.60293	6025.8625
878.41652	6040.3625
882.22745	6127.7625
886.03573	6152.8625
889.84136	6146.7625
893.64433	6151.1625
897.44466	6132.0625
901.24235	6135.9625
905.0374	6112.2625
908.8298	6071.8625
912.61957	6029.9625
916.40671	5982.3625
920.19121	6041.9625
923.97308	6125.0625
927.75233	6178.3625
931.52895	6246.6625
935.30295	6206.7625
939.07433	6068.8625
942.84309	5955.8625
946.60924	5947.8625
950.37278	5889.8625
954.13371	5880.9625
957.89203	5889.4625
961.64774	5902.0625
965.40086	5869.8625
969.15137	5850.8625
972.89929	5915.7625
976.64461	5871.0625
980.38733	5897.0625
984.12747	5896.0625
987.86502	5915.9625
991.59999	5913.0625
995.33237	5988.2625
999.06217	6067.1625
1002.78939	6165.8625
1006.51404	6285.3625
1010.23611	6395.0625
1013.95561	6425.7625
1017.67255	6433.3625
1021.38692	6424.9625
1025.09872	6358.7625
1028.80796	6278.0625
1032.51465	6265.2625
1036.21877	6272.1625
1039.92035	6318.0625
1043.61937	6335.3625
1047.31584	6396.1625
1051.00976	6423.3625
1054.70114	6433.0625
1058.38998	6408.1625
1062.07627	6418.0625
1065.76003	6455.0625
1069.44126	6538.9625
1073.11995	6620.6625
1076.79611	6752.7625
1080.46974	6891.5625
1084.14085	7051.3625
1087.80943	7158.1625
1091.47549	7232.5625
1095.13903	7133.6625
1098.80005	7011.5625
1102.45857	6908.1625
1106.11456	6866.2625
1109.76805	6836.7625
1113.41903	6948.1625
1117.06751	7100.7625
1120.71348	7374.1625
1124.35696	7742.2625
1127.99793	8021.1625
1131.63641	7874.3625
1135.2724	7469.9625
1138.90589	7180.8625
1142.5369	6960.1625
1146.16542	6876.2625
1149.79145	6774.0625
1153.415	6706.2625
1157.03607	6724.0625
1160.65467	6812.0625
1164.27079	7012.0625
1167.88443	7256.2625
1171.49561	7698.6625
1175.10432	8290.9625
1178.71056	9183.8625
1182.31434	9976.7625
1185.91565	10206.0625
1189.51451	10077.9625
1193.11091	9812.5625
1196.70485	9569.9625
1200.29634	9347.2625
1203.88538	9052.3625
1207.47197	8605.8625
1211.05612	8158.8625
1214.63782	7762.6625
1218.21708	7512.1625
1221.79391	7377.4625
1225.36829	7272.6625
1228.94024	7276.8625
1232.50976	7298.1625
1236.07685	7322.7625
1239.6415	7336.7625
1243.20374	7373.2625
1246.76355	7400.8625
1250.32093	7469.4625
1253.8759	7543.6625
1257.42845	7709.6625
1260.97859	7933.6625
1264.52631	8154.9625
1268.07163	8286.0625
1271.61453	8432.3625
1275.15503	8478.3625
1278.69312	8477.6625
1282.22882	8573.6625
1285.76211	8734.0625
1289.29301	8991.3625
1292.82151	9247.5625
1296.34761	9477.1625
1299.87133	9864.3625
1303.39266	10546.4625
1306.9116	11651.6625
1310.42815	12901.1625
1313.94233	13331.1625
1317.45412	12540.0625
1320.96354	11435.2625
1324.47058	10429.0625
1327.97525	9691.4625
1331.47754	9274.3625
1334.97747	9174.0625
1338.47502	9285.7625
1341.97022	9647.3625
1345.46305	10377.4625
1348.95352	11449.1625
1352.44163	12709.2625
1355.92738	14048.6625
1359.41078	15689.9625
1362.89183	17193.7625
1366.37053	16583.2625
1369.84688	13760.4625
1373.32088	11125.5625
1376.79254	9724.1625
1380.26186	9079.3625
1383.72883	8653.3625
1387.19347	8258.9625
1390.65578	7903.0625
1394.11575	7667.8625
1397.57339	7509.1625
1401.0287	7408.4625
1404.48168	7366.4625
1407.93234	7365.7625
1411.38068	7398.5625
1414.82669	7464.9625
1418.27039	7527.8625
1421.71177	7536.0625
1425.15083	7450.8625
1428.58758	7363.2625
1432.02203	7393.4625
1435.45416	7495.0625
1438.88399	7461.9625
1442.31151	7466.0625
1445.73673	7546.8625
1449.15965	7589.0625
1452.58027	7597.4625
1455.9986	7586.9625
1459.41463	7606.0625
1462.82837	7697.4625
1466.23982	7887.6625
1469.64898	8087.2625
1473.05586	8209.5625
1476.46045	8337.0625
1479.86276	8398.7625
1483.26279	8523.4625
1486.66054	8697.5625
1490.05602	8952.8625
1493.44922	9515.5625
1496.84016	10390.1625
1500.22882	11739.7625
1503.61521	13446.8625
1506.99934	15221.8625
1510.38121	16383.0625
1513.76081	16267.1625
1517.13816	14712.9625
1520.51324	12619.3625
1523.88607	10910.2625
1527.25665	9947.7625
1530.62498	9432.7625
1533.99105	9237.1625
1537.35488	9094.0625
1540.71647	9017.0625
1544.07581	8873.6625
1547.4329	8749.5625
1550.78776	8645.1625
1554.14038	8557.8625
1557.49077	8513.3625
1560.83892	8603.6625
1564.18484	8838.3625
1567.52853	9169.2625
1570.86999	9483.9625
1574.20922	9636.2625
1577.54624	9515.7625
1580.88103	9020.9625
1584.2136	8346.2625
1587.54395	7972.3625
1590.87208	7903.1625
1594.19801	8054.8625
1597.52172	8423.6625
1600.84321	8567.7625
1604.16251	8430.0625
1607.47959	8236.3625
1610.79447	8040.0625
1614.10715	7759.2625
1617.41763	7457.3625
1620.7259	7216.4625
1624.03199	7068.0625
1627.33587	6976.4625
1630.63757	7038.1625
1633.93707	7257.2625
1637.23439	7668.4625
1640.52951	8353.6625
1643.82246	9313.9625
1647.11321	10459.0625
1650.40179	11149.6625
1653.68819	10856.7625
1656.97241	9625.9625
1660.25446	8253.4625
1663.53433	7257.9625
1666.81203	6679.1625
1670.08756	6326.3625
1673.36092	6176.1625
1676.63211	6010.7625
1679.90115	5923.1625
1683.16801	5835.9625
1686.43272	5750.0625
1689.69527	5716.6625
1692.95567	5666.6625
1696.2139	5644.5625
1699.46999	5585.2625
1702.72392	5555.1625
1705.97571	5595.3625
1709.22535	5561.6625
1712.47284	5601.8625
1715.71819	5616.2625
1718.96139	5602.4625
1722.20246	5600.1625
1725.44139	5562.3625
1728.67818	5562.1625
1731.91284	5492.5625
1735.14537	5465.8625
1738.37576	5435.0625
1741.60403	5413.8625
1744.83017	5371.3625
1748.05418	5395.8625
1751.27607	5394.6625
1754.49584	5359.8625
1757.71349	5321.2625
1760.92903	5321.6625
1764.14244	5276.1625
1767.35375	5276.4625
1770.56294	5248.0625
1773.77002	5246.0625
1776.97499	5262.4625
1780.17785	5230.8625
1783.37861	5229.6625
1786.57727	5237.0625
1789.77382	5170.4625
1792.96828	5200.5625
1796.16064	5222.3625
1799.3509	5201.1625
1802.53907	5205.3625
1805.72514	5169.0625
1808.90913	5132.6625
1812.09102	5140.7625
1815.27083	5121.6625
1818.44856	5124.9625
1821.6242	5111.1625
1824.79776	5090.0625
1827.96924	5083.8625
1831.13864	5077.1625
1834.30597	5070.9625
1837.47122	5044.0625
1840.6344	5044.6625
1843.7955	5032.6625
1846.95454	5018.0625
1850.11151	5032.9625
1853.26642	4999.7625
1856.41926	5006.9625
1859.57004	5004.8625
1862.71876	5002.8625
1865.86542	4998.5625
1869.01003	4992.9625
1872.15258	4963.6625
1875.29308	4988.7625
1878.43152	4981.6625
1881.56792	4959.1625
1884.70227	4954.6625
1887.83457	4943.1625
1890.96482	4925.9625
1894.09304	4919.9625
1897.21921	4913.3625
1900.34335	4921.4625
1903.46544	4895.2625
1906.58551	4915.3625
1909.70353	4919.0625
1912.81953	4886.7625
1915.93349	4878.2625
1919.04543	4851.6625
1922.15534	4850.8625
1925.26322	4854.4625
1928.36908	4832.5625
1931.47292	4834.0625
1934.57473	4846.7625
1937.67453	4807.2625
1940.77232	4789.6625
1943.86808	4772.8625
1946.96184	4786.2625
1950.05358	4750.4625
1953.14331	4730.9625
1956.23103	4753.1625
1959.31675	4700.8625
1962.40046	4665.2625
1965.48217	4684.4625
1968.56188	4674.6625
1971.63959	4650.6625
1974.7153	4661.0625
1977.78901	4652.8625
1980.86073	4625.2625
1983.93046	4582.7625
1986.99819	4515.3625
1990.06394	4539.7625
1993.1277	4546.6625
1996.18947	4528.2625
1999.24925	4505.8625
2002.30706	4501.6625
2005.36288	4502.8625
2008.41672	4455.4625
2011.46859	4443.1625
2014.51848	4432.5625
2017.56639	4408.7625
2020.61233	4393.4625
2023.6563	4405.4625
2026.6983	4342.3625
2029.73833	4360.6625
2032.7764	4374.9625
2035.8125	4319.3625
2038.84664	4322.0625
2041.87881	4300.1625
2044.90903	4315.6625
2047.93729	4314.4625
2050.96359	4274.6625
2053.98794	4295.8625
2057.01034	4289.2625
2060.03078	4269.7625
2063.04927	4266.3625
2066.06582	4266.3625
2069.08042	4250.4625
2072.09307	4270.8625
2075.10378	4258.8625
2078.11255	4247.7625
2081.11938	4238.7625
2084.12426	4228.9625
2087.12722	4221.9625
2090.12824	4239.3625
2093.12732	4232.0625
2096.12447	4236.5625
2099.11969	4235.3625
2102.11299	4232.5625
2105.10435	4242.2625
2108.09379	4234.9625
2111.08131	4219.2625
2114.0669	4216.8625
2117.05057	4211.3625
2120.03233	4213.4625
2123.01216	4241.9625
2125.99008	4233.9625
2128.96609	4250.9625
2131.94018	4248.9625
2134.91236	4240.8625
2137.88263	4242.3625
2140.851	4255.5625
2143.81746	4254.9625
2146.78201	4258.2625
2149.74466	4233.2625
2152.7054	4246.1625
2155.66425	4244.3625
2158.6212	4221.7625
2161.57625	4211.1625
2164.52941	4178.8625
2167.48067	4197.4625
2170.43004	4194.9625
2173.37752	4217.4625
2176.32311	4191.5625
2179.26681	4202.3625
2182.20863	4206.5625
2185.14856	4204.6625
2188.08661	4198.9625
2191.02278	4209.3625
2193.95707	4178.1625
2196.88948	4174.2625
2199.82001	4180.7625
2202.74867	4155.3625
2205.67545	4172.0625
2208.60037	4162.3625
2211.52341	4166.3625
2214.44458	4148.4625
2217.36388	4146.1625
2220.28132	4114.7625
2223.1969	4101.2625
2226.11061	4111.7625
2229.02246	4095.0625
2231.93245	4089.8625
2234.84058	4063.2625
2237.74686	4060.0625
2240.65128	4062.5625
2243.55385	4053.2625
2246.45456	4037.4625
2249.35343	4049.7625
2252.25044	4027.3625
2255.14561	4026.8625
2258.03893	4033.1625
2260.93041	4021.5625
2263.82004	4018.0625
2266.70783	4008.3625
2269.59378	3976.1625
2272.4779	3980.8625
2275.36017	3979.8625
2278.24061	3964.4625
2281.11922	3939.1625
2283.996	3939.6625
2286.87094	3932.0625
2289.74405	3920.6625
2292.61534	3912.6625
2295.4848	3910.1625
2298.35243	3900.1625
2301.21824	3897.5625
2304.08223	3882.4625
2306.94439	3903.3625
2309.80474	3892.7625
2312.66327	3879.6625
2315.51999	3879.1625
2318.37489	3868.3625
2321.22797	3860.7625
2324.07925	3838.5625
2326.92871	3835.0625
2329.77637	3825.5625
2332.62222	3835.1625
2335.46626	3804.2625
2338.3085	3805.0625
2341.14893	3821.3625
2343.98756	3804.2625
2346.8244	3782.3625
2349.65943	3776.8625
2352.49267	3797.4625
2355.32411	3792.2625
2358.15376	3780.8625
2360.98161	3797.7625
2363.80768	3775.3625
2366.63195	3790.9625
2369.45444	3784.1625
2372.27514	3785.0625
2375.09405	3803.7625
2377.91118	3747.5625
2380.72652	3768.2625
2383.54009	3733.8625
2386.35187	3743.6625
2389.16188	3717.2625
2391.97011	3720.7625
2394.77657	3697.7625
2397.58125	3698.7625
2400.38416	3693.1625
2403.18529	3656.5625
2405.98466	3668.9625
2408.78226	3673.6625
2411.57809	3662.3625
2414.37216	3642.7625
2417.16446	3636.5625
2419.955	3625.2625
2422.74378	3639.5625
2425.5308	3610.8625
2428.31606	3629.8625
2431.09956	3639.3625
2433.88131	3617.5625
2436.6613	3614.6625
2439.43954	3606.6625
2442.21603	3601.3625
2444.99077	3593.5625
2447.76377	3610.0625
2450.53501	3613.7625
2453.30451	3587.2625
2456.07226	3597.6625
2458.83827	3567.3625
2461.60254	3540.0625
2464.36507	3578.1625
2467.12586	3541.6625
2469.88492	3551.7625
2472.64224	3566.1625
2475.39782	3541.3625
2478.15167	3545.7625
2480.90379	3539.3625
2483.65417	3571.6625
2486.40283	3565.2625
2489.14976	3580.1625
2491.89497	3553.1625
2494.63845	3547.9625
2497.3802	3542.0625
2500.12024	3538.0625
2502.85855	3535.7625
2505.59514	3531.4625
2508.33002	3516.4625
2511.06318	3496.9625
2513.79462	3506.9625
2516.52435	3466.7625
2519.25237	3445.7625
2521.97867	3450.9625
2524.70327	3452.6625
2527.42616	3459.5625
2530.14734	3466.3625
2532.86681	3433.1625
2535.58458	3439.8625
2538.30065	3427.8625
2541.01501	3448.2625
2543.72768	3432.7625
2546.43864	3421.4625
2549.14791	3406.2625
2551.85548	3404.9625
2554.56136	3392.3625
2557.26554	3382.0625
2559.96803	3391.9625
2562.66883	3384.0625
2565.36794	3353.7625
2568.06536	3322.7625
2570.7611	3357.7625
2573.45514	3347.5625
2576.14751	3350.6625
2578.83819	3329.4625
2581.52719	3298.7625
2584.21451	3319.3625
2586.90015	3297.0625
2589.58411	3278.8625
2592.2664	3288.6625
2594.94701	3292.9625
2597.62594	3300.3625
2600.30321	3223.7625
2602.9788	3245.1625
2605.65273	3242.0625
2608.32498	3250.6625
2610.99557	3259.0625
2613.66449	3227.6625
2616.33175	3239.6625
2618.99734	3237.7625
2621.66128	3244.5625
2624.32355	3230.4625
2626.98416	3197.8625
2629.64311	3201.5625
2632.30041	3203.4625
2634.95605	3179.3625
2637.61004	3157.0625
2640.26238	3148.0625
2642.91306	3157.6625
2645.56209	3176.7625
2648.20948	3169.2625
2650.85521	3150.4625
2653.4993	3178.9625
2656.14175	3158.4625
2658.78255	3143.3625
2661.42171	3118.3625
2664.05923	3158.9625
2666.6951	3171.4625
2669.32934	3170.0625
2671.96194	3161.3625
2674.59291	3148.1625
2677.22224	3164.4625
2679.84993	3163.1625
2682.476	3140.7625
2685.10043	3137.3625
2687.72324	3143.5625
2690.34441	3144.5625
2692.96396	3126.1625
2695.58188	3134.6625
2698.19818	3140.8625
2700.81285	3124.2625
2703.4259	3127.3625
2706.03733	3081.1625
2708.64714	3101.6625
2711.25533	3120.8625
2713.86191	3126.8625
2716.46687	3123.1625
2719.07021	3124.5625
2721.67194	3124.8625
2724.27206	3118.5625
2726.87057	3126.1625
2729.46747	3113.4625
2732.06276	3111.5625
2734.65644	3082.3625
2737.24852	3096.6625
2739.83899	3062.4625
2742.42786	3093.5625
2745.01513	3087.7625
2747.60079	3082.9625
2750.18486	3061.1625
2752.76733	3057.4625
2755.3482	3053.1625
2757.92747	3064.8625
2760.50515	3027.6625
2763.08123	3027.7625
2765.65573	3026.8625
2768.22863	3017.6625
2770.79994	3004.4625
2773.36967	3012.5625
2775.9378	3003.9625
2778.50435	3004.5625
2781.06932	2988.8625
2783.6327	2987.6625
2786.1945	3006.9625
2788.75471	2981.6625
2791.31335	2976.4625
2793.87041	2969.6625
2796.42589	2961.4625
2798.97979	2956.3625
2801.53212	2950.1625
2804.08288	2970.6625
2806.63206	2947.9625
2809.17967	2924.8625
2811.72571	2934.3625
2814.27018	2935.0625
2816.81308	2917.4625
2819.35442	2891.7625
2821.89419	2912.8625
2824.43239	2884.6625
2826.96904	2919.6625
2829.50412	2909.5625
2832.03763	2901.4625
2834.56959	2887.4625
2837.1	2887.7625
2839.62884	2887.3625
2842.15613	2874.0625
2844.68186	2891.1625
2847.20604	2859.0625
2849.72867	2863.2625
2852.24974	2866.5625
2854.76927	2828.4625
2857.28724	2778.2625
2859.80367	2846.7625
2862.31855	2853.4625
2864.83189	2836.6625
2867.34368	2854.1625
2869.85393	2845.2625
2872.36264	2828.9625
2874.8698	2826.0625
2877.37543	2835.1625
2879.87952	2835.9625
2882.38207	2799.6625
2884.88308	2808.3625
2887.38256	2817.4625
2889.88051	2815.1625
2892.37692	2801.1625
2894.8718	2784.6625
2897.36515	2812.3625
2899.85698	2790.3625
2902.34727	2793.2625
2904.83604	2802.1625
2907.32328	2809.4625
2909.809	2810.0625
2912.29319	2813.0625
2914.77587	2817.1625
2917.25702	2827.3625
2919.73665	2826.3625
2922.21476	2835.0625
2924.69136	2822.2625
2927.16644	2800.8625
2929.64	2808.3625
2932.11205	2789.1625
2934.58258	2807.7625
2937.05161	2784.9625
2939.51912	2784.0625
2941.98513	2801.3625
2944.44962	2783.1625
2946.91261	2752.9625
2949.37409	2759.2625
2951.83407	2761.0625
2954.29254	2771.6625
2956.74951	2749.0625
2959.20498	2739.1625
2961.65895	2731.3625
2964.11142	2713.5625
2966.56239	2740.0625
2969.01186	2729.0625
2971.45984	2728.1625
2973.90632	2701.4625
2976.35131	2723.5625
2978.7948	2717.1625
2981.23681	2715.9625
2983.67732	2703.6625
2986.11635	2693.3625
2988.55388	2662.3625
2990.98993	2668.9625
2993.4245	2656.7625
2995.85758	2657.3625
2998.28917	2635.4625
3000.71928	2637.7625
3003.14791	2626.3625
3005.57506	2631.8625
3008.00073	2608.1625
3010.42493	2555.3625
3012.84764	2612.2625
3015.26888	2611.8625
3017.68865	2593.5625
3020.10694	2557.1625
3022.52376	2566.0625
3024.9391	2565.5625
3027.35298	2561.6625
3029.76539	2549.8625
3032.17632	2545.9625
3034.5858	2536.5625
3036.9938	2538.6625
3039.40034	2523.8625
3041.80542	2518.2625
3044.20903	2506.6625
3046.61118	2507.8625
3049.01187	2511.7625
3051.4111	2500.4625
3053.80888	2484.2625
3056.20519	2483.5625
3058.60005	2464.6625
3060.99345	2490.2625
3063.3854	2463.8625
3065.7759	2454.5625
3068.16494	2440.9625
3070.55254	2448.0625
3072.93868	2455.7625
3075.32338	2435.0625
3077.70662	2426.2625
3080.08842	2426.9625
3082.46878	2401.9625
3084.84769	2424.9625
3087.22515	2407.5625
3089.60118	2411.1625
3091.97576	2390.1625
3094.3489	2407.0625
3096.72061	2392.8625
3099.09087	2372.1625
3101.4597	2407.9625
3103.82709	2391.2625
3106.19305	2373.1625
3108.55757	2380.3625
3110.92066	2366.3625
3113.28232	2367.7625
3115.64255	2375.9625
3118.00134	2363.7625
3120.35871	2345.4625
3122.71466	2325.6625
3125.06917	2338.8625
3127.42226	2331.5625
3129.77393	2310.6625
3132.12417	2333.1625
3134.47299	2325.2625
3136.82039	2293.3625
3139.16636	2294.6625
3141.51092	2304.1625
3143.85406	2310.6625
3146.19579	2291.9625
3148.53609	2298.8625
3150.87499	2295.6625
3153.21246	2289.5625
3155.54853	2292.4625
3157.88318	2298.1625
3160.21642	2285.2625
3162.54826	2289.5625
3164.87868	2294.9625
3167.2077	2252.2625
3169.5353	2273.0625
3171.86151	2286.6625
3174.18631	2268.2625
3176.5097	2268.1625
3178.83169	2264.6625
3181.15228	2267.4625
3183.47147	2233.1625
3185.78926	2227.3625
3188.10565	2241.7625
3190.42065	2210.1625
3192.73424	2222.8625
3195.04645	2212.5625
3197.35725	2203.8625
3199.66667	2212.8625
3201.97469	2207.9625
3204.28132	2193.5625
3206.58656	2206.3625
3208.8904	2210.8625
3211.19287	2198.5625
3213.49394	2198.3625
3215.79363	2188.9625
3218.09193	2206.1625
3220.38884	2201.9625
3222.68438	2201.9625
3224.97853	2166.7625
3227.2713	2192.1625
3229.56269	2178.7625
3231.8527	2178.6625
3234.14133	2162.8625
3236.42858	2155.7625
3238.71446	2142.8625
3240.99896	2158.3625
3243.28209	2146.4625
3245.56384	2145.4625
3247.84423	2125.3625
3250.12324	2138.6625
3252.40088	2138.3625
3254.67715	2133.1625
3256.95205	2108.5625
3259.22558	2140.3625
3261.49775	2125.2625
3263.76855	2115.6625
3266.03799	2126.5625
3268.30606	2127.1625
3270.57277	2114.2625
3272.83812	2103.7625
3275.10211	2095.2625
3277.36474	2108.4625
3279.62601	2102.7625
3281.88593	2079.3625
3284.14448	2064.8625
3286.40168	2078.9625
3288.65753	2076.3625
3290.91202	2070.3625
3293.16516	2055.6625
3295.41695	2086.4625
3297.66738	2080.0625
3299.91647	2043.6625
3302.16421	2051.6625
3304.4106	2012.4625
3306.65564	2036.3625
3308.89933	1993.9625
3311.14169	1982.3625
3313.38269	1980.1625
3315.62236	1949.9625
3317.86068	1952.8625
3320.09766	1945.3625
3322.3333	1906.8625
3324.5676	1899.3625
3326.80056	1869.7625
3329.03219	1863.3625
3331.26248	-0.2375
3333.49143	-0.5375
3335.71905	-0.3375
