Data from AgNPs_UA_5uM_CRN_500uM_SU_RamanShift__84__11-43-23-156.txt Node

Date: Thu Aug 04 11:43:23 BST 2022
User: TCL
Spectrometer: QEP01345
Trigger mode: 4
Integration Time (sec): 1.000000E0
Scans to average: 10
Electric dark correction enabled: true
Nonlinearity correction enabled: false
Boxcar width: 0
XAxis mode: Raman Shifts
Number of Pixels in Spectrum: 1044
>>>>>Begin Spectral Data<<<<<
46.04893	-0.4
50.45542	-0.7
54.85868	0.4
59.25871	-0.1
63.6555	-63.1
68.04907	-45.6
72.43941	-77.8
76.82654	-62.1
81.21044	-62.9
85.59113	-56.6
89.96862	-81.4
94.34289	-62.4
98.71396	-84.8
103.08183	-63.3
107.4465	-57
111.80798	-66
116.16626	-53.8
120.52136	-83.2
124.87327	-58.5
129.222	-74.9
133.56755	-61.7
137.90993	-78
142.24913	-63.9
146.58517	-60.5
150.91804	-60.5
155.24774	-56.2
159.57429	-42
163.89768	-50
168.21792	-22.9
172.53501	-27.2
176.84895	21.3
181.15975	103.9
185.46741	174.7
189.77193	258.3
194.07331	423.3
198.37157	565.3
202.6667	707.2
206.9587	870
211.24758	1029.8
215.53334	1188.3
219.81599	1346.9
224.09553	1548.9
228.37195	1753.4
232.64527	1965.7
236.91549	2191.9
241.18261	2388.2
245.44663	2586.4
249.70755	2736.4
253.96539	2867.9
258.22014	3018.6
262.4718	3112.4
266.72039	3174.4
270.96589	3186
275.20832	3156.6
279.44768	3131.8
283.68397	3052.9
287.91719	3013.2
292.14735	2989.6
296.37445	3023.8
300.59849	3093.2
304.81948	3156.6
309.03742	3245.8
313.25231	3334.9
317.46415	3349.5
321.67296	3220.9
325.87872	3095.9
330.08145	3044.8
334.28114	3050.8
338.47781	3090.9
342.67145	3158.9
346.86207	3252.1
351.04966	3397.9
355.23424	3544.6
359.4158	3640.4
363.59435	3631.3
367.76989	3599.1
371.94243	3591.8
376.11196	3572.8
380.27849	3573.4
384.44203	3568.5
388.60257	3576.6
392.76012	3596.9
396.91468	3663
401.06626	3730.9
405.21485	3746.5
409.36047	3716.9
413.50311	3645.4
417.64277	3593.4
421.77947	3544.9
425.9132	3541
430.04396	3547.9
434.17176	3565.8
438.2966	3628.2
442.41849	3652.6
446.53742	3707.9
450.6534	3740.7
454.76644	3779.3
458.87653	3790.4
462.98368	3799.7
467.08789	3781.3
471.18916	3790.1
475.2875	3779.5
479.38291	3788.5
483.4754	3762.4
487.56496	3768.6
491.6516	3786.6
495.73531	3777
499.81612	3780.5
503.89401	3848.4
507.96899	3851.4
512.04106	3876.2
516.11023	3914.7
520.1765	3959.8
524.23987	3969.4
528.30034	3980.2
532.35792	3953.6
536.41261	3980.8
540.46441	3958.6
544.51333	3943.9
548.55936	3976.6
552.60252	4028
556.64279	4046.1
560.6802	4115.2
564.71473	4178.9
568.7464	4261.8
572.7752	4254.5
576.80114	4150
580.82422	4076.2
584.84444	4038.3
588.86181	4037.1
592.87633	4069.4
596.888	4116.5
600.89682	4209.2
604.9028	4492.8
608.90594	5066.2
612.90624	5742.6
616.90371	5521.7
620.89834	4681.2
624.89015	4322.5
628.87913	4284.3
632.86528	4340.6
636.84862	4409.8
640.82913	4374.3
644.80683	4281.2
648.78172	4255.4
652.75379	4278.2
656.72306	4365.8
660.68952	4451
664.65319	4432
668.61405	4357.5
672.57211	4352.7
676.52738	4377.8
680.47986	4355.5
684.42955	4350.9
688.37646	4355.6
692.32058	4374.2
696.26192	4400.5
700.20048	4426.7
704.13626	4441.4
708.06928	4429.7
711.99952	4465.1
715.927	4447.4
719.85171	4491.2
723.77365	4516.3
727.69284	4505.1
731.60928	4497.3
735.52295	4501.3
739.43388	4532.6
743.34206	4540.5
747.24749	4570.2
751.15017	4573
755.05012	4590.4
758.94733	4710.6
762.8418	4940.2
766.73354	5295.9
770.62254	5497.1
774.50882	5447.3
778.39237	5344.7
782.27321	5162.8
786.15132	4943.6
790.02671	4785.3
793.89938	4666.3
797.76935	4658.8
801.6366	4630.8
805.50115	4642
809.36299	4629.4
813.22213	4666.6
817.07857	4670.2
820.93231	4669.1
824.78336	4695.8
828.63172	4723.7
832.47738	4691.4
836.32036	4729.4
840.16066	4734.2
843.99827	4742.9
847.8332	4718.4
851.66546	4733.7
855.49504	4725.3
859.32195	4757.9
863.1462	4761.5
866.96777	4767.3
870.78668	4766
874.60293	4790.9
878.41652	4804.5
882.22745	4830.4
886.03573	4854.5
889.84136	4828.6
893.64433	4865.4
897.44466	4868.7
901.24235	4875.1
905.0374	4886
908.8298	4851.8
912.61957	4833.9
916.40671	4803.4
920.19121	4836.6
923.97308	4879.8
927.75233	4881.5
931.52895	4904.4
935.30295	4942.6
939.07433	4886.5
942.84309	4827.2
946.60924	4829.9
950.37278	4820.7
954.13371	4822.6
957.89203	4819.8
961.64774	4829.1
965.40086	4821.9
969.15137	4792.8
972.89929	4852.2
976.64461	4836
980.38733	4849
984.12747	4823.1
987.86502	4834.4
991.59999	4845.9
995.33237	4880.8
999.06217	4902
1002.78939	4923.1
1006.51404	4966.6
1010.23611	4984.3
1013.95561	5012.4
1017.67255	5014
1021.38692	5004.7
1025.09872	4991.6
1028.80796	4955.2
1032.51465	4979.7
1036.21877	4969.3
1039.92035	4993
1043.61937	5000
1047.31584	5016.4
1051.00976	5061
1054.70114	5069.2
1058.38998	5058.9
1062.07627	5057.6
1065.76003	5077.8
1069.44126	5106.7
1073.11995	5123.4
1076.79611	5172.4
1080.46974	5247.3
1084.14085	5271.7
1087.80943	5324.2
1091.47549	5338.2
1095.13903	5300
1098.80005	5281.6
1102.45857	5265.4
1106.11456	5270.6
1109.76805	5211.9
1113.41903	5246.2
1117.06751	5278.1
1120.71348	5359
1124.35696	5474.6
1127.99793	5535
1131.63641	5508.4
1135.2724	5402.2
1138.90589	5309
1142.5369	5213.2
1146.16542	5209.6
1149.79145	5157
1153.415	5149.4
1157.03607	5143.1
1160.65467	5161.7
1164.27079	5219.1
1167.88443	5261.6
1171.49561	5386.4
1175.10432	5538.4
1178.71056	5761.4
1182.31434	5971.2
1185.91565	5991.5
1189.51451	5909
1193.11091	5828
1196.70485	5781.7
1200.29634	5696.7
1203.88538	5643.5
1207.47197	5521.2
1211.05612	5445.2
1214.63782	5351.2
1218.21708	5327.9
1221.79391	5299.9
1225.36829	5271.9
1228.94024	5277.7
1232.50976	5295.4
1236.07685	5289.1
1239.6415	5307.8
1243.20374	5319.9
1246.76355	5358.9
1250.32093	5411.7
1253.8759	5400.9
1257.42845	5470.3
1260.97859	5542.2
1264.52631	5637.7
1268.07163	5642.4
1271.61453	5672.7
1275.15503	5653.2
1278.69312	5642.1
1282.22882	5662
1285.76211	5723.4
1289.29301	5768.5
1292.82151	5844.3
1296.34761	5863.9
1299.87133	5965.5
1303.39266	6135
1306.9116	6413.5
1310.42815	6767.7
1313.94233	6959.4
1317.45412	6735.4
1320.96354	6404.5
1324.47058	6114.1
1327.97525	5891.7
1331.47754	5766.4
1334.97747	5722
1338.47502	5710
1341.97022	5830.1
1345.46305	6025.4
1348.95352	6284.3
1352.44163	6566.8
1355.92738	6800.7
1359.41078	7221.9
1362.89183	7661.7
1366.37053	7552
1369.84688	6827.8
1373.32088	6159.6
1376.79254	5840.1
1380.26186	5653.4
1383.72883	5543.9
1387.19347	5393.4
1390.65578	5284.9
1394.11575	5226.1
1397.57339	5211.1
1401.0287	5181
1404.48168	5164.5
1407.93234	5193.8
1411.38068	5168.4
1414.82669	5225.3
1418.27039	5251.8
1421.71177	5262.2
1425.15083	5219.9
1428.58758	5207.4
1432.02203	5220.7
1435.45416	5260.1
1438.88399	5222.5
1442.31151	5174.8
1445.73673	5181.7
1449.15965	5182
1452.58027	5161.5
1455.9986	5171.8
1459.41463	5155.7
1462.82837	5178.6
1466.23982	5224.9
1469.64898	5239.5
1473.05586	5256.4
1476.46045	5288.8
1479.86276	5296.7
1483.26279	5327.2
1486.66054	5403.5
1490.05602	5490.1
1493.44922	5641.5
1496.84016	5847.7
1500.22882	6174.6
1503.61521	6591.1
1506.99934	7055.6
1510.38121	7512
1513.76081	7656.8
1517.13816	7335.2
1520.51324	6715.2
1523.88607	6221.7
1527.25665	5878.9
1530.62498	5680.5
1533.99105	5575.8
1537.35488	5522.4
1540.71647	5488.8
1544.07581	5483.9
1547.4329	5476.2
1550.78776	5494.8
1554.14038	5500.5
1557.49077	5530.7
1560.83892	5595.1
1564.18484	5683.8
1567.52853	5796.7
1570.86999	5867.5
1574.20922	5909.8
1577.54624	5848.5
1580.88103	5729.4
1584.2136	5530
1587.54395	5476.6
1590.87208	5460
1594.19801	5480.5
1597.52172	5559.9
1600.84321	5617.7
1604.16251	5536.2
1607.47959	5465.8
1610.79447	5412.3
1614.10715	5352.5
1617.41763	5308.7
1620.7259	5265.6
1624.03199	5225.6
1627.33587	5213.4
1630.63757	5221.4
1633.93707	5304.1
1637.23439	5399.5
1640.52951	5598.5
1643.82246	5874.2
1647.11321	6234.8
1650.40179	6468.6
1653.68819	6397.1
1656.97241	6056.2
1660.25446	5633.9
1663.53433	5368.3
1666.81203	5174.3
1670.08756	5105.2
1673.36092	5092.3
1676.63211	5035.8
1679.90115	5022
1683.16801	5003.5
1686.43272	4941.7
1689.69527	4953.1
1692.95567	4923.2
1696.2139	4928.5
1699.46999	4887.7
1702.72392	4905.4
1705.97571	4922.1
1709.22535	4907.3
1712.47284	4966.7
1715.71819	4974.4
1718.96139	4968.6
1722.20246	4964.5
1725.44139	4965.3
1728.67818	4974.8
1731.91284	4939.9
1735.14537	4928
1738.37576	4913.2
1741.60403	4930.1
1744.83017	4887.7
1748.05418	4906
1751.27607	4920.4
1754.49584	4884.4
1757.71349	4863.9
1760.92903	4864.6
1764.14244	4834.7
1767.35375	4838
1770.56294	4841.2
1773.77002	4820.5
1776.97499	4882
1780.17785	4838.5
1783.37861	4865.4
1786.57727	4883.6
1789.77382	4801.3
1792.96828	4859.4
1796.16064	4858.4
1799.3509	4853.5
1802.53907	4862.8
1805.72514	4828.4
1808.90913	4827.8
1812.09102	4812.9
1815.27083	4820.5
1818.44856	4810.2
1821.6242	4806.9
1824.79776	4826.2
1827.96924	4808
1831.13864	4768.1
1834.30597	4779.1
1837.47122	4774.8
1840.6344	4772.6
1843.7955	4762.8
1846.95454	4764.3
1850.11151	4781.6
1853.26642	4744.5
1856.41926	4755.6
1859.57004	4752.1
1862.71876	4750.1
1865.86542	4764.9
1869.01003	4766.6
1872.15258	4732.9
1875.29308	4745.8
1878.43152	4759.1
1881.56792	4737.5
1884.70227	4724.1
1887.83457	4709.2
1890.96482	4709.2
1894.09304	4703.6
1897.21921	4706.9
1900.34335	4691.9
1903.46544	4673.9
1906.58551	4697.3
1909.70353	4706.1
1912.81953	4696
1915.93349	4686
1919.04543	4689.9
1922.15534	4665
1925.26322	4659.8
1928.36908	4645.9
1931.47292	4654.1
1934.57473	4660.9
1937.67453	4631.8
1940.77232	4609.3
1943.86808	4611.2
1946.96184	4607.7
1950.05358	4585.3
1953.14331	4552.5
1956.23103	4584.6
1959.31675	4538
1962.40046	4501.4
1965.48217	4519
1968.56188	4517.6
1971.63959	4491.3
1974.7153	4488.5
1977.78901	4476
1980.86073	4467
1983.93046	4428.2
1986.99819	4372.7
1990.06394	4387.7
1993.1277	4438.4
1996.18947	4404.1
1999.24925	4368.8
2002.30706	4384.9
2005.36288	4362.6
2008.41672	4375.1
2011.46859	4319
2014.51848	4324.3
2017.56639	4308.5
2020.61233	4296.7
2023.6563	4291.5
2026.6983	4271.2
2029.73833	4258.4
2032.7764	4271.5
2035.8125	4220.8
2038.84664	4241
2041.87881	4224.2
2044.90903	4245.9
2047.93729	4222.6
2050.96359	4196.9
2053.98794	4205.1
2057.01034	4223.2
2060.03078	4193.9
2063.04927	4196
2066.06582	4199.6
2069.08042	4180.8
2072.09307	4205.3
2075.10378	4190.5
2078.11255	4183.8
2081.11938	4174.9
2084.12426	4177.2
2087.12722	4178.1
2090.12824	4178.4
2093.12732	4188.9
2096.12447	4189.5
2099.11969	4197.1
2102.11299	4197.9
2105.10435	4198.3
2108.09379	4187.8
2111.08131	4190
2114.0669	4171.9
2117.05057	4194.6
2120.03233	4166.7
2123.01216	4192.3
2125.99008	4207.2
2128.96609	4206.7
2131.94018	4217.7
2134.91236	4207.7
2137.88263	4211.2
2140.851	4206
2143.81746	4243.1
2146.78201	4228.2
2149.74466	4219.4
2152.7054	4246.9
2155.66425	4238.4
2158.6212	4217.6
2161.57625	4191.8
2164.52941	4190
2167.48067	4206
2170.43004	4199.1
2173.37752	4217
2176.32311	4211.5
2179.26681	4199.1
2182.20863	4208.4
2185.14856	4215.7
2188.08661	4198.5
2191.02278	4229.1
2193.95707	4208.2
2196.88948	4179.6
2199.82001	4205.3
2202.74867	4199
2205.67545	4203.5
2208.60037	4201.4
2211.52341	4195.3
2214.44458	4183.7
2217.36388	4162.8
2220.28132	4143.5
2223.1969	4133.8
2226.11061	4139.6
2229.02246	4139.2
2231.93245	4151.2
2234.84058	4119.9
2237.74686	4117.8
2240.65128	4089.2
2243.55385	4097.6
2246.45456	4079.3
2249.35343	4091.9
2252.25044	4076.1
2255.14561	4094.3
2258.03893	4085.3
2260.93041	4065.3
2263.82004	4062
2266.70783	4067.3
2269.59378	4032
2272.4779	4028.1
2275.36017	4023.9
2278.24061	3999.6
2281.11922	3977
2283.996	3975.9
2286.87094	3980.7
2289.74405	3973.2
2292.61534	3979
2295.4848	3976.5
2298.35243	3982.9
2301.21824	3966.5
2304.08223	3957.3
2306.94439	3984.9
2309.80474	3983
2312.66327	3975.4
2315.51999	3950.9
2318.37489	3956.6
2321.22797	3927.5
2324.07925	3920.8
2326.92871	3903.8
2329.77637	3908.2
2332.62222	3900.5
2335.46626	3862.8
2338.3085	3874.4
2341.14893	3896.4
2343.98756	3903.6
2346.8244	3873.7
2349.65943	3855.5
2352.49267	3855
2355.32411	3872.5
2358.15376	3850.6
2360.98161	3852.3
2363.80768	3835.2
2366.63195	3838.2
2369.45444	3846.7
2372.27514	3823.5
2375.09405	3844
2377.91118	3822.3
2380.72652	3802.2
2383.54009	3815.9
2386.35187	3824.4
2389.16188	3797.6
2391.97011	3801.4
2394.77657	3789.4
2397.58125	3784.2
2400.38416	3778.1
2403.18529	3770.5
2405.98466	3759.7
2408.78226	3762.5
2411.57809	3745
2414.37216	3728.8
2417.16446	3746.5
2419.955	3712.9
2422.74378	3728.6
2425.5308	3719.4
2428.31606	3734.6
2431.09956	3711.3
2433.88131	3681.5
2436.6613	3712.2
2439.43954	3680.4
2442.21603	3680.7
2444.99077	3678.6
2447.76377	3699
2450.53501	3675.4
2453.30451	3661.5
2456.07226	3673.7
2458.83827	3661.4
2461.60254	3628.9
2464.36507	3650.6
2467.12586	3618.9
2469.88492	3632
2472.64224	3647.9
2475.39782	3619.2
2478.15167	3622.2
2480.90379	3609.7
2483.65417	3628.6
2486.40283	3621.2
2489.14976	3622.8
2491.89497	3606.2
2494.63845	3603.9
2497.3802	3572
2500.12024	3584.5
2502.85855	3582.6
2505.59514	3583.4
2508.33002	3580.8
2511.06318	3560.2
2513.79462	3573.9
2516.52435	3540.1
2519.25237	3533.7
2521.97867	3531.1
2524.70327	3540.9
2527.42616	3520.3
2530.14734	3543.9
2532.86681	3514.9
2535.58458	3523.7
2538.30065	3509.4
2541.01501	3528
2543.72768	3495.4
2546.43864	3504.9
2549.14791	3488.6
2551.85548	3479.5
2554.56136	3473.4
2557.26554	3484.1
2559.96803	3456.2
2562.66883	3459.3
2565.36794	3436.7
2568.06536	3397.9
2570.7611	3436.4
2573.45514	3422.3
2576.14751	3420.5
2578.83819	3396.6
2581.52719	3398.4
2584.21451	3401.1
2586.90015	3381.6
2589.58411	3353
2592.2664	3373.3
2594.94701	3366.7
2597.62594	3370.6
2600.30321	3311.4
2602.9788	3319.4
2605.65273	3318.9
2608.32498	3312.5
2610.99557	3339.2
2613.66449	3302.2
2616.33175	3315.3
2618.99734	3301.6
2621.66128	3318.2
2624.32355	3297.5
2626.98416	3291.5
2629.64311	3280.1
2632.30041	3276
2634.95605	3258
2637.61004	3245.7
2640.26238	3239.4
2642.91306	3232
2645.56209	3272.7
2648.20948	3266.9
2650.85521	3229.9
2653.4993	3251.9
2656.14175	3234
2658.78255	3226.8
2661.42171	3192.1
2664.05923	3222.6
2666.6951	3230.2
2669.32934	3241.4
2671.96194	3241.8
2674.59291	3222.3
2677.22224	3218
2679.84993	3224.3
2682.476	3211.3
2685.10043	3219.9
2687.72324	3204.3
2690.34441	3197.9
2692.96396	3188
2695.58188	3217.5
2698.19818	3219
2700.81285	3198.7
2703.4259	3189.9
2706.03733	3157.5
2708.64714	3159.3
2711.25533	3190.8
2713.86191	3191
2716.46687	3188.5
2719.07021	3180.9
2721.67194	3187.2
2724.27206	3196.9
2726.87057	3172.5
2729.46747	3169.7
2732.06276	3180.1
2734.65644	3156.4
2737.24852	3165.4
2739.83899	3151.8
2742.42786	3165.7
2745.01513	3178.3
2747.60079	3136.9
2750.18486	3141.1
2752.76733	3147.8
2755.3482	3130.9
2757.92747	3140.8
2760.50515	3104
2763.08123	3115.3
2765.65573	3106.7
2768.22863	3100.5
2770.79994	3084
2773.36967	3087.1
2775.9378	3072.1
2778.50435	3065.3
2781.06932	3067.1
2783.6327	3057.9
2786.1945	3070.6
2788.75471	3050.1
2791.31335	3053.2
2793.87041	3051.4
2796.42589	3004
2798.97979	3012.7
2801.53212	3016.2
2804.08288	3030.9
2806.63206	3008
2809.17967	2976.6
2811.72571	3001.9
2814.27018	2984.5
2816.81308	2963.4
2819.35442	2929.4
2821.89419	2952.4
2824.43239	2934
2826.96904	2963.3
2829.50412	2941.7
2832.03763	2939.4
2834.56959	2935.9
2837.1	2941.4
2839.62884	2942
2842.15613	2935.6
2844.68186	2939.9
2847.20604	2912.1
2849.72867	2892.8
2852.24974	2903.2
2854.76927	2881.9
2857.28724	2824.7
2859.80367	2890.5
2862.31855	2888.1
2864.83189	2871.4
2867.34368	2870.9
2869.85393	2877.8
2872.36264	2847.3
2874.8698	2859.3
2877.37543	2860.5
2879.87952	2850.9
2882.38207	2839.6
2884.88308	2844.2
2887.38256	2849.3
2889.88051	2850.9
2892.37692	2842.6
2894.8718	2825.9
2897.36515	2845.4
2899.85698	2823.2
2902.34727	2827
2904.83604	2841.3
2907.32328	2835.4
2909.809	2829.4
2912.29319	2822.3
2914.77587	2827.8
2917.25702	2851.2
2919.73665	2835.9
2922.21476	2833.1
2924.69136	2831.1
2927.16644	2822.9
2929.64	2828.4
2932.11205	2807.2
2934.58258	2822.6
2937.05161	2804.1
2939.51912	2802.6
2941.98513	2826.7
2944.44962	2808.1
2946.91261	2781.1
2949.37409	2800
2951.83407	2780.6
2954.29254	2800.2
2956.74951	2789.8
2959.20498	2783.4
2961.65895	2796.8
2964.11142	2771
2966.56239	2783.1
2969.01186	2790.6
2971.45984	2787
2973.90632	2776.7
2976.35131	2787.1
2978.7948	2783.1
2981.23681	2766.7
2983.67732	2767.9
2986.11635	2762.4
2988.55388	2738
2990.98993	2749.2
2993.4245	2730.4
2995.85758	2725.6
2998.28917	2727.2
3000.71928	2714
3003.14791	2706.5
3005.57506	2698.2
3008.00073	2684.2
3010.42493	2634.1
3012.84764	2691.5
3015.26888	2696.5
3017.68865	2678.7
3020.10694	2640.2
3022.52376	2656
3024.9391	2661.9
3027.35298	2650.8
3029.76539	2636.9
3032.17632	2640.2
3034.5858	2626.2
3036.9938	2654.3
3039.40034	2629.3
3041.80542	2622.2
3044.20903	2619
3046.61118	2623.1
3049.01187	2630.3
3051.4111	2601.4
3053.80888	2606.1
3056.20519	2589.3
3058.60005	2574.7
3060.99345	2606.4
3063.3854	2563.7
3065.7759	2551.3
3068.16494	2550.4
3070.55254	2540.8
3072.93868	2553.3
3075.32338	2557.8
3077.70662	2544.6
3080.08842	2530.6
3082.46878	2517.4
3084.84769	2539.8
3087.22515	2522.1
3089.60118	2536.6
3091.97576	2523.1
3094.3489	2533
3096.72061	2537.6
3099.09087	2512.8
3101.4597	2516.5
3103.82709	2518.4
3106.19305	2496.3
3108.55757	2522.5
3110.92066	2504.6
3113.28232	2512.4
3115.64255	2507.5
3118.00134	2507
3120.35871	2484.2
3122.71466	2466.8
3125.06917	2479.4
3127.42226	2470.4
3129.77393	2445.9
3132.12417	2469.3
3134.47299	2469.2
3136.82039	2442.3
3139.16636	2430.7
3141.51092	2444
3143.85406	2458.9
3146.19579	2426.2
3148.53609	2444
3150.87499	2442
3153.21246	2435.5
3155.54853	2444.3
3157.88318	2445
3160.21642	2443.8
3162.54826	2444.6
3164.87868	2449
3167.2077	2407.8
3169.5353	2433.1
3171.86151	2445.2
3174.18631	2433.3
3176.5097	2426.9
3178.83169	2424.8
3181.15228	2439.7
3183.47147	2407.8
3185.78926	2388.7
3188.10565	2400.1
3190.42065	2384.5
3192.73424	2412.4
3195.04645	2386.6
3197.35725	2376.6
3199.66667	2384.5
3201.97469	2378.8
3204.28132	2369.6
3206.58656	2392.1
3208.8904	2381.8
3211.19287	2382.7
3213.49394	2374
3215.79363	2369.3
3218.09193	2386.3
3220.38884	2374.8
3222.68438	2380.2
3224.97853	2340.6
3227.2713	2378
3229.56269	2358.6
3231.8527	2364.9
3234.14133	2349.9
3236.42858	2341.9
3238.71446	2324.3
3240.99896	2338.4
3243.28209	2324.9
3245.56384	2334.3
3247.84423	2326
3250.12324	2325.8
3252.40088	2323.3
3254.67715	2302.3
3256.95205	2311.1
3259.22558	2313.9
3261.49775	2318.6
3263.76855	2311.1
3266.03799	2317.7
3268.30606	2316.1
3270.57277	2308.3
3272.83812	2286.9
3275.10211	2290.9
3277.36474	2303.8
3279.62601	2294.6
3281.88593	2266.4
3284.14448	2247
3286.40168	2273.8
3288.65753	2255.5
3290.91202	2263.3
3293.16516	2233.6
3295.41695	2261
3297.66738	2263.4
3299.91647	2230.2
3302.16421	2223.8
3304.4106	2186.5
3306.65564	2203.2
3308.89933	2162.4
3311.14169	2160.5
3313.38269	2147.1
3315.62236	2121.6
3317.86068	2107.4
3320.09766	2105.9
3322.3333	2080.5
3324.5676	2065.1
3326.80056	2041.3
3329.03219	2015.5
3331.26248	-0.5
3333.49143	-0.2
3335.71905	1.2
