Data from AgNPs_UA_5uM_CRN_500uM_SU_RamanShift__219__12-05-53-183.txt Node

Date: Thu Aug 04 12:05:53 BST 2022
User: TCL
Spectrometer: QEP01345
Trigger mode: 4
Integration Time (sec): 1.000000E0
Scans to average: 10
Electric dark correction enabled: true
Nonlinearity correction enabled: false
Boxcar width: 0
XAxis mode: Raman Shifts
Number of Pixels in Spectrum: 1044
>>>>>Begin Spectral Data<<<<<
46.04893	0.7625
50.45542	-0.3375
54.85868	0.2625
59.25871	-1.3375
63.6555	-59.5375
68.04907	-40.0375
72.43941	-72.1375
76.82654	-58.2375
81.21044	-55.4375
85.59113	-51.0375
89.96862	-74.5375
94.34289	-55.6375
98.71396	-77.8375
103.08183	-57.0375
107.4465	-49.1375
111.80798	-56.6375
116.16626	-44.9375
120.52136	-75.0375
124.87327	-50.3375
129.222	-60.8375
133.56755	-50.7375
137.90993	-62.5375
142.24913	-50.7375
146.58517	-44.6375
150.91804	-40.3375
155.24774	-29.1375
159.57429	-9.2375
163.89768	-5.0375
168.21792	40.5625
172.53501	57.1625
176.84895	141.3625
181.15975	269.2625
185.46741	421.6625
189.77193	609.8625
194.07331	898.0625
198.37157	1185.6625
202.6667	1470.9625
206.9587	1794.8625
211.24758	2113.7625
215.53334	2429.5625
219.81599	2791.9625
224.09553	3203.2625
228.37195	3643.4625
232.64527	4106.1625
236.91549	4585.5625
241.18261	4935.5625
245.44663	5210.1625
249.70755	5385.1625
253.96539	5511.3625
258.22014	5621.6625
262.4718	5682.1625
266.72039	5731.9625
270.96589	5725.1625
275.20832	5610.7625
279.44768	5505.5625
283.68397	5374.0625
287.91719	5314.4625
292.14735	5353.6625
296.37445	5541.9625
300.59849	5826.0625
304.81948	6193.5625
309.03742	6564.3625
313.25231	6794.7625
317.46415	6745.5625
321.67296	6375.0625
325.87872	5946.1625
330.08145	5744.9625
334.28114	5697.1625
338.47781	5758.1625
342.67145	5911.8625
346.86207	6135.3625
351.04966	6507.1625
355.23424	6911.2625
359.4158	7198.8625
363.59435	7212.6625
367.76989	7137.5625
371.94243	7014.8625
376.11196	6887.5625
380.27849	6817.2625
384.44203	6729.2625
388.60257	6698.4625
392.76012	6715.4625
396.91468	6832.7625
401.06626	6970.4625
405.21485	7023.5625
409.36047	6851.1625
413.50311	6524.9625
417.64277	6241.0625
421.77947	6004.4625
425.9132	5945.7625
430.04396	5946.8625
434.17176	5979.6625
438.2966	6058.3625
442.41849	6144.5625
446.53742	6265.9625
450.6534	6370.9625
454.76644	6474.1625
458.87653	6469.4625
462.98368	6428.3625
467.08789	6344.6625
471.18916	6272.7625
475.2875	6157.6625
479.38291	6031.6625
483.4754	5921.1625
487.56496	5870.3625
491.6516	5849.3625
495.73531	5862.2625
499.81612	5888.4625
503.89401	5986.4625
507.96899	6032.2625
512.04106	6121.6625
516.11023	6223.4625
520.1765	6329.7625
524.23987	6348.1625
528.30034	6332.8625
532.35792	6266.7625
536.41261	6185.6625
540.46441	6091.4625
544.51333	6041.7625
548.55936	6094.6625
552.60252	6211.3625
556.64279	6327.1625
560.6802	6438.6625
564.71473	6588.4625
568.7464	6779.8625
572.7752	6784.3625
576.80114	6444.6625
580.82422	6215.0625
584.84444	6125.4625
588.86181	6086.8625
592.87633	6119.9625
596.888	6248.8625
600.89682	6631.3625
604.9028	7588.9625
608.90594	9745.0625
612.90624	12117.7625
616.90371	11255.9625
620.89834	8114.1625
624.89015	6737.2625
628.87913	6550.3625
632.86528	6690.5625
636.84862	6859.3625
640.82913	6724.4625
644.80683	6379.8625
648.78172	6199.0625
652.75379	6205.1625
656.72306	6467.3625
660.68952	6698.6625
664.65319	6610.3625
668.61405	6364.3625
672.57211	6302.1625
676.52738	6290.2625
680.47986	6208.1625
684.42955	6103.9625
688.37646	6069.8625
692.32058	6055.5625
696.26192	6135.9625
700.20048	6220.6625
704.13626	6285.5625
708.06928	6209.4625
711.99952	6207.5625
715.927	6172.3625
719.85171	6198.5625
723.77365	6272.9625
727.69284	6227.2625
731.60928	6220.7625
735.52295	6180.4625
739.43388	6244.6625
743.34206	6256.0625
747.24749	6284.0625
751.15017	6281.7625
755.05012	6352.0625
758.94733	6744.6625
762.8418	7610.4625
766.73354	8946.6625
770.62254	10007.6625
774.50882	10085.0625
778.39237	9558.8625
782.27321	8618.7625
786.15132	7526.4625
790.02671	6836.3625
793.89938	6454.2625
797.76935	6311.5625
801.6366	6245.2625
805.50115	6159.7625
809.36299	6173.2625
813.22213	6169.2625
817.07857	6169.9625
820.93231	6159.8625
824.78336	6197.5625
828.63172	6232.5625
832.47738	6203.5625
836.32036	6219.8625
840.16066	6173.6625
843.99827	6160.8625
847.8332	6169.4625
851.66546	6183.9625
855.49504	6173.3625
859.32195	6202.3625
863.1462	6186.6625
866.96777	6209.1625
870.78668	6182.4625
874.60293	6197.8625
878.41652	6222.9625
882.22745	6296.5625
886.03573	6330.8625
889.84136	6326.4625
893.64433	6337.6625
897.44466	6316.2625
901.24235	6321.7625
905.0374	6334.0625
908.8298	6242.0625
912.61957	6219.7625
916.40671	6175.3625
920.19121	6215.3625
923.97308	6319.4625
927.75233	6384.3625
931.52895	6435.0625
935.30295	6423.7625
939.07433	6256.1625
942.84309	6141.5625
946.60924	6107.6625
950.37278	6076.9625
954.13371	6083.5625
957.89203	6062.0625
961.64774	6097.2625
965.40086	6063.9625
969.15137	6045.5625
972.89929	6068.8625
976.64461	6052.7625
980.38733	6090.4625
984.12747	6092.8625
987.86502	6091.3625
991.59999	6119.0625
995.33237	6185.7625
999.06217	6257.3625
1002.78939	6348.4625
1006.51404	6490.6625
1010.23611	6585.0625
1013.95561	6642.1625
1017.67255	6641.5625
1021.38692	6607.4625
1025.09872	6548.3625
1028.80796	6471.1625
1032.51465	6474.8625
1036.21877	6451.2625
1039.92035	6507.9625
1043.61937	6530.9625
1047.31584	6593.9625
1051.00976	6631.8625
1054.70114	6623.9625
1058.38998	6617.0625
1062.07627	6638.0625
1065.76003	6678.1625
1069.44126	6750.6625
1073.11995	6826.7625
1076.79611	6949.7625
1080.46974	7124.6625
1084.14085	7273.9625
1087.80943	7406.8625
1091.47549	7428.8625
1095.13903	7348.6625
1098.80005	7230.6625
1102.45857	7135.5625
1106.11456	7069.1625
1109.76805	7035.6625
1113.41903	7176.6625
1117.06751	7326.4625
1120.71348	7601.1625
1124.35696	7994.6625
1127.99793	8273.4625
1131.63641	8093.5625
1135.2724	7697.8625
1138.90589	7408.3625
1142.5369	7183.3625
1146.16542	7077.4625
1149.79145	6971.8625
1153.415	6935.0625
1157.03607	6935.6625
1160.65467	7042.6625
1164.27079	7248.7625
1167.88443	7496.7625
1171.49561	7928.6625
1175.10432	8546.6625
1178.71056	9503.0625
1182.31434	10289.9625
1185.91565	10546.9625
1189.51451	10389.7625
1193.11091	10139.6625
1196.70485	9876.2625
1200.29634	9637.0625
1203.88538	9346.8625
1207.47197	8909.2625
1211.05612	8409.6625
1214.63782	7992.0625
1218.21708	7745.5625
1221.79391	7597.8625
1225.36829	7489.6625
1228.94024	7501.3625
1232.50976	7510.2625
1236.07685	7558.6625
1239.6415	7572.8625
1243.20374	7573.9625
1246.76355	7622.5625
1250.32093	7683.5625
1253.8759	7771.6625
1257.42845	7956.6625
1260.97859	8168.8625
1264.52631	8393.7625
1268.07163	8546.9625
1271.61453	8689.8625
1275.15503	8731.7625
1278.69312	8746.5625
1282.22882	8793.1625
1285.76211	9017.2625
1289.29301	9264.3625
1292.82151	9538.9625
1296.34761	9761.9625
1299.87133	10168.6625
1303.39266	10893.0625
1306.9116	12058.9625
1310.42815	13314.2625
1313.94233	13760.4625
1317.45412	12962.8625
1320.96354	11800.2625
1324.47058	10754.7625
1327.97525	10023.6625
1331.47754	9576.5625
1334.97747	9454.0625
1338.47502	9594.6625
1341.97022	9980.8625
1345.46305	10706.4625
1348.95352	11820.3625
1352.44163	13135.8625
1355.92738	14544.2625
1359.41078	16225.3625
1362.89183	17796.9625
1366.37053	17134.6625
1369.84688	14214.7625
1373.32088	11473.6625
1376.79254	10042.1625
1380.26186	9343.2625
1383.72883	8947.0625
1387.19347	8520.6625
1390.65578	8156.0625
1394.11575	7919.2625
1397.57339	7746.2625
1401.0287	7632.6625
1404.48168	7599.3625
1407.93234	7616.9625
1411.38068	7622.6625
1414.82669	7720.4625
1418.27039	7782.5625
1421.71177	7791.7625
1425.15083	7692.3625
1428.58758	7593.5625
1432.02203	7634.8625
1435.45416	7715.5625
1438.88399	7699.3625
1442.31151	7703.9625
1445.73673	7772.8625
1449.15965	7823.1625
1452.58027	7813.0625
1455.9986	7814.6625
1459.41463	7856.0625
1462.82837	7920.3625
1466.23982	8122.6625
1469.64898	8346.4625
1473.05586	8486.5625
1476.46045	8596.9625
1479.86276	8669.0625
1483.26279	8790.1625
1486.66054	8967.4625
1490.05602	9266.4625
1493.44922	9823.7625
1496.84016	10726.1625
1500.22882	12086.3625
1503.61521	13889.2625
1506.99934	15725.2625
1510.38121	16941.6625
1513.76081	16823.8625
1517.13816	15196.4625
1520.51324	13001.4625
1523.88607	11274.6625
1527.25665	10259.7625
1530.62498	9755.3625
1533.99105	9543.6625
1537.35488	9422.1625
1540.71647	9303.6625
1544.07581	9152.5625
1547.4329	9028.0625
1550.78776	8928.3625
1554.14038	8822.9625
1557.49077	8787.5625
1560.83892	8889.0625
1564.18484	9112.1625
1567.52853	9483.0625
1570.86999	9805.7625
1574.20922	9952.1625
1577.54624	9821.7625
1580.88103	9317.9625
1584.2136	8623.0625
1587.54395	8242.8625
1590.87208	8151.0625
1594.19801	8318.0625
1597.52172	8679.8625
1600.84321	8831.2625
1604.16251	8701.7625
1607.47959	8473.7625
1610.79447	8284.0625
1614.10715	8005.1625
1617.41763	7709.8625
1620.7259	7429.9625
1624.03199	7285.8625
1627.33587	7195.9625
1630.63757	7247.9625
1633.93707	7468.7625
1637.23439	7891.8625
1640.52951	8605.7625
1643.82246	9595.4625
1647.11321	10789.8625
1650.40179	11518.1625
1653.68819	11201.2625
1656.97241	9915.6625
1660.25446	8507.9625
1663.53433	7485.9625
1666.81203	6862.6625
1670.08756	6533.5625
1673.36092	6352.8625
1676.63211	6188.1625
1679.90115	6120.9625
1683.16801	6024.4625
1686.43272	5943.2625
1689.69527	5888.5625
1692.95567	5826.3625
1696.2139	5801.4625
1699.46999	5749.3625
1702.72392	5752.4625
1705.97571	5762.3625
1709.22535	5730.4625
1712.47284	5775.2625
1715.71819	5790.5625
1718.96139	5775.0625
1722.20246	5750.4625
1725.44139	5731.6625
1728.67818	5706.9625
1731.91284	5650.1625
1735.14537	5638.8625
1738.37576	5588.3625
1741.60403	5562.1625
1744.83017	5548.8625
1748.05418	5554.1625
1751.27607	5548.7625
1754.49584	5514.8625
1757.71349	5465.9625
1760.92903	5496.9625
1764.14244	5437.1625
1767.35375	5440.6625
1770.56294	5422.7625
1773.77002	5408.3625
1776.97499	5415.1625
1780.17785	5382.8625
1783.37861	5375.9625
1786.57727	5402.9625
1789.77382	5346.9625
1792.96828	5356.0625
1796.16064	5355.3625
1799.3509	5340.5625
1802.53907	5369.3625
1805.72514	5328.0625
1808.90913	5297.7625
1812.09102	5285.4625
1815.27083	5293.0625
1818.44856	5268.7625
1821.6242	5262.1625
1824.79776	5241.9625
1827.96924	5235.9625
1831.13864	5207.0625
1834.30597	5224.5625
1837.47122	5207.3625
1840.6344	5192.2625
1843.7955	5182.8625
1846.95454	5177.0625
1850.11151	5185.0625
1853.26642	5149.7625
1856.41926	5169.0625
1859.57004	5156.2625
1862.71876	5139.4625
1865.86542	5149.9625
1869.01003	5140.6625
1872.15258	5113.2625
1875.29308	5112.9625
1878.43152	5133.8625
1881.56792	5105.7625
1884.70227	5078.6625
1887.83457	5102.7625
1890.96482	5069.0625
1894.09304	5064.4625
1897.21921	5073.6625
1900.34335	5063.2625
1903.46544	5042.1625
1906.58551	5054.3625
1909.70353	5034.3625
1912.81953	5038.8625
1915.93349	5022.0625
1919.04543	5018.3625
1922.15534	5015.3625
1925.26322	4998.5625
1928.36908	4976.5625
1931.47292	4969.9625
1934.57473	4977.4625
1937.67453	4958.6625
1940.77232	4935.1625
1943.86808	4915.3625
1946.96184	4924.0625
1950.05358	4892.7625
1953.14331	4876.5625
1956.23103	4883.3625
1959.31675	4858.0625
1962.40046	4788.5625
1965.48217	4831.6625
1968.56188	4810.6625
1971.63959	4804.2625
1974.7153	4789.3625
1977.78901	4774.3625
1980.86073	4772.1625
1983.93046	4716.9625
1986.99819	4640.8625
1990.06394	4678.6625
1993.1277	4689.3625
1996.18947	4658.7625
1999.24925	4626.9625
2002.30706	4618.2625
2005.36288	4623.8625
2008.41672	4600.6625
2011.46859	4572.0625
2014.51848	4560.9625
2017.56639	4544.3625
2020.61233	4527.8625
2023.6563	4535.2625
2026.6983	4483.6625
2029.73833	4487.4625
2032.7764	4485.6625
2035.8125	4450.0625
2038.84664	4445.5625
2041.87881	4426.1625
2044.90903	4452.2625
2047.93729	4422.3625
2050.96359	4402.7625
2053.98794	4412.4625
2057.01034	4428.2625
2060.03078	4375.9625
2063.04927	4388.9625
2066.06582	4393.9625
2069.08042	4376.2625
2072.09307	4380.7625
2075.10378	4369.9625
2078.11255	4366.6625
2081.11938	4373.6625
2084.12426	4367.0625
2087.12722	4357.9625
2090.12824	4358.6625
2093.12732	4359.7625
2096.12447	4357.0625
2099.11969	4354.1625
2102.11299	4339.8625
2105.10435	4377.5625
2108.09379	4356.0625
2111.08131	4353.4625
2114.0669	4361.6625
2117.05057	4368.2625
2120.03233	4354.8625
2123.01216	4354.5625
2125.99008	4362.1625
2128.96609	4355.3625
2131.94018	4390.4625
2134.91236	4365.8625
2137.88263	4363.4625
2140.851	4368.5625
2143.81746	4378.9625
2146.78201	4375.3625
2149.74466	4356.0625
2152.7054	4380.3625
2155.66425	4364.9625
2158.6212	4354.5625
2161.57625	4335.9625
2164.52941	4314.1625
2167.48067	4332.9625
2170.43004	4324.6625
2173.37752	4333.6625
2176.32311	4312.1625
2179.26681	4326.3625
2182.20863	4325.8625
2185.14856	4321.6625
2188.08661	4316.6625
2191.02278	4331.9625
2193.95707	4300.7625
2196.88948	4290.1625
2199.82001	4299.5625
2202.74867	4288.1625
2205.67545	4280.3625
2208.60037	4295.8625
2211.52341	4277.2625
2214.44458	4271.6625
2217.36388	4262.4625
2220.28132	4237.5625
2223.1969	4215.7625
2226.11061	4221.5625
2229.02246	4204.5625
2231.93245	4215.5625
2234.84058	4182.5625
2237.74686	4176.4625
2240.65128	4163.9625
2243.55385	4173.3625
2246.45456	4142.8625
2249.35343	4195.1625
2252.25044	4151.6625
2255.14561	4166.0625
2258.03893	4159.5625
2260.93041	4129.4625
2263.82004	4138.5625
2266.70783	4124.1625
2269.59378	4109.5625
2272.4779	4103.1625
2275.36017	4093.6625
2278.24061	4069.5625
2281.11922	4048.8625
2283.996	4062.9625
2286.87094	4045.0625
2289.74405	4026.9625
2292.61534	4043.0625
2295.4848	4039.0625
2298.35243	4019.7625
2301.21824	4009.2625
2304.08223	4001.7625
2306.94439	4012.7625
2309.80474	4017.4625
2312.66327	4013.0625
2315.51999	3968.5625
2318.37489	3991.2625
2321.22797	3972.3625
2324.07925	3976.1625
2326.92871	3943.3625
2329.77637	3935.8625
2332.62222	3933.2625
2335.46626	3924.2625
2338.3085	3910.4625
2341.14893	3928.5625
2343.98756	3924.6625
2346.8244	3911.9625
2349.65943	3882.1625
2352.49267	3903.7625
2355.32411	3895.0625
2358.15376	3892.0625
2360.98161	3917.5625
2363.80768	3893.5625
2366.63195	3890.1625
2369.45444	3897.1625
2372.27514	3912.1625
2375.09405	3910.5625
2377.91118	3854.2625
2380.72652	3868.1625
2383.54009	3854.8625
2386.35187	3856.3625
2389.16188	3829.4625
2391.97011	3831.9625
2394.77657	3807.6625
2397.58125	3809.6625
2400.38416	3810.8625
2403.18529	3790.8625
2405.98466	3788.5625
2408.78226	3780.1625
2411.57809	3761.0625
2414.37216	3767.7625
2417.16446	3753.7625
2419.955	3731.7625
2422.74378	3761.1625
2425.5308	3727.9625
2428.31606	3745.8625
2431.09956	3743.5625
2433.88131	3700.8625
2436.6613	3725.8625
2439.43954	3710.5625
2442.21603	3710.4625
2444.99077	3699.6625
2447.76377	3713.0625
2450.53501	3694.6625
2453.30451	3689.9625
2456.07226	3691.6625
2458.83827	3691.1625
2461.60254	3642.4625
2464.36507	3673.8625
2467.12586	3648.8625
2469.88492	3666.1625
2472.64224	3661.1625
2475.39782	3651.3625
2478.15167	3660.0625
2480.90379	3650.3625
2483.65417	3667.3625
2486.40283	3663.5625
2489.14976	3679.9625
2491.89497	3662.9625
2494.63845	3649.2625
2497.3802	3639.0625
2500.12024	3641.2625
2502.85855	3636.4625
2505.59514	3637.7625
2508.33002	3645.0625
2511.06318	3596.6625
2513.79462	3601.0625
2516.52435	3574.6625
2519.25237	3541.6625
2521.97867	3554.2625
2524.70327	3549.7625
2527.42616	3551.4625
2530.14734	3574.7625
2532.86681	3527.5625
2535.58458	3532.1625
2538.30065	3534.8625
2541.01501	3548.2625
2543.72768	3529.4625
2546.43864	3518.8625
2549.14791	3506.9625
2551.85548	3496.1625
2554.56136	3492.7625
2557.26554	3493.5625
2559.96803	3491.8625
2562.66883	3486.3625
2565.36794	3472.0625
2568.06536	3436.5625
2570.7611	3456.8625
2573.45514	3443.9625
2576.14751	3434.2625
2578.83819	3413.9625
2581.52719	3412.4625
2584.21451	3423.3625
2586.90015	3402.9625
2589.58411	3380.3625
2592.2664	3393.2625
2594.94701	3389.3625
2597.62594	3389.4625
2600.30321	3327.7625
2602.9788	3344.3625
2605.65273	3334.1625
2608.32498	3347.3625
2610.99557	3350.9625
2613.66449	3325.5625
2616.33175	3349.3625
2618.99734	3325.4625
2621.66128	3330.1625
2624.32355	3316.0625
2626.98416	3301.6625
2629.64311	3300.1625
2632.30041	3281.0625
2634.95605	3271.4625
2637.61004	3266.2625
2640.26238	3242.6625
2642.91306	3252.1625
2645.56209	3251.5625
2648.20948	3250.5625
2650.85521	3234.9625
2653.4993	3274.7625
2656.14175	3250.4625
2658.78255	3244.8625
2661.42171	3211.6625
2664.05923	3246.6625
2666.6951	3249.8625
2669.32934	3256.6625
2671.96194	3276.8625
2674.59291	3253.0625
2677.22224	3257.2625
2679.84993	3251.8625
2682.476	3241.6625
2685.10043	3237.1625
2687.72324	3229.8625
2690.34441	3227.0625
2692.96396	3221.4625
2695.58188	3254.5625
2698.19818	3236.6625
2700.81285	3231.7625
2703.4259	3213.2625
2706.03733	3182.0625
2708.64714	3175.6625
2711.25533	3210.0625
2713.86191	3224.5625
2716.46687	3222.6625
2719.07021	3204.6625
2721.67194	3219.4625
2724.27206	3229.5625
2726.87057	3201.2625
2729.46747	3178.2625
2732.06276	3209.2625
2734.65644	3185.8625
2737.24852	3166.9625
2739.83899	3170.4625
2742.42786	3181.5625
2745.01513	3183.3625
2747.60079	3158.9625
2750.18486	3141.1625
2752.76733	3165.0625
2755.3482	3143.4625
2757.92747	3156.4625
2760.50515	3123.0625
2763.08123	3123.0625
2765.65573	3125.5625
2768.22863	3109.6625
2770.79994	3109.2625
2773.36967	3096.3625
2775.9378	3088.7625
2778.50435	3088.7625
2781.06932	3078.8625
2783.6327	3064.8625
2786.1945	3102.0625
2788.75471	3086.4625
2791.31335	3072.7625
2793.87041	3054.6625
2796.42589	3061.0625
2798.97979	3056.7625
2801.53212	3038.3625
2804.08288	3052.7625
2806.63206	3021.3625
2809.17967	3012.5625
2811.72571	3024.3625
2814.27018	3027.1625
2816.81308	3004.1625
2819.35442	2977.8625
2821.89419	2998.0625
2824.43239	2970.0625
2826.96904	2999.6625
2829.50412	2988.1625
2832.03763	2985.3625
2834.56959	2980.2625
2837.1	2962.1625
2839.62884	2972.3625
2842.15613	2967.7625
2844.68186	2973.9625
2847.20604	2950.4625
2849.72867	2938.9625
2852.24974	2945.5625
2854.76927	2918.2625
2857.28724	2867.3625
2859.80367	2931.3625
2862.31855	2935.0625
2864.83189	2916.5625
2867.34368	2932.5625
2869.85393	2936.1625
2872.36264	2901.6625
2874.8698	2905.3625
2877.37543	2920.4625
2879.87952	2912.7625
2882.38207	2889.9625
2884.88308	2898.2625
2887.38256	2897.7625
2889.88051	2882.5625
2892.37692	2889.4625
2894.8718	2863.3625
2897.36515	2886.9625
2899.85698	2889.2625
2902.34727	2885.2625
2904.83604	2875.5625
2907.32328	2895.6625
2909.809	2902.5625
2912.29319	2893.2625
2914.77587	2897.2625
2917.25702	2912.1625
2919.73665	2914.9625
2922.21476	2916.4625
2924.69136	2917.8625
2927.16644	2888.1625
2929.64	2889.4625
2932.11205	2881.9625
2934.58258	2882.2625
2937.05161	2858.7625
2939.51912	2868.4625
2941.98513	2892.0625
2944.44962	2862.1625
2946.91261	2828.3625
2949.37409	2840.4625
2951.83407	2829.2625
2954.29254	2831.8625
2956.74951	2837.7625
2959.20498	2821.4625
2961.65895	2817.4625
2964.11142	2807.2625
2966.56239	2817.1625
2969.01186	2794.4625
2971.45984	2802.4625
2973.90632	2791.4625
2976.35131	2806.6625
2978.7948	2786.2625
2981.23681	2773.6625
2983.67732	2785.0625
2986.11635	2773.7625
2988.55388	2745.3625
2990.98993	2758.9625
2993.4245	2746.1625
2995.85758	2735.5625
2998.28917	2736.4625
3000.71928	2706.8625
3003.14791	2715.8625
3005.57506	2703.7625
3008.00073	2686.2625
3010.42493	2631.9625
3012.84764	2683.8625
3015.26888	2678.5625
3017.68865	2676.6625
3020.10694	2632.8625
3022.52376	2647.0625
3024.9391	2632.2625
3027.35298	2628.9625
3029.76539	2614.1625
3032.17632	2619.9625
3034.5858	2607.9625
3036.9938	2626.5625
3039.40034	2617.9625
3041.80542	2598.6625
3044.20903	2586.2625
3046.61118	2581.5625
3049.01187	2584.5625
3051.4111	2576.4625
3053.80888	2559.7625
3056.20519	2553.5625
3058.60005	2540.0625
3060.99345	2570.5625
3063.3854	2536.3625
3065.7759	2518.8625
3068.16494	2506.8625
3070.55254	2504.3625
3072.93868	2524.4625
3075.32338	2511.2625
3077.70662	2496.7625
3080.08842	2490.6625
3082.46878	2477.1625
3084.84769	2490.2625
3087.22515	2478.9625
3089.60118	2486.0625
3091.97576	2477.0625
3094.3489	2486.1625
3096.72061	2473.8625
3099.09087	2444.1625
3101.4597	2464.6625
3103.82709	2461.5625
3106.19305	2449.4625
3108.55757	2443.6625
3110.92066	2434.1625
3113.28232	2440.0625
3115.64255	2435.0625
3118.00134	2442.6625
3120.35871	2421.4625
3122.71466	2407.1625
3125.06917	2405.4625
3127.42226	2394.1625
3129.77393	2375.9625
3132.12417	2395.9625
3134.47299	2401.3625
3136.82039	2376.1625
3139.16636	2361.7625
3141.51092	2387.7625
3143.85406	2386.3625
3146.19579	2356.5625
3148.53609	2354.9625
3150.87499	2358.7625
3153.21246	2365.0625
3155.54853	2371.5625
3157.88318	2368.0625
3160.21642	2371.3625
3162.54826	2364.4625
3164.87868	2368.8625
3167.2077	2323.2625
3169.5353	2346.8625
3171.86151	2349.0625
3174.18631	2327.5625
3176.5097	2342.9625
3178.83169	2330.4625
3181.15228	2324.7625
3183.47147	2303.3625
3185.78926	2292.4625
3188.10565	2297.4625
3190.42065	2275.3625
3192.73424	2294.3625
3195.04645	2282.7625
3197.35725	2265.9625
3199.66667	2284.6625
3201.97469	2273.1625
3204.28132	2254.9625
3206.58656	2286.2625
3208.8904	2279.0625
3211.19287	2270.5625
3213.49394	2263.8625
3215.79363	2258.3625
3218.09193	2269.4625
3220.38884	2264.2625
3222.68438	2269.7625
3224.97853	2237.3625
3227.2713	2274.0625
3229.56269	2243.2625
3231.8527	2251.8625
3234.14133	2224.5625
3236.42858	2219.9625
3238.71446	2208.1625
3240.99896	2234.7625
3243.28209	2217.3625
3245.56384	2218.4625
3247.84423	2200.2625
3250.12324	2204.6625
3252.40088	2191.3625
3254.67715	2192.3625
3256.95205	2167.2625
3259.22558	2183.7625
3261.49775	2197.8625
3263.76855	2189.7625
3266.03799	2190.5625
3268.30606	2189.4625
3270.57277	2187.5625
3272.83812	2164.3625
3275.10211	2160.9625
3277.36474	2177.4625
3279.62601	2166.6625
3281.88593	2139.8625
3284.14448	2122.1625
3286.40168	2148.2625
3288.65753	2133.4625
3290.91202	2139.9625
3293.16516	2118.0625
3295.41695	2139.8625
3297.66738	2143.4625
3299.91647	2105.8625
3302.16421	2118.4625
3304.4106	2067.1625
3306.65564	2086.5625
3308.89933	2053.7625
3311.14169	2056.8625
3313.38269	2034.2625
3315.62236	2004.9625
3317.86068	1995.0625
3320.09766	1999.9625
3322.3333	1965.9625
3324.5676	1958.0625
3326.80056	1921.3625
3329.03219	1927.5625
3331.26248	0.0625
3333.49143	-0.5375
3335.71905	0.3625
