Data from AgNPs_UA_20uM_CRN_500uM_SU_RamanShift__67__13-47-40-304.txt Node

Date: Thu Aug 04 13:47:40 BST 2022
User: TCL
Spectrometer: QEP01345
Trigger mode: 4
Integration Time (sec): 1.000000E0
Scans to average: 10
Electric dark correction enabled: true
Nonlinearity correction enabled: false
Boxcar width: 0
XAxis mode: Raman Shifts
Number of Pixels in Spectrum: 1044
>>>>>Begin Spectral Data<<<<<
46.04893	-1.8375
50.45542	0.7625
54.85868	1.9625
59.25871	-0.5375
63.6555	11.5625
68.04907	11.5625
72.43941	14.7625
76.82654	10.9625
81.21044	11.6625
85.59113	12.7625
89.96862	13.7625
94.34289	13.4625
98.71396	14.0625
103.08183	13.4625
107.4465	14.5625
111.80798	15.4625
116.16626	17.0625
120.52136	17.8625
124.87327	15.6625
129.222	19.6625
133.56755	18.4625
137.90993	19.9625
142.24913	23.5625
146.58517	24.2625
150.91804	26.8625
155.24774	33.4625
159.57429	41.1625
163.89768	53.3625
168.21792	71.8625
172.53501	99.5625
176.84895	132.5625
181.15975	191.6625
185.46741	260.7625
189.77193	366.9625
194.07331	490.2625
198.37157	632.3625
202.6667	782.0625
206.9587	926.9625
211.24758	1077.7625
215.53334	1210.4625
219.81599	1374.0625
224.09553	1534.0625
228.37195	1733.7625
232.64527	1930.8625
236.91549	2147.5625
241.18261	2339.7625
245.44663	2526.1625
249.70755	2677.9625
253.96539	2824.6625
258.22014	2948.9625
262.4718	3035.3625
266.72039	3123.2625
270.96589	3176.2625
275.20832	3142.6625
279.44768	3123.4625
283.68397	3084.7625
287.91719	3041.4625
292.14735	3036.9625
296.37445	3055.1625
300.59849	3104.3625
304.81948	3168.6625
309.03742	3210.9625
313.25231	3234.8625
317.46415	3196.3625
321.67296	3141.6625
325.87872	3065.7625
330.08145	3043.2625
334.28114	3052.0625
338.47781	3096.4625
342.67145	3162.0625
346.86207	3235.3625
351.04966	3323.0625
355.23424	3408.2625
359.4158	3500.9625
363.59435	3571.0625
367.76989	3605.5625
371.94243	3642.6625
376.11196	3663.7625
380.27849	3698.8625
384.44203	3721.4625
388.60257	3728.8625
392.76012	3772.8625
396.91468	3828.3625
401.06626	3884.9625
405.21485	3952.8625
409.36047	3949.0625
413.50311	3870.0625
417.64277	3790.9625
421.77947	3739.2625
425.9132	3748.4625
430.04396	3793.5625
434.17176	3879.7625
438.2966	4013.7625
442.41849	4200.9625
446.53742	4422.0625
450.6534	4641.4625
454.76644	4755.3625
458.87653	4746.4625
462.98368	4629.2625
467.08789	4437.5625
471.18916	4246.8625
475.2875	4088.8625
479.38291	3951.1625
483.4754	3855.9625
487.56496	3786.4625
491.6516	3720.6625
495.73531	3709.3625
499.81612	3689.9625
503.89401	3724.2625
507.96899	3721.5625
512.04106	3738.2625
516.11023	3779.6625
520.1765	3795.1625
524.23987	3854.9625
528.30034	3862.2625
532.35792	3868.1625
536.41261	3814.8625
540.46441	3759.0625
544.51333	3748.1625
548.55936	3778.1625
552.60252	3846.9625
556.64279	3877.1625
560.6802	3889.7625
564.71473	3867.1625
568.7464	3868.7625
572.7752	3875.5625
576.80114	3862.4625
580.82422	3895.5625
584.84444	3981.3625
588.86181	4176.7625
592.87633	4352.7625
596.888	4466.5625
600.89682	4573.8625
604.9028	4919.5625
608.90594	5606.4625
612.90624	6132.9625
616.90371	5593.1625
620.89834	4621.5625
624.89015	4239.6625
628.87913	4167.1625
632.86528	4101.3625
636.84862	4033.3625
640.82913	3918.6625
644.80683	3808.0625
648.78172	3754.3625
652.75379	3795.8625
656.72306	3914.6625
660.68952	4023.5625
664.65319	3986.4625
668.61405	3936.5625
672.57211	3946.9625
676.52738	3956.5625
680.47986	3881.7625
684.42955	3829.9625
688.37646	3842.1625
692.32058	3877.7625
696.26192	3943.9625
700.20048	4004.3625
704.13626	4022.7625
708.06928	3945.3625
711.99952	3913.3625
715.927	3927.0625
719.85171	3924.6625
723.77365	3922.5625
727.69284	3874.7625
731.60928	3866.4625
735.52295	3872.6625
739.43388	3920.8625
743.34206	3947.8625
747.24749	3982.0625
751.15017	4003.2625
755.05012	4051.0625
758.94733	4176.7625
762.8418	4408.2625
766.73354	4771.0625
770.62254	5085.6625
774.50882	5240.0625
778.39237	5063.6625
782.27321	4663.2625
786.15132	4319.9625
790.02671	4083.8625
793.89938	3988.9625
797.76935	3948.9625
801.6366	3943.6625
805.50115	3914.1625
809.36299	3900.0625
813.22213	3889.2625
817.07857	3887.5625
820.93231	3875.2625
824.78336	3885.0625
828.63172	3893.3625
832.47738	3896.2625
836.32036	3905.1625
840.16066	3920.2625
843.99827	3929.7625
847.8332	3916.1625
851.66546	3911.5625
855.49504	3914.3625
859.32195	3922.8625
863.1462	3911.8625
866.96777	3873.1625
870.78668	3875.2625
874.60293	3898.2625
878.41652	3904.1625
882.22745	3942.9625
886.03573	3947.0625
889.84136	3942.1625
893.64433	3911.4625
897.44466	3902.5625
901.24235	3902.2625
905.0374	3890.3625
908.8298	3865.3625
912.61957	3869.6625
916.40671	3901.0625
920.19121	3924.9625
923.97308	3986.0625
927.75233	4006.3625
931.52895	4013.1625
935.30295	3975.6625
939.07433	3904.1625
942.84309	3852.1625
946.60924	3857.6625
950.37278	3844.1625
954.13371	3817.8625
957.89203	3805.7625
961.64774	3798.8625
965.40086	3778.1625
969.15137	3765.3625
972.89929	3786.7625
976.64461	3778.6625
980.38733	3790.9625
984.12747	3814.2625
987.86502	3837.5625
991.59999	3911.4625
995.33237	4003.7625
999.06217	4158.3625
1002.78939	4310.1625
1006.51404	4365.1625
1010.23611	4436.4625
1013.95561	4528.9625
1017.67255	4592.9625
1021.38692	4529.0625
1025.09872	4449.1625
1028.80796	4444.3625
1032.51465	4510.9625
1036.21877	4565.6625
1039.92035	4551.8625
1043.61937	4495.8625
1047.31584	4393.0625
1051.00976	4307.9625
1054.70114	4285.6625
1058.38998	4279.3625
1062.07627	4292.4625
1065.76003	4322.7625
1069.44126	4353.4625
1073.11995	4374.9625
1076.79611	4423.1625
1080.46974	4461.2625
1084.14085	4504.3625
1087.80943	4541.2625
1091.47549	4539.4625
1095.13903	4473.5625
1098.80005	4392.3625
1102.45857	4349.4625
1106.11456	4319.3625
1109.76805	4348.3625
1113.41903	4397.2625
1117.06751	4469.1625
1120.71348	4572.6625
1124.35696	4662.0625
1127.99793	4710.4625
1131.63641	4647.2625
1135.2724	4546.5625
1138.90589	4478.4625
1142.5369	4390.0625
1146.16542	4359.5625
1149.79145	4349.3625
1153.415	4356.0625
1157.03607	4389.9625
1160.65467	4459.0625
1164.27079	4553.2625
1167.88443	4757.9625
1171.49561	5014.7625
1175.10432	5393.8625
1178.71056	5937.3625
1182.31434	6462.4625
1185.91565	6837.3625
1189.51451	7002.5625
1193.11091	6818.6625
1196.70485	6405.4625
1200.29634	5971.7625
1203.88538	5608.4625
1207.47197	5318.3625
1211.05612	5125.0625
1214.63782	5011.1625
1218.21708	4998.3625
1221.79391	5033.8625
1225.36829	5070.5625
1228.94024	5075.9625
1232.50976	5079.0625
1236.07685	5130.6625
1239.6415	5191.6625
1243.20374	5231.4625
1246.76355	5238.9625
1250.32093	5282.5625
1253.8759	5397.9625
1257.42845	5568.8625
1260.97859	5777.2625
1264.52631	5921.7625
1268.07163	6000.9625
1271.61453	6090.9625
1275.15503	6129.4625
1278.69312	6213.0625
1282.22882	6349.6625
1285.76211	6519.0625
1289.29301	6712.3625
1292.82151	6923.9625
1296.34761	7076.9625
1299.87133	7276.1625
1303.39266	7564.6625
1306.9116	7967.5625
1310.42815	8395.3625
1313.94233	8564.0625
1317.45412	8485.8625
1320.96354	8270.5625
1324.47058	8090.1625
1327.97525	8042.5625
1331.47754	8185.7625
1334.97747	8449.7625
1338.47502	8634.6625
1341.97022	8689.5625
1345.46305	8696.7625
1348.95352	8841.4625
1352.44163	9113.3625
1355.92738	9469.4625
1359.41078	9886.3625
1362.89183	10008.1625
1366.37053	9505.6625
1369.84688	8557.6625
1373.32088	7696.3625
1376.79254	7136.9625
1380.26186	6893.0625
1383.72883	6717.4625
1387.19347	6551.0625
1390.65578	6267.7625
1394.11575	6019.3625
1397.57339	5896.8625
1401.0287	5927.8625
1404.48168	6094.1625
1407.93234	6349.8625
1411.38068	6555.1625
1414.82669	6600.6625
1418.27039	6459.3625
1421.71177	6320.8625
1425.15083	6290.3625
1428.58758	6416.1625
1432.02203	6608.5625
1435.45416	6703.4625
1438.88399	6723.2625
1442.31151	6640.5625
1445.73673	6572.0625
1449.15965	6495.2625
1452.58027	6343.2625
1455.9986	6213.1625
1459.41463	6173.5625
1462.82837	6248.0625
1466.23982	6384.7625
1469.64898	6561.6625
1473.05586	6698.7625
1476.46045	6813.3625
1479.86276	6880.4625
1483.26279	6915.3625
1486.66054	6932.6625
1490.05602	7005.7625
1493.44922	7116.0625
1496.84016	7305.4625
1500.22882	7563.3625
1503.61521	7895.4625
1506.99934	8173.6625
1510.38121	8260.0625
1513.76081	8055.6625
1517.13816	7649.5625
1520.51324	7185.7625
1523.88607	6920.6625
1527.25665	6814.5625
1530.62498	6830.7625
1533.99105	6881.5625
1537.35488	6917.5625
1540.71647	6927.4625
1544.07581	6858.0625
1547.4329	6676.1625
1550.78776	6465.0625
1554.14038	6270.1625
1557.49077	6111.3625
1560.83892	6012.3625
1564.18484	5989.4625
1567.52853	6008.4625
1570.86999	6055.5625
1574.20922	6081.7625
1577.54624	6002.5625
1580.88103	5851.4625
1584.2136	5769.8625
1587.54395	5821.0625
1590.87208	6130.9625
1594.19801	6699.8625
1597.52172	7409.3625
1600.84321	7965.4625
1604.16251	7990.8625
1607.47959	7500.1625
1610.79447	6769.2625
1614.10715	6052.9625
1617.41763	5564.2625
1620.7259	5247.6625
1624.03199	5096.4625
1627.33587	5093.9625
1630.63757	5242.3625
1633.93707	5543.3625
1637.23439	6036.4625
1640.52951	6705.6625
1643.82246	7386.9625
1647.11321	7808.0625
1650.40179	7630.0625
1653.68819	6850.7625
1656.97241	5940.6625
1660.25446	5195.4625
1663.53433	4699.1625
1666.81203	4409.9625
1670.08756	4231.2625
1673.36092	4124.9625
1676.63211	4051.5625
1679.90115	3973.6625
1683.16801	3914.7625
1686.43272	3886.9625
1689.69527	3863.3625
1692.95567	3845.0625
1696.2139	3849.2625
1699.46999	3818.1625
1702.72392	3820.5625
1705.97571	3826.7625
1709.22535	3817.4625
1712.47284	3795.5625
1715.71819	3810.8625
1718.96139	3786.9625
1722.20246	3790.8625
1725.44139	3776.5625
1728.67818	3760.9625
1731.91284	3754.0625
1735.14537	3717.8625
1738.37576	3702.2625
1741.60403	3677.2625
1744.83017	3673.5625
1748.05418	3684.4625
1751.27607	3680.6625
1754.49584	3661.8625
1757.71349	3647.0625
1760.92903	3646.1625
1764.14244	3638.5625
1767.35375	3645.4625
1770.56294	3639.1625
1773.77002	3631.7625
1776.97499	3628.7625
1780.17785	3625.5625
1783.37861	3613.4625
1786.57727	3605.6625
1789.77382	3606.5625
1792.96828	3604.3625
1796.16064	3588.6625
1799.3509	3587.9625
1802.53907	3599.5625
1805.72514	3600.1625
1808.90913	3579.8625
1812.09102	3572.1625
1815.27083	3567.3625
1818.44856	3537.0625
1821.6242	3525.9625
1824.79776	3543.1625
1827.96924	3526.9625
1831.13864	3528.3625
1834.30597	3522.9625
1837.47122	3530.8625
1840.6344	3517.9625
1843.7955	3514.9625
1846.95454	3498.7625
1850.11151	3499.6625
1853.26642	3522.0625
1856.41926	3513.1625
1859.57004	3515.4625
1862.71876	3512.3625
1865.86542	3514.5625
1869.01003	3505.5625
1872.15258	3509.1625
1875.29308	3497.8625
1878.43152	3507.0625
1881.56792	3501.3625
1884.70227	3484.0625
1887.83457	3485.7625
1890.96482	3500.4625
1894.09304	3493.5625
1897.21921	3475.2625
1900.34335	3476.2625
1903.46544	3480.8625
1906.58551	3476.0625
1909.70353	3472.9625
1912.81953	3473.7625
1915.93349	3472.6625
1919.04543	3456.5625
1922.15534	3469.1625
1925.26322	3455.4625
1928.36908	3433.9625
1931.47292	3440.9625
1934.57473	3446.4625
1937.67453	3438.4625
1940.77232	3430.3625
1943.86808	3426.1625
1946.96184	3408.9625
1950.05358	3396.8625
1953.14331	3395.1625
1956.23103	3369.4625
1959.31675	3368.2625
1962.40046	3350.2625
1965.48217	3347.5625
1968.56188	3341.3625
1971.63959	3321.3625
1974.7153	3308.6625
1977.78901	3313.4625
1980.86073	3300.0625
1983.93046	3268.4625
1986.99819	3278.7625
1990.06394	3264.2625
1993.1277	3254.3625
1996.18947	3263.6625
1999.24925	3243.7625
2002.30706	3233.1625
2005.36288	3209.5625
2008.41672	3224.0625
2011.46859	3197.4625
2014.51848	3197.1625
2017.56639	3185.5625
2020.61233	3187.2625
2023.6563	3164.8625
2026.6983	3169.3625
2029.73833	3155.3625
2032.7764	3141.0625
2035.8125	3149.5625
2038.84664	3133.4625
2041.87881	3137.5625
2044.90903	3121.8625
2047.93729	3109.6625
2050.96359	3115.1625
2053.98794	3117.5625
2057.01034	3118.4625
2060.03078	3108.6625
2063.04927	3102.0625
2066.06582	3078.9625
2069.08042	3110.6625
2072.09307	3099.8625
2075.10378	3091.7625
2078.11255	3083.0625
2081.11938	3084.1625
2084.12426	3089.2625
2087.12722	3091.7625
2090.12824	3080.4625
2093.12732	3078.9625
2096.12447	3083.7625
2099.11969	3077.6625
2102.11299	3072.8625
2105.10435	3086.0625
2108.09379	3081.1625
2111.08131	3078.8625
2114.0669	3064.7625
2117.05057	3075.6625
2120.03233	3062.5625
2123.01216	3048.6625
2125.99008	3066.9625
2128.96609	3085.5625
2131.94018	3081.6625
2134.91236	3080.2625
2137.88263	3080.0625
2140.851	3064.9625
2143.81746	3085.3625
2146.78201	3078.7625
2149.74466	3072.5625
2152.7054	3063.4625
2155.66425	3075.5625
2158.6212	3082.2625
2161.57625	3087.8625
2164.52941	3066.1625
2167.48067	3057.9625
2170.43004	3058.4625
2173.37752	3048.9625
2176.32311	3063.8625
2179.26681	3062.9625
2182.20863	3072.5625
2185.14856	3064.7625
2188.08661	3060.2625
2191.02278	3069.3625
2193.95707	3061.0625
2196.88948	3065.1625
2199.82001	3066.7625
2202.74867	3059.1625
2205.67545	3066.1625
2208.60037	3066.3625
2211.52341	3049.0625
2214.44458	3040.6625
2217.36388	3039.1625
2220.28132	3027.2625
2223.1969	3026.4625
2226.11061	3011.7625
2229.02246	3007.0625
2231.93245	3003.8625
2234.84058	3002.7625
2237.74686	2984.2625
2240.65128	2988.8625
2243.55385	2986.7625
2246.45456	2992.0625
2249.35343	2988.6625
2252.25044	2973.1625
2255.14561	2982.9625
2258.03893	2979.7625
2260.93041	2953.5625
2263.82004	2955.0625
2266.70783	2957.5625
2269.59378	2936.1625
2272.4779	2931.9625
2275.36017	2918.5625
2278.24061	2911.1625
2281.11922	2906.9625
2283.996	2891.8625
2286.87094	2886.1625
2289.74405	2886.9625
2292.61534	2887.4625
2295.4848	2886.7625
2298.35243	2894.5625
2301.21824	2876.2625
2304.08223	2880.1625
2306.94439	2881.9625
2309.80474	2883.5625
2312.66327	2863.5625
2315.51999	2883.4625
2318.37489	2875.4625
2321.22797	2879.8625
2324.07925	2871.8625
2326.92871	2874.5625
2329.77637	2852.7625
2332.62222	2860.9625
2335.46626	2863.2625
2338.3085	2864.0625
2341.14893	2863.4625
2343.98756	2862.4625
2346.8244	2868.6625
2349.65943	2866.6625
2352.49267	2860.4625
2355.32411	2856.1625
2358.15376	2866.4625
2360.98161	2857.2625
2363.80768	2854.8625
2366.63195	2847.4625
2369.45444	2844.8625
2372.27514	2831.7625
2375.09405	2834.2625
2377.91118	2823.2625
2380.72652	2816.5625
2383.54009	2815.6625
2386.35187	2819.8625
2389.16188	2793.3625
2391.97011	2801.0625
2394.77657	2797.8625
2397.58125	2798.5625
2400.38416	2767.8625
2403.18529	2778.2625
2405.98466	2781.3625
2408.78226	2759.6625
2411.57809	2761.5625
2414.37216	2748.0625
2417.16446	2757.1625
2419.955	2746.6625
2422.74378	2742.2625
2425.5308	2739.7625
2428.31606	2723.9625
2431.09956	2731.1625
2433.88131	2730.2625
2436.6613	2722.5625
2439.43954	2727.5625
2442.21603	2725.9625
2444.99077	2732.2625
2447.76377	2717.4625
2450.53501	2717.0625
2453.30451	2719.6625
2456.07226	2720.6625
2458.83827	2709.5625
2461.60254	2701.0625
2464.36507	2700.1625
2467.12586	2696.7625
2469.88492	2699.3625
2472.64224	2714.0625
2475.39782	2707.6625
2478.15167	2713.5625
2480.90379	2703.8625
2483.65417	2706.9625
2486.40283	2709.3625
2489.14976	2713.7625
2491.89497	2701.0625
2494.63845	2707.1625
2497.3802	2711.9625
2500.12024	2694.1625
2502.85855	2703.6625
2505.59514	2686.3625
2508.33002	2684.5625
2511.06318	2671.1625
2513.79462	2683.7625
2516.52435	2682.2625
2519.25237	2684.7625
2521.97867	2677.6625
2524.70327	2671.2625
2527.42616	2683.6625
2530.14734	2671.1625
2532.86681	2681.3625
2535.58458	2665.0625
2538.30065	2660.6625
2541.01501	2661.9625
2543.72768	2664.1625
2546.43864	2666.9625
2549.14791	2657.4625
2551.85548	2670.0625
2554.56136	2656.5625
2557.26554	2653.0625
2559.96803	2652.3625
2562.66883	2637.5625
2565.36794	2640.9625
2568.06536	2625.9625
2570.7611	2625.9625
2573.45514	2630.9625
2576.14751	2637.3625
2578.83819	2620.0625
2581.52719	2626.3625
2584.21451	2608.9625
2586.90015	2603.2625
2589.58411	2600.8625
2592.2664	2609.7625
2594.94701	2609.2625
2597.62594	2610.5625
2600.30321	2608.3625
2602.9788	2610.9625
2605.65273	2613.7625
2608.32498	2610.1625
2610.99557	2601.4625
2613.66449	2597.3625
2616.33175	2592.5625
2618.99734	2603.1625
2621.66128	2595.7625
2624.32355	2609.5625
2626.98416	2611.1625
2629.64311	2605.8625
2632.30041	2599.7625
2634.95605	2615.6625
2637.61004	2599.9625
2640.26238	2587.8625
2642.91306	2589.2625
2645.56209	2578.8625
2648.20948	2586.5625
2650.85521	2584.7625
2653.4993	2576.2625
2656.14175	2587.1625
2658.78255	2584.9625
2661.42171	2592.6625
2664.05923	2593.4625
2666.6951	2605.2625
2669.32934	2596.6625
2671.96194	2598.4625
2674.59291	2585.0625
2677.22224	2598.2625
2679.84993	2606.0625
2682.476	2599.3625
2685.10043	2592.9625
2687.72324	2584.4625
2690.34441	2585.0625
2692.96396	2599.4625
2695.58188	2590.9625
2698.19818	2586.5625
2700.81285	2594.6625
2703.4259	2591.1625
2706.03733	2589.9625
2708.64714	2575.6625
2711.25533	2577.5625
2713.86191	2580.1625
2716.46687	2580.5625
2719.07021	2591.2625
2721.67194	2594.3625
2724.27206	2597.9625
2726.87057	2592.2625
2729.46747	2601.4625
2732.06276	2604.2625
2734.65644	2588.5625
2737.24852	2586.2625
2739.83899	2583.2625
2742.42786	2588.0625
2745.01513	2587.7625
2747.60079	2585.9625
2750.18486	2580.6625
2752.76733	2576.2625
2755.3482	2587.0625
2757.92747	2574.0625
2760.50515	2567.3625
2763.08123	2576.1625
2765.65573	2561.3625
2768.22863	2573.0625
2770.79994	2563.0625
2773.36967	2565.7625
2775.9378	2569.5625
2778.50435	2577.9625
2781.06932	2567.8625
2783.6327	2565.2625
2786.1945	2562.0625
2788.75471	2560.0625
2791.31335	2556.5625
2793.87041	2551.7625
2796.42589	2553.8625
2798.97979	2540.7625
2801.53212	2537.8625
2804.08288	2530.7625
2806.63206	2540.8625
2809.17967	2532.6625
2811.72571	2517.2625
2814.27018	2534.7625
2816.81308	2521.4625
2819.35442	2521.0625
2821.89419	2505.7625
2824.43239	2506.3625
2826.96904	2501.5625
2829.50412	2504.0625
2832.03763	2503.5625
2834.56959	2502.9625
2837.1	2490.6625
2839.62884	2484.3625
2842.15613	2492.8625
2844.68186	2499.0625
2847.20604	2491.1625
2849.72867	2482.1625
2852.24974	2472.8625
2854.76927	2471.7625
2857.28724	2462.8625
2859.80367	2457.9625
2862.31855	2459.3625
2864.83189	2451.3625
2867.34368	2444.6625
2869.85393	2449.9625
2872.36264	2450.5625
2874.8698	2450.6625
2877.37543	2441.8625
2879.87952	2430.2625
2882.38207	2438.1625
2884.88308	2433.1625
2887.38256	2422.5625
2889.88051	2421.3625
2892.37692	2425.7625
2894.8718	2430.7625
2897.36515	2422.6625
2899.85698	2425.9625
2902.34727	2422.2625
2904.83604	2427.8625
2907.32328	2436.5625
2909.809	2430.9625
2912.29319	2427.2625
2914.77587	2418.3625
2917.25702	2431.8625
2919.73665	2429.8625
2922.21476	2424.1625
2924.69136	2433.9625
2927.16644	2423.1625
2929.64	2410.6625
2932.11205	2423.9625
2934.58258	2407.4625
2937.05161	2405.5625
2939.51912	2409.6625
2941.98513	2401.2625
2944.44962	2387.4625
2946.91261	2388.3625
2949.37409	2402.5625
2951.83407	2405.3625
2954.29254	2388.1625
2956.74951	2392.3625
2959.20498	2387.9625
2961.65895	2377.3625
2964.11142	2378.5625
2966.56239	2378.9625
2969.01186	2381.8625
2971.45984	2370.5625
2973.90632	2370.5625
2976.35131	2362.1625
2978.7948	2365.3625
2981.23681	2344.9625
2983.67732	2345.2625
2986.11635	2341.1625
2988.55388	2336.2625
2990.98993	2328.8625
2993.4245	2324.4625
2995.85758	2319.1625
2998.28917	2314.7625
3000.71928	2299.9625
3003.14791	2293.4625
3005.57506	2288.3625
3008.00073	2277.9625
3010.42493	2276.0625
3012.84764	2268.0625
3015.26888	2253.1625
3017.68865	2251.6625
3020.10694	2249.8625
3022.52376	2245.5625
3024.9391	2239.3625
3027.35298	2230.5625
3029.76539	2225.4625
3032.17632	2232.0625
3034.5858	2232.0625
3036.9938	2237.2625
3039.40034	2213.8625
3041.80542	2213.6625
3044.20903	2205.7625
3046.61118	2203.1625
3049.01187	2194.1625
3051.4111	2196.5625
3053.80888	2192.1625
3056.20519	2176.9625
3058.60005	2181.3625
3060.99345	2164.1625
3063.3854	2160.9625
3065.7759	2160.7625
3068.16494	2150.9625
3070.55254	2148.1625
3072.93868	2138.5625
3075.32338	2133.7625
3077.70662	2130.6625
3080.08842	2109.3625
3082.46878	2096.2625
3084.84769	2100.7625
3087.22515	2090.0625
3089.60118	2108.1625
3091.97576	2097.2625
3094.3489	2109.9625
3096.72061	2091.0625
3099.09087	2075.6625
3101.4597	2078.6625
3103.82709	2092.1625
3106.19305	2075.9625
3108.55757	2074.3625
3110.92066	2070.9625
3113.28232	2070.7625
3115.64255	2066.8625
3118.00134	2060.0625
3120.35871	2049.8625
3122.71466	2042.7625
3125.06917	2048.4625
3127.42226	2034.7625
3129.77393	2027.3625
3132.12417	2026.4625
3134.47299	2028.7625
3136.82039	2017.9625
3139.16636	2022.5625
3141.51092	2028.2625
3143.85406	2016.2625
3146.19579	2014.8625
3148.53609	2018.6625
3150.87499	2017.0625
3153.21246	2014.6625
3155.54853	2013.4625
3157.88318	2005.5625
3160.21642	2005.8625
3162.54826	2001.6625
3164.87868	2002.6625
3167.2077	2002.5625
3169.5353	1996.1625
3171.86151	1993.4625
3174.18631	1996.7625
3176.5097	1986.3625
3178.83169	1977.0625
3181.15228	1982.0625
3183.47147	1972.7625
3185.78926	1966.3625
3188.10565	1958.9625
3190.42065	1966.9625
3192.73424	1966.3625
3195.04645	1953.0625
3197.35725	1959.6625
3199.66667	1950.5625
3201.97469	1959.5625
3204.28132	1946.5625
3206.58656	1937.8625
3208.8904	1956.2625
3211.19287	1945.5625
3213.49394	1951.2625
3215.79363	1949.7625
3218.09193	1956.6625
3220.38884	1939.9625
3222.68438	1945.6625
3224.97853	1941.7625
3227.2713	1940.1625
3229.56269	1943.2625
3231.8527	1935.4625
3234.14133	1926.9625
3236.42858	1920.9625
3238.71446	1924.3625
3240.99896	1916.7625
3243.28209	1925.2625
3245.56384	1917.1625
3247.84423	1906.5625
3250.12324	1904.5625
3252.40088	1897.6625
3254.67715	1905.7625
3256.95205	1893.5625
3259.22558	1885.9625
3261.49775	1896.8625
3263.76855	1892.8625
3266.03799	1893.9625
3268.30606	1898.8625
3270.57277	1895.8625
3272.83812	1880.8625
3275.10211	1875.6625
3277.36474	1876.9625
3279.62601	1867.1625
3281.88593	1864.3625
3284.14448	1861.6625
3286.40168	1868.1625
3288.65753	1856.9625
3290.91202	1857.4625
3293.16516	1853.4625
3295.41695	1847.5625
3297.66738	1840.3625
3299.91647	1823.3625
3302.16421	1808.4625
3304.4106	1809.3625
3306.65564	1798.2625
3308.89933	1774.8625
3311.14169	1768.8625
3313.38269	1753.4625
3315.62236	1728.2625
3317.86068	1721.6625
3320.09766	1704.3625
3322.3333	1684.1625
3324.5676	1674.3625
3326.80056	1658.9625
3329.03219	1641.6625
3331.26248	1.3625
3333.49143	-0.8375
3335.71905	-1.4375
