Data from AgNPs_UA_5uM_CRN_500uM_SU_RamanShift__144__11-53-23-168.txt Node

Date: Thu Aug 04 11:53:23 BST 2022
User: TCL
Spectrometer: QEP01345
Trigger mode: 4
Integration Time (sec): 1.000000E0
Scans to average: 10
Electric dark correction enabled: true
Nonlinearity correction enabled: false
Boxcar width: 0
XAxis mode: Raman Shifts
Number of Pixels in Spectrum: 1044
>>>>>Begin Spectral Data<<<<<
46.04893	-0.5
50.45542	0.2
54.85868	-0
59.25871	-0.1
63.6555	-58.4
68.04907	-38.5
72.43941	-69.8
76.82654	-56.6
81.21044	-54.9
85.59113	-47.6
89.96862	-75.1
94.34289	-55.7
98.71396	-76.4
103.08183	-56.5
107.4465	-50.1
111.80798	-54.4
116.16626	-43.9
120.52136	-73
124.87327	-49.5
129.222	-60.5
133.56755	-50.3
137.90993	-62.6
142.24913	-49
146.58517	-44.1
150.91804	-42.9
155.24774	-27.8
159.57429	-10.3
163.89768	-4.8
168.21792	41
172.53501	62.5
176.84895	142.4
181.15975	273.8
185.46741	427.7
189.77193	609
194.07331	899
198.37157	1186.6
202.6667	1478.7
206.9587	1801.5
211.24758	2122.1
215.53334	2427.9
219.81599	2784
224.09553	3212.5
228.37195	3635.6
232.64527	4103.1
236.91549	4580
241.18261	4946.7
245.44663	5262.4
249.70755	5429.6
253.96539	5596
258.22014	5688.1
262.4718	5755.1
266.72039	5781
270.96589	5734.4
275.20832	5632.5
279.44768	5526.7
283.68397	5415.3
287.91719	5349.3
292.14735	5385
296.37445	5530
300.59849	5778.4
304.81948	6118.1
309.03742	6446
313.25231	6674.1
317.46415	6611.9
321.67296	6237.1
325.87872	5852.9
330.08145	5691
334.28114	5661.7
338.47781	5709.9
342.67145	5871.2
346.86207	6090.1
351.04966	6463.2
355.23424	6831.6
359.4158	7080.2
363.59435	7119.9
367.76989	7048.3
371.94243	6943.2
376.11196	6830.3
380.27849	6787.4
384.44203	6718.4
388.60257	6669.7
392.76012	6685.7
396.91468	6819.3
401.06626	6941.3
405.21485	6992
409.36047	6845.6
413.50311	6547.5
417.64277	6281.1
421.77947	6089.5
425.9132	6018.3
430.04396	6017.8
434.17176	6067.8
438.2966	6146.3
442.41849	6260.3
446.53742	6368.5
450.6534	6472.8
454.76644	6536.5
458.87653	6563.5
462.98368	6538.9
467.08789	6500
471.18916	6409
475.2875	6313.3
479.38291	6188.7
483.4754	6111.1
487.56496	6077
491.6516	6029.6
495.73531	6037.8
499.81612	6052.3
503.89401	6139.2
507.96899	6196.5
512.04106	6287.5
516.11023	6391.3
520.1765	6448.7
524.23987	6474.6
528.30034	6489.1
532.35792	6412.9
536.41261	6358.1
540.46441	6282.8
544.51333	6224.6
548.55936	6268
552.60252	6388.9
556.64279	6501.8
560.6802	6618.7
564.71473	6770.6
568.7464	6926.2
572.7752	6897.7
576.80114	6563.5
580.82422	6342.9
584.84444	6239.5
588.86181	6241.6
592.87633	6278.4
596.888	6385.4
600.89682	6734.4
604.9028	7640.6
608.90594	9589.3
612.90624	11794.9
616.90371	10986.8
620.89834	8135.9
624.89015	6915.8
628.87913	6718.6
632.86528	6873.1
636.84862	7020.4
640.82913	6892.3
644.80683	6584.7
648.78172	6423.4
652.75379	6442
656.72306	6656.8
660.68952	6898.4
664.65319	6813
668.61405	6595.8
672.57211	6533.1
676.52738	6540.6
680.47986	6448.9
684.42955	6369.6
688.37646	6319.8
692.32058	6314.4
696.26192	6398.6
700.20048	6499.6
704.13626	6531
708.06928	6489
711.99952	6463.3
715.927	6438.2
719.85171	6472.7
723.77365	6517.7
727.69284	6491.9
731.60928	6491.8
735.52295	6446.1
739.43388	6493.7
743.34206	6522.3
747.24749	6548.7
751.15017	6562.5
755.05012	6611.5
758.94733	6952.4
762.8418	7721.3
766.73354	8946.7
770.62254	9864.3
774.50882	9950.7
778.39237	9479.7
782.27321	8645.1
786.15132	7688.9
790.02671	7058
793.89938	6692.8
797.76935	6589.1
801.6366	6520.3
805.50115	6472.4
809.36299	6466.9
813.22213	6480.4
817.07857	6481.4
820.93231	6474
824.78336	6489.2
828.63172	6515.7
832.47738	6503.5
836.32036	6525.6
840.16066	6500.6
843.99827	6478.7
847.8332	6478.2
851.66546	6487.9
855.49504	6487.2
859.32195	6513.3
863.1462	6525.6
866.96777	6522
870.78668	6508.1
874.60293	6557
878.41652	6575.5
882.22745	6660
886.03573	6678.7
889.84136	6660.3
893.64433	6654.9
897.44466	6633.5
901.24235	6642.9
905.0374	6622.3
908.8298	6584.6
912.61957	6559.7
916.40671	6518.1
920.19121	6545.8
923.97308	6617
927.75233	6700.2
931.52895	6751.5
935.30295	6731.9
939.07433	6593
942.84309	6470.7
946.60924	6479.2
950.37278	6426.2
954.13371	6428.7
957.89203	6428.9
961.64774	6453.7
965.40086	6413.6
969.15137	6381
972.89929	6430.6
976.64461	6418.2
980.38733	6448.3
984.12747	6453.9
987.86502	6444.6
991.59999	6487
995.33237	6563.9
999.06217	6648.4
1002.78939	6726.4
1006.51404	6847.4
1010.23611	6958.8
1013.95561	7025.3
1017.67255	7033
1021.38692	7016.2
1025.09872	6962
1028.80796	6840.4
1032.51465	6853.7
1036.21877	6856.6
1039.92035	6887.4
1043.61937	6936.7
1047.31584	6941.3
1051.00976	7011
1054.70114	6995.2
1058.38998	6984.8
1062.07627	7004.1
1065.76003	7041.1
1069.44126	7115.8
1073.11995	7190.2
1076.79611	7314.6
1080.46974	7470.9
1084.14085	7630.8
1087.80943	7747
1091.47549	7772.9
1095.13903	7715
1098.80005	7613.3
1102.45857	7508.6
1106.11456	7461.9
1109.76805	7406.2
1113.41903	7486.8
1117.06751	7655.1
1120.71348	7864
1124.35696	8235.9
1127.99793	8480.5
1131.63641	8343
1135.2724	7965
1138.90589	7712
1142.5369	7530.7
1146.16542	7448.7
1149.79145	7347.8
1153.415	7303.7
1157.03607	7275.9
1160.65467	7328.9
1164.27079	7523.1
1167.88443	7754.5
1171.49561	8127.3
1175.10432	8670.6
1178.71056	9484.3
1182.31434	10204.2
1185.91565	10430.7
1189.51451	10314.4
1193.11091	10103.6
1196.70485	9896.2
1200.29634	9693.4
1203.88538	9495.2
1207.47197	9111.9
1211.05612	8682.7
1214.63782	8326.3
1218.21708	8099
1221.79391	7931.5
1225.36829	7855.9
1228.94024	7821.8
1232.50976	7835
1236.07685	7857.8
1239.6415	7896.5
1243.20374	7920
1246.76355	7966.2
1250.32093	8045.5
1253.8759	8100.3
1257.42845	8316.8
1260.97859	8496.8
1264.52631	8730.1
1268.07163	8847.7
1271.61453	8968.3
1275.15503	9023.3
1278.69312	9019.5
1282.22882	9066.8
1285.76211	9267
1289.29301	9478.9
1292.82151	9742.7
1296.34761	9920.7
1299.87133	10308.2
1303.39266	10933.5
1306.9116	11978.8
1310.42815	13093.3
1313.94233	13510
1317.45412	12760.9
1320.96354	11737.1
1324.47058	10818.4
1327.97525	10136.3
1331.47754	9815.6
1334.97747	9723.6
1338.47502	9821.8
1341.97022	10187.2
1345.46305	10839.3
1348.95352	11823.9
1352.44163	12968.7
1355.92738	14105.1
1359.41078	15568.8
1362.89183	16886.8
1366.37053	16263.5
1369.84688	13654.9
1373.32088	11282.4
1376.79254	10065.7
1380.26186	9476
1383.72883	9123.1
1387.19347	8754.4
1390.65578	8421.1
1394.11575	8222.7
1397.57339	8063.3
1401.0287	7968.5
1404.48168	7942.4
1407.93234	7960.6
1411.38068	8001.2
1414.82669	8056.4
1418.27039	8129.3
1421.71177	8142
1425.15083	8027.8
1428.58758	7959.9
1432.02203	7995.6
1435.45416	8073.4
1438.88399	8095.2
1442.31151	8086.3
1445.73673	8157.3
1449.15965	8208.8
1452.58027	8231.2
1455.9986	8206.9
1459.41463	8224.7
1462.82837	8310.2
1466.23982	8478.5
1469.64898	8688.6
1473.05586	8833.9
1476.46045	8917.4
1479.86276	8967.1
1483.26279	9023.4
1486.66054	9200.6
1490.05602	9417.4
1493.44922	9901.7
1496.84016	10713.5
1500.22882	11925
1503.61521	13457.8
1506.99934	15041.3
1510.38121	16108.6
1513.76081	16016.7
1517.13816	14595.8
1520.51324	12705.9
1523.88607	11165
1527.25665	10250.3
1530.62498	9807.1
1533.99105	9618.3
1537.35488	9493.8
1540.71647	9428
1544.07581	9371.7
1547.4329	9271.2
1550.78776	9141.4
1554.14038	9037.5
1557.49077	8994.9
1560.83892	9076.1
1564.18484	9265.8
1567.52853	9573.9
1570.86999	9839.2
1574.20922	9954.9
1577.54624	9842.1
1580.88103	9392.3
1584.2136	8811.1
1587.54395	8506.8
1590.87208	8440.9
1594.19801	8591.4
1597.52172	8934.7
1600.84321	9104.8
1604.16251	9014.4
1607.47959	8835.8
1610.79447	8639.2
1614.10715	8347.8
1617.41763	8076.5
1620.7259	7798.1
1624.03199	7632.4
1627.33587	7562.4
1630.63757	7638.8
1633.93707	7835
1637.23439	8243.8
1640.52951	8893
1643.82246	9792.1
1647.11321	10828
1650.40179	11465.9
1653.68819	11125.9
1656.97241	9975.5
1660.25446	8711.3
1663.53433	7793.8
1666.81203	7245.8
1670.08756	6934.3
1673.36092	6768.1
1676.63211	6614.1
1679.90115	6540
1683.16801	6459.7
1686.43272	6357.8
1689.69527	6326.7
1692.95567	6253
1696.2139	6234.8
1699.46999	6184.8
1702.72392	6184.5
1705.97571	6188.6
1709.22535	6170.8
1712.47284	6206.4
1715.71819	6224.6
1718.96139	6199.3
1722.20246	6202.4
1725.44139	6164.4
1728.67818	6135.8
1731.91284	6100.3
1735.14537	6080.3
1738.37576	6051.8
1741.60403	6028.4
1744.83017	5997.1
1748.05418	5997.4
1751.27607	5991.8
1754.49584	5963.8
1757.71349	5938.5
1760.92903	5918.2
1764.14244	5888.1
1767.35375	5908.1
1770.56294	5871.4
1773.77002	5872.1
1776.97499	5874.6
1780.17785	5853.8
1783.37861	5830.9
1786.57727	5846.3
1789.77382	5789.9
1792.96828	5835.4
1796.16064	5827.2
1799.3509	5818.8
1802.53907	5827.7
1805.72514	5787.7
1808.90913	5761.9
1812.09102	5753.5
1815.27083	5740.7
1818.44856	5743.2
1821.6242	5712.4
1824.79776	5713.7
1827.96924	5697.6
1831.13864	5692
1834.30597	5697.3
1837.47122	5666.6
1840.6344	5653.7
1843.7955	5639.6
1846.95454	5645.4
1850.11151	5650.9
1853.26642	5615.1
1856.41926	5624.4
1859.57004	5613.6
1862.71876	5618.2
1865.86542	5608.1
1869.01003	5612.9
1872.15258	5561.6
1875.29308	5606.4
1878.43152	5598.2
1881.56792	5571.4
1884.70227	5561.6
1887.83457	5557.5
1890.96482	5531
1894.09304	5551.8
1897.21921	5523.8
1900.34335	5524.1
1903.46544	5509.7
1906.58551	5529.4
1909.70353	5510.7
1912.81953	5487.3
1915.93349	5489.3
1919.04543	5477
1922.15534	5464.4
1925.26322	5477.7
1928.36908	5450.6
1931.47292	5453.9
1934.57473	5439.6
1937.67453	5417.3
1940.77232	5391
1943.86808	5394.6
1946.96184	5370.8
1950.05358	5351.9
1953.14331	5352.8
1956.23103	5332.4
1959.31675	5286.2
1962.40046	5257.7
1965.48217	5263.5
1968.56188	5258.3
1971.63959	5263.4
1974.7153	5229
1977.78901	5221.2
1980.86073	5218.9
1983.93046	5160.6
1986.99819	5091.8
1990.06394	5120.7
1993.1277	5129.7
1996.18947	5103.5
1999.24925	5069.3
2002.30706	5068.5
2005.36288	5071.6
2008.41672	5042.1
2011.46859	5033.9
2014.51848	5020.5
2017.56639	4979.3
2020.61233	4979.1
2023.6563	4964.7
2026.6983	4937.9
2029.73833	4923.9
2032.7764	4920.7
2035.8125	4876.1
2038.84664	4883.1
2041.87881	4871.9
2044.90903	4888.3
2047.93729	4867.6
2050.96359	4844.1
2053.98794	4857.6
2057.01034	4841.8
2060.03078	4831.7
2063.04927	4813.3
2066.06582	4837.7
2069.08042	4818.6
2072.09307	4809.6
2075.10378	4822.5
2078.11255	4796.1
2081.11938	4803
2084.12426	4786.8
2087.12722	4796.4
2090.12824	4792.1
2093.12732	4793.1
2096.12447	4819
2099.11969	4787.2
2102.11299	4787.1
2105.10435	4803.8
2108.09379	4794.4
2111.08131	4802.1
2114.0669	4780.6
2117.05057	4775.5
2120.03233	4775.2
2123.01216	4801.1
2125.99008	4794
2128.96609	4806.2
2131.94018	4813.9
2134.91236	4800.4
2137.88263	4791.1
2140.851	4822.6
2143.81746	4825.7
2146.78201	4803.1
2149.74466	4806.3
2152.7054	4816.9
2155.66425	4800.5
2158.6212	4788.2
2161.57625	4766.6
2164.52941	4736.4
2167.48067	4764.6
2170.43004	4772.8
2173.37752	4786.5
2176.32311	4756.4
2179.26681	4761.2
2182.20863	4769.1
2185.14856	4759.6
2188.08661	4753.6
2191.02278	4767.2
2193.95707	4748.7
2196.88948	4733.9
2199.82001	4754.8
2202.74867	4741.6
2205.67545	4740.2
2208.60037	4726.9
2211.52341	4723.9
2214.44458	4710.3
2217.36388	4695.1
2220.28132	4682.2
2223.1969	4654.8
2226.11061	4671.4
2229.02246	4627.4
2231.93245	4648.7
2234.84058	4633.4
2237.74686	4613.5
2240.65128	4601
2243.55385	4608.1
2246.45456	4589.4
2249.35343	4602.2
2252.25044	4580.7
2255.14561	4577.9
2258.03893	4588.7
2260.93041	4573.3
2263.82004	4545.2
2266.70783	4554.4
2269.59378	4533.4
2272.4779	4525.8
2275.36017	4524.1
2278.24061	4510.4
2281.11922	4472.5
2283.996	4497.2
2286.87094	4462.9
2289.74405	4463.5
2292.61534	4452.4
2295.4848	4442.2
2298.35243	4435.4
2301.21824	4424.4
2304.08223	4433.6
2306.94439	4433.6
2309.80474	4438.2
2312.66327	4424.4
2315.51999	4411.7
2318.37489	4394.1
2321.22797	4377.8
2324.07925	4391.3
2326.92871	4384.8
2329.77637	4366.8
2332.62222	4360.1
2335.46626	4330.7
2338.3085	4328.9
2341.14893	4337.5
2343.98756	4344.6
2346.8244	4327.4
2349.65943	4307.4
2352.49267	4303.7
2355.32411	4320.7
2358.15376	4308.8
2360.98161	4307.9
2363.80768	4290.6
2366.63195	4301.9
2369.45444	4314.8
2372.27514	4301.4
2375.09405	4303
2377.91118	4272.2
2380.72652	4262.6
2383.54009	4273.3
2386.35187	4256.6
2389.16188	4238.7
2391.97011	4228.6
2394.77657	4208.2
2397.58125	4212.2
2400.38416	4212
2403.18529	4190.1
2405.98466	4186
2408.78226	4174.9
2411.57809	4171.8
2414.37216	4162.8
2417.16446	4152.2
2419.955	4126
2422.74378	4142.7
2425.5308	4135.9
2428.31606	4126.5
2431.09956	4136.4
2433.88131	4110.3
2436.6613	4133
2439.43954	4098.1
2442.21603	4100.8
2444.99077	4091.2
2447.76377	4101.2
2450.53501	4104.3
2453.30451	4090.9
2456.07226	4082.8
2458.83827	4073.8
2461.60254	4026.7
2464.36507	4073
2467.12586	4061.6
2469.88492	4059.4
2472.64224	4051.4
2475.39782	4029.4
2478.15167	4043.8
2480.90379	4043
2483.65417	4058.6
2486.40283	4047
2489.14976	4055.2
2491.89497	4037.1
2494.63845	4045.2
2497.3802	4027.4
2500.12024	4013.1
2502.85855	4010.7
2505.59514	4020.1
2508.33002	3993.2
2511.06318	3983.4
2513.79462	3989.1
2516.52435	3961.9
2519.25237	3928.6
2521.97867	3935.8
2524.70327	3931.2
2527.42616	3935.1
2530.14734	3948.9
2532.86681	3920.2
2535.58458	3914.6
2538.30065	3898.4
2541.01501	3933.3
2543.72768	3905.8
2546.43864	3898.7
2549.14791	3891.2
2551.85548	3873.8
2554.56136	3865
2557.26554	3872.9
2559.96803	3861.4
2562.66883	3860.2
2565.36794	3839.6
2568.06536	3813.4
2570.7611	3848.9
2573.45514	3807.4
2576.14751	3803.9
2578.83819	3797.5
2581.52719	3770.9
2584.21451	3780.5
2586.90015	3749.2
2589.58411	3748.5
2592.2664	3760.6
2594.94701	3757
2597.62594	3751.8
2600.30321	3681.8
2602.9788	3697.4
2605.65273	3708.2
2608.32498	3702.8
2610.99557	3720.5
2613.66449	3690.5
2616.33175	3704.4
2618.99734	3703
2621.66128	3695
2624.32355	3682.7
2626.98416	3663.4
2629.64311	3663.7
2632.30041	3654.6
2634.95605	3622.4
2637.61004	3626.1
2640.26238	3607.2
2642.91306	3613.5
2645.56209	3631.7
2648.20948	3643.2
2650.85521	3600.9
2653.4993	3617.2
2656.14175	3615.2
2658.78255	3603.4
2661.42171	3570.8
2664.05923	3628.9
2666.6951	3613.9
2669.32934	3627.7
2671.96194	3619.5
2674.59291	3602.7
2677.22224	3608.9
2679.84993	3607.6
2682.476	3597.4
2685.10043	3592.5
2687.72324	3590.4
2690.34441	3581.4
2692.96396	3580.4
2695.58188	3600.1
2698.19818	3586.7
2700.81285	3568.6
2703.4259	3566
2706.03733	3531
2708.64714	3540.1
2711.25533	3570.4
2713.86191	3570.2
2716.46687	3556.1
2719.07021	3571.6
2721.67194	3563.6
2724.27206	3584.9
2726.87057	3572.3
2729.46747	3555.3
2732.06276	3564
2734.65644	3545.9
2737.24852	3539.7
2739.83899	3525.4
2742.42786	3526.5
2745.01513	3525.9
2747.60079	3520.7
2750.18486	3489.2
2752.76733	3504.9
2755.3482	3505.4
2757.92747	3492.8
2760.50515	3476.1
2763.08123	3461.4
2765.65573	3467.1
2768.22863	3462.1
2770.79994	3448.1
2773.36967	3447.5
2775.9378	3440.9
2778.50435	3431.9
2781.06932	3422.7
2783.6327	3405.1
2786.1945	3430.8
2788.75471	3416.8
2791.31335	3412.2
2793.87041	3423.9
2796.42589	3390.5
2798.97979	3393.5
2801.53212	3384.2
2804.08288	3397
2806.63206	3364.5
2809.17967	3350.9
2811.72571	3363.9
2814.27018	3354.9
2816.81308	3342.6
2819.35442	3307.9
2821.89419	3317.6
2824.43239	3316.4
2826.96904	3347.6
2829.50412	3306.7
2832.03763	3306.2
2834.56959	3302.3
2837.1	3297.7
2839.62884	3309.2
2842.15613	3286.9
2844.68186	3303.4
2847.20604	3266.5
2849.72867	3252.6
2852.24974	3279.8
2854.76927	3235.8
2857.28724	3190.6
2859.80367	3240.9
2862.31855	3250.7
2864.83189	3243.3
2867.34368	3242.2
2869.85393	3239.9
2872.36264	3221.4
2874.8698	3223.7
2877.37543	3235.1
2879.87952	3223.9
2882.38207	3188.4
2884.88308	3220.7
2887.38256	3215.5
2889.88051	3195.6
2892.37692	3197.1
2894.8718	3182.5
2897.36515	3203.1
2899.85698	3199.6
2902.34727	3191.7
2904.83604	3187.1
2907.32328	3209
2909.809	3200.2
2912.29319	3181.8
2914.77587	3204.7
2917.25702	3207.8
2919.73665	3216.2
2922.21476	3206.1
2924.69136	3218.1
2927.16644	3194.2
2929.64	3198.4
2932.11205	3173
2934.58258	3192.5
2937.05161	3180.1
2939.51912	3180.9
2941.98513	3179.4
2944.44962	3162.3
2946.91261	3140.8
2949.37409	3140.1
2951.83407	3145.1
2954.29254	3134.6
2956.74951	3146.7
2959.20498	3131.8
2961.65895	3127.4
2964.11142	3114.8
2966.56239	3106.9
2969.01186	3112.8
2971.45984	3097.2
2973.90632	3099.7
2976.35131	3106.3
2978.7948	3095.7
2981.23681	3076.2
2983.67732	3080.9
2986.11635	3075.3
2988.55388	3044.2
2990.98993	3058
2993.4245	3044.8
2995.85758	3032.9
2998.28917	3030.4
3000.71928	3010.5
3003.14791	3017.6
3005.57506	2993.5
3008.00073	2982.2
3010.42493	2932.6
3012.84764	2970.3
3015.26888	2976.5
3017.68865	2972.6
3020.10694	2928.6
3022.52376	2935.8
3024.9391	2938.4
3027.35298	2921.5
3029.76539	2915.4
3032.17632	2919.7
3034.5858	2910.2
3036.9938	2908.7
3039.40034	2899
3041.80542	2893
3044.20903	2874.1
3046.61118	2856.8
3049.01187	2881
3051.4111	2854.6
3053.80888	2839.7
3056.20519	2847.7
3058.60005	2818.6
3060.99345	2835.7
3063.3854	2809.5
3065.7759	2813
3068.16494	2796
3070.55254	2794
3072.93868	2789.8
3075.32338	2777.1
3077.70662	2779.2
3080.08842	2773.6
3082.46878	2755.2
3084.84769	2768.4
3087.22515	2745
3089.60118	2762.5
3091.97576	2748.4
3094.3489	2749.7
3096.72061	2749.3
3099.09087	2733.7
3101.4597	2748.6
3103.82709	2748.8
3106.19305	2717.3
3108.55757	2726
3110.92066	2701.9
3113.28232	2719.1
3115.64255	2706.8
3118.00134	2701.1
3120.35871	2683.9
3122.71466	2668.8
3125.06917	2676.6
3127.42226	2668.8
3129.77393	2641.1
3132.12417	2665.7
3134.47299	2649.9
3136.82039	2645.2
3139.16636	2619
3141.51092	2635.9
3143.85406	2646.1
3146.19579	2623.3
3148.53609	2622.3
3150.87499	2631
3153.21246	2618.1
3155.54853	2632
3157.88318	2630.1
3160.21642	2637.7
3162.54826	2617.1
3164.87868	2623.6
3167.2077	2575.1
3169.5353	2598.3
3171.86151	2608.5
3174.18631	2602.5
3176.5097	2595.6
3178.83169	2592.6
3181.15228	2600.7
3183.47147	2572.2
3185.78926	2555.9
3188.10565	2559.1
3190.42065	2542.7
3192.73424	2550.4
3195.04645	2543.7
3197.35725	2525
3199.66667	2528
3201.97469	2533.7
3204.28132	2522.2
3206.58656	2534.8
3208.8904	2539
3211.19287	2523.1
3213.49394	2526.3
3215.79363	2504.8
3218.09193	2522.7
3220.38884	2517
3222.68438	2514.7
3224.97853	2495.9
3227.2713	2507.7
3229.56269	2490.5
3231.8527	2504
3234.14133	2486.6
3236.42858	2486.1
3238.71446	2466.6
3240.99896	2470.5
3243.28209	2464.9
3245.56384	2463.4
3247.84423	2443.4
3250.12324	2453.5
3252.40088	2444.5
3254.67715	2438.8
3256.95205	2436.1
3259.22558	2437
3261.49775	2453.6
3263.76855	2427.1
3266.03799	2431.5
3268.30606	2422.9
3270.57277	2429.6
3272.83812	2409.8
3275.10211	2413.1
3277.36474	2431
3279.62601	2401.8
3281.88593	2391.3
3284.14448	2374.8
3286.40168	2394.7
3288.65753	2373.5
3290.91202	2362.5
3293.16516	2350.5
3295.41695	2375.5
3297.66738	2379.1
3299.91647	2350.2
3302.16421	2346.4
3304.4106	2293.8
3306.65564	2322.8
3308.89933	2273.9
3311.14169	2267.1
3313.38269	2262.4
3315.62236	2233.7
3317.86068	2216
3320.09766	2217.4
3322.3333	2178.4
3324.5676	2166.9
3326.80056	2136.3
3329.03219	2130.2
3331.26248	1
3333.49143	-0.9
3335.71905	-0.3
