Data from AgNPs_UA_5uM_CRN_500uM_SU_RamanShift__191__12-01-13-177.txt Node

Date: Thu Aug 04 12:01:13 BST 2022
User: TCL
Spectrometer: QEP01345
Trigger mode: 4
Integration Time (sec): 1.000000E0
Scans to average: 10
Electric dark correction enabled: true
Nonlinearity correction enabled: false
Boxcar width: 0
XAxis mode: Raman Shifts
Number of Pixels in Spectrum: 1044
>>>>>Begin Spectral Data<<<<<
46.04893	-0.3375
50.45542	0.0625
54.85868	-0.0375
59.25871	-0.4375
63.6555	-57.5375
68.04907	-40.4375
72.43941	-71.5375
76.82654	-56.3375
81.21044	-56.7375
85.59113	-48.4375
89.96862	-74.6375
94.34289	-56.9375
98.71396	-75.9375
103.08183	-57.6375
107.4465	-50.4375
111.80798	-55.7375
116.16626	-42.7375
120.52136	-75.2375
124.87327	-50.2375
129.222	-63.3375
133.56755	-48.1375
137.90993	-62.9375
142.24913	-49.7375
146.58517	-44.4375
150.91804	-38.8375
155.24774	-30.7375
159.57429	-7.1375
163.89768	-4.1375
168.21792	38.4625
172.53501	60.9625
176.84895	139.5625
181.15975	277.0625
185.46741	420.8625
189.77193	614.2625
194.07331	901.9625
198.37157	1202.6625
202.6667	1477.5625
206.9587	1811.4625
211.24758	2118.1625
215.53334	2450.1625
219.81599	2807.1625
224.09553	3212.9625
228.37195	3659.7625
232.64527	4115.6625
236.91549	4611.9625
241.18261	4956.3625
245.44663	5253.9625
249.70755	5423.7625
253.96539	5543.3625
258.22014	5668.7625
262.4718	5724.1625
266.72039	5779.5625
270.96589	5747.9625
275.20832	5633.2625
279.44768	5533.6625
283.68397	5415.6625
287.91719	5363.0625
292.14735	5400.1625
296.37445	5557.4625
300.59849	5835.7625
304.81948	6194.4625
309.03742	6567.0625
313.25231	6819.5625
317.46415	6745.0625
321.67296	6352.5625
325.87872	5957.6625
330.08145	5759.2625
334.28114	5713.0625
338.47781	5771.6625
342.67145	5916.4625
346.86207	6149.0625
351.04966	6540.3625
355.23424	6923.0625
359.4158	7194.2625
363.59435	7257.5625
367.76989	7182.3625
371.94243	7029.2625
376.11196	6905.7625
380.27849	6846.4625
384.44203	6771.7625
388.60257	6755.0625
392.76012	6742.1625
396.91468	6848.6625
401.06626	7007.1625
405.21485	7058.4625
409.36047	6889.2625
413.50311	6558.5625
417.64277	6265.6625
421.77947	6051.4625
425.9132	5990.6625
430.04396	5980.0625
434.17176	6013.1625
438.2966	6115.5625
442.41849	6196.2625
446.53742	6311.3625
450.6534	6415.8625
454.76644	6500.3625
458.87653	6502.2625
462.98368	6463.1625
467.08789	6405.2625
471.18916	6322.4625
475.2875	6189.0625
479.38291	6088.4625
483.4754	5996.3625
487.56496	5955.0625
491.6516	5925.9625
495.73531	5916.6625
499.81612	5930.9625
503.89401	6033.1625
507.96899	6092.1625
512.04106	6172.3625
516.11023	6303.2625
520.1765	6370.3625
524.23987	6399.7625
528.30034	6377.4625
532.35792	6325.0625
536.41261	6251.5625
540.46441	6148.8625
544.51333	6117.1625
548.55936	6155.1625
552.60252	6285.9625
556.64279	6389.2625
560.6802	6512.1625
564.71473	6663.2625
568.7464	6834.6625
572.7752	6818.7625
576.80114	6494.4625
580.82422	6261.9625
584.84444	6165.4625
588.86181	6142.8625
592.87633	6182.0625
596.888	6301.9625
600.89682	6656.3625
604.9028	7638.5625
608.90594	9761.3625
612.90624	12123.2625
616.90371	11270.4625
620.89834	8142.8625
624.89015	6818.2625
628.87913	6615.4625
632.86528	6760.2625
636.84862	6934.1625
640.82913	6806.0625
644.80683	6444.2625
648.78172	6264.4625
652.75379	6272.6625
656.72306	6514.4625
660.68952	6755.7625
664.65319	6691.2625
668.61405	6443.7625
672.57211	6385.6625
676.52738	6383.4625
680.47986	6258.0625
684.42955	6169.4625
688.37646	6126.7625
692.32058	6138.3625
696.26192	6208.5625
700.20048	6317.3625
704.13626	6356.3625
708.06928	6322.2625
711.99952	6264.4625
715.927	6241.5625
719.85171	6279.3625
723.77365	6342.9625
727.69284	6321.5625
731.60928	6299.8625
735.52295	6270.3625
739.43388	6311.3625
743.34206	6324.1625
747.24749	6357.4625
751.15017	6361.0625
755.05012	6440.2625
758.94733	6795.1625
762.8418	7657.3625
766.73354	9001.1625
770.62254	10010.5625
774.50882	10107.3625
778.39237	9556.0625
782.27321	8652.8625
786.15132	7603.6625
790.02671	6927.4625
793.89938	6522.4625
797.76935	6410.0625
801.6366	6315.6625
805.50115	6288.7625
809.36299	6255.0625
813.22213	6263.3625
817.07857	6254.9625
820.93231	6255.1625
824.78336	6288.3625
828.63172	6300.4625
832.47738	6310.6625
836.32036	6305.2625
840.16066	6254.0625
843.99827	6266.1625
847.8332	6257.2625
851.66546	6278.9625
855.49504	6268.0625
859.32195	6284.8625
863.1462	6303.0625
866.96777	6306.6625
870.78668	6274.4625
874.60293	6294.6625
878.41652	6332.4625
882.22745	6393.1625
886.03573	6446.8625
889.84136	6436.5625
893.64433	6426.5625
897.44466	6403.6625
901.24235	6418.8625
905.0374	6389.7625
908.8298	6344.1625
912.61957	6308.0625
916.40671	6276.0625
920.19121	6320.3625
923.97308	6388.8625
927.75233	6466.3625
931.52895	6551.4625
935.30295	6518.9625
939.07433	6353.3625
942.84309	6225.9625
946.60924	6190.0625
950.37278	6158.0625
954.13371	6168.3625
957.89203	6157.2625
961.64774	6185.6625
965.40086	6145.8625
969.15137	6131.8625
972.89929	6176.7625
976.64461	6149.6625
980.38733	6171.8625
984.12747	6191.4625
987.86502	6187.3625
991.59999	6218.2625
995.33237	6300.4625
999.06217	6369.0625
1002.78939	6453.5625
1006.51404	6569.6625
1010.23611	6696.5625
1013.95561	6740.5625
1017.67255	6731.9625
1021.38692	6731.4625
1025.09872	6661.9625
1028.80796	6561.3625
1032.51465	6569.9625
1036.21877	6555.8625
1039.92035	6603.2625
1043.61937	6631.3625
1047.31584	6691.5625
1051.00976	6714.5625
1054.70114	6722.9625
1058.38998	6714.8625
1062.07627	6736.8625
1065.76003	6778.5625
1069.44126	6824.1625
1073.11995	6911.7625
1076.79611	7051.4625
1080.46974	7198.5625
1084.14085	7378.1625
1087.80943	7501.2625
1091.47549	7541.4625
1095.13903	7433.9625
1098.80005	7330.9625
1102.45857	7224.2625
1106.11456	7206.4625
1109.76805	7143.1625
1113.41903	7261.9625
1117.06751	7413.2625
1120.71348	7692.0625
1124.35696	8063.6625
1127.99793	8366.3625
1131.63641	8192.2625
1135.2724	7790.7625
1138.90589	7471.4625
1142.5369	7271.9625
1146.16542	7179.2625
1149.79145	7059.2625
1153.415	7026.0625
1157.03607	7015.2625
1160.65467	7109.3625
1164.27079	7316.2625
1167.88443	7563.0625
1171.49561	7985.1625
1175.10432	8582.0625
1178.71056	9507.3625
1182.31434	10282.3625
1185.91565	10565.2625
1189.51451	10397.3625
1193.11091	10126.2625
1196.70485	9891.2625
1200.29634	9666.9625
1203.88538	9393.5625
1207.47197	8941.5625
1211.05612	8477.0625
1214.63782	8085.1625
1218.21708	7820.1625
1221.79391	7667.7625
1225.36829	7598.8625
1228.94024	7576.6625
1232.50976	7584.1625
1236.07685	7634.3625
1239.6415	7656.7625
1243.20374	7680.8625
1246.76355	7719.6625
1250.32093	7788.3625
1253.8759	7850.4625
1257.42845	8024.2625
1260.97859	8235.9625
1264.52631	8488.1625
1268.07163	8624.8625
1271.61453	8750.4625
1275.15503	8828.9625
1278.69312	8823.7625
1282.22882	8875.2625
1285.76211	9088.8625
1289.29301	9349.7625
1292.82151	9610.1625
1296.34761	9832.1625
1299.87133	10217.1625
1303.39266	10919.5625
1306.9116	12081.6625
1310.42815	13299.3625
1313.94233	13775.4625
1317.45412	12938.4625
1320.96354	11802.6625
1324.47058	10791.7625
1327.97525	10058.2625
1331.47754	9624.3625
1334.97747	9527.3625
1338.47502	9644.9625
1341.97022	10026.7625
1345.46305	10763.2625
1348.95352	11812.8625
1352.44163	13094.5625
1355.92738	14464.8625
1359.41078	16133.9625
1362.89183	17633.1625
1366.37053	17008.9625
1369.84688	14115.3625
1373.32088	11418.4625
1376.79254	10033.8625
1380.26186	9389.4625
1383.72883	8994.3625
1387.19347	8583.6625
1390.65578	8253.3625
1394.11575	7970.3625
1397.57339	7823.4625
1401.0287	7730.6625
1404.48168	7684.2625
1407.93234	7703.2625
1411.38068	7722.9625
1414.82669	7811.4625
1418.27039	7896.6625
1421.71177	7876.7625
1425.15083	7772.5625
1428.58758	7692.0625
1432.02203	7720.1625
1435.45416	7795.6625
1438.88399	7818.0625
1442.31151	7821.9625
1445.73673	7847.4625
1449.15965	7923.9625
1452.58027	7935.3625
1455.9986	7932.5625
1459.41463	7951.6625
1462.82837	8026.9625
1466.23982	8220.1625
1469.64898	8452.4625
1473.05586	8588.0625
1476.46045	8693.3625
1479.86276	8732.7625
1483.26279	8846.1625
1486.66054	9046.3625
1490.05602	9309.0625
1493.44922	9833.5625
1496.84016	10728.9625
1500.22882	12109.1625
1503.61521	13844.8625
1506.99934	15629.3625
1510.38121	16838.9625
1513.76081	16726.0625
1517.13816	15142.3625
1520.51324	13001.9625
1523.88607	11302.1625
1527.25665	10257.6625
1530.62498	9768.5625
1533.99105	9557.8625
1537.35488	9434.6625
1540.71647	9344.0625
1544.07581	9219.9625
1547.4329	9088.1625
1550.78776	8975.3625
1554.14038	8893.7625
1557.49077	8856.7625
1560.83892	8947.5625
1564.18484	9167.7625
1567.52853	9526.3625
1570.86999	9826.1625
1574.20922	9963.6625
1577.54624	9886.4625
1580.88103	9353.7625
1584.2136	8658.6625
1587.54395	8325.2625
1590.87208	8222.3625
1594.19801	8391.9625
1597.52172	8769.4625
1600.84321	8888.5625
1604.16251	8776.0625
1607.47959	8572.5625
1610.79447	8395.2625
1614.10715	8099.3625
1617.41763	7802.2625
1620.7259	7519.1625
1624.03199	7370.5625
1627.33587	7297.0625
1630.63757	7359.4625
1633.93707	7585.4625
1637.23439	8000.1625
1640.52951	8710.2625
1643.82246	9672.7625
1647.11321	10853.1625
1650.40179	11582.1625
1653.68819	11237.9625
1656.97241	9996.6625
1660.25446	8582.9625
1663.53433	7571.6625
1666.81203	6974.3625
1670.08756	6647.4625
1673.36092	6442.1625
1676.63211	6308.4625
1679.90115	6213.9625
1683.16801	6128.8625
1686.43272	6046.4625
1689.69527	6013.6625
1692.95567	5940.8625
1696.2139	5920.6625
1699.46999	5878.6625
1702.72392	5864.4625
1705.97571	5878.3625
1709.22535	5847.0625
1712.47284	5896.8625
1715.71819	5885.4625
1718.96139	5892.9625
1722.20246	5877.1625
1725.44139	5835.0625
1728.67818	5831.2625
1731.91284	5772.8625
1735.14537	5732.6625
1738.37576	5704.1625
1741.60403	5697.7625
1744.83017	5657.9625
1748.05418	5667.9625
1751.27607	5662.6625
1754.49584	5639.7625
1757.71349	5589.2625
1760.92903	5605.6625
1764.14244	5552.3625
1767.35375	5560.2625
1770.56294	5547.5625
1773.77002	5522.5625
1776.97499	5544.9625
1780.17785	5523.9625
1783.37861	5512.7625
1786.57727	5496.0625
1789.77382	5453.7625
1792.96828	5486.7625
1796.16064	5487.2625
1799.3509	5465.6625
1802.53907	5475.7625
1805.72514	5446.2625
1808.90913	5400.9625
1812.09102	5409.2625
1815.27083	5406.4625
1818.44856	5388.4625
1821.6242	5388.3625
1824.79776	5376.0625
1827.96924	5355.2625
1831.13864	5333.6625
1834.30597	5348.4625
1837.47122	5325.3625
1840.6344	5315.9625
1843.7955	5296.1625
1846.95454	5290.3625
1850.11151	5308.3625
1853.26642	5274.1625
1856.41926	5267.0625
1859.57004	5280.5625
1862.71876	5281.4625
1865.86542	5274.4625
1869.01003	5269.4625
1872.15258	5246.6625
1875.29308	5258.6625
1878.43152	5245.6625
1881.56792	5230.9625
1884.70227	5222.4625
1887.83457	5205.6625
1890.96482	5204.9625
1894.09304	5186.1625
1897.21921	5189.7625
1900.34335	5180.3625
1903.46544	5181.6625
1906.58551	5184.8625
1909.70353	5180.5625
1912.81953	5171.0625
1915.93349	5152.2625
1919.04543	5131.6625
1922.15534	5132.6625
1925.26322	5121.8625
1928.36908	5106.0625
1931.47292	5115.7625
1934.57473	5114.5625
1937.67453	5074.7625
1940.77232	5044.2625
1943.86808	5026.5625
1946.96184	5048.4625
1950.05358	5019.3625
1953.14331	4972.2625
1956.23103	5004.0625
1959.31675	4958.9625
1962.40046	4909.3625
1965.48217	4943.4625
1968.56188	4934.6625
1971.63959	4918.8625
1974.7153	4925.4625
1977.78901	4891.3625
1980.86073	4887.6625
1983.93046	4833.0625
1986.99819	4764.5625
1990.06394	4799.5625
1993.1277	4809.9625
1996.18947	4769.8625
1999.24925	4731.4625
2002.30706	4757.3625
2005.36288	4744.1625
2008.41672	4721.9625
2011.46859	4694.6625
2014.51848	4674.1625
2017.56639	4651.6625
2020.61233	4645.0625
2023.6563	4646.5625
2026.6983	4590.5625
2029.73833	4598.8625
2032.7764	4608.0625
2035.8125	4561.7625
2038.84664	4566.4625
2041.87881	4556.2625
2044.90903	4553.0625
2047.93729	4559.6625
2050.96359	4527.5625
2053.98794	4528.0625
2057.01034	4539.0625
2060.03078	4519.3625
2063.04927	4504.3625
2066.06582	4511.9625
2069.08042	4488.2625
2072.09307	4500.1625
2075.10378	4490.0625
2078.11255	4477.6625
2081.11938	4487.2625
2084.12426	4477.2625
2087.12722	4467.1625
2090.12824	4461.2625
2093.12732	4454.6625
2096.12447	4468.7625
2099.11969	4465.4625
2102.11299	4469.2625
2105.10435	4493.9625
2108.09379	4472.3625
2111.08131	4462.9625
2114.0669	4465.5625
2117.05057	4471.3625
2120.03233	4456.4625
2123.01216	4469.2625
2125.99008	4481.1625
2128.96609	4487.7625
2131.94018	4516.5625
2134.91236	4474.9625
2137.88263	4487.9625
2140.851	4484.5625
2143.81746	4498.7625
2146.78201	4494.6625
2149.74466	4486.3625
2152.7054	4480.5625
2155.66425	4463.9625
2158.6212	4482.2625
2161.57625	4430.9625
2164.52941	4433.7625
2167.48067	4430.7625
2170.43004	4443.1625
2173.37752	4458.4625
2176.32311	4440.1625
2179.26681	4434.2625
2182.20863	4439.6625
2185.14856	4448.8625
2188.08661	4426.9625
2191.02278	4434.4625
2193.95707	4418.7625
2196.88948	4394.9625
2199.82001	4425.1625
2202.74867	4411.2625
2205.67545	4406.4625
2208.60037	4418.5625
2211.52341	4387.4625
2214.44458	4384.5625
2217.36388	4364.2625
2220.28132	4353.8625
2223.1969	4342.4625
2226.11061	4327.6625
2229.02246	4324.3625
2231.93245	4322.7625
2234.84058	4286.7625
2237.74686	4290.7625
2240.65128	4293.2625
2243.55385	4287.8625
2246.45456	4251.8625
2249.35343	4287.5625
2252.25044	4265.6625
2255.14561	4261.1625
2258.03893	4262.0625
2260.93041	4258.3625
2263.82004	4241.4625
2266.70783	4239.1625
2269.59378	4216.5625
2272.4779	4199.2625
2275.36017	4200.0625
2278.24061	4189.4625
2281.11922	4157.4625
2283.996	4177.8625
2286.87094	4151.7625
2289.74405	4155.7625
2292.61534	4162.2625
2295.4848	4146.8625
2298.35243	4138.2625
2301.21824	4127.3625
2304.08223	4126.3625
2306.94439	4114.3625
2309.80474	4122.7625
2312.66327	4119.5625
2315.51999	4094.7625
2318.37489	4098.2625
2321.22797	4067.8625
2324.07925	4060.3625
2326.92871	4079.2625
2329.77637	4052.0625
2332.62222	4046.6625
2335.46626	4020.1625
2338.3085	4032.7625
2341.14893	4022.6625
2343.98756	4050.7625
2346.8244	4015.9625
2349.65943	4000.7625
2352.49267	3994.1625
2355.32411	4010.7625
2358.15376	4012.2625
2360.98161	4014.9625
2363.80768	4003.5625
2366.63195	3994.8625
2369.45444	4020.6625
2372.27514	4003.4625
2375.09405	4016.4625
2377.91118	3975.9625
2380.72652	3966.2625
2383.54009	3971.9625
2386.35187	3962.2625
2389.16188	3930.2625
2391.97011	3935.6625
2394.77657	3925.7625
2397.58125	3939.8625
2400.38416	3923.4625
2403.18529	3892.5625
2405.98466	3875.7625
2408.78226	3893.3625
2411.57809	3863.1625
2414.37216	3862.8625
2417.16446	3862.6625
2419.955	3838.5625
2422.74378	3852.8625
2425.5308	3834.4625
2428.31606	3831.9625
2431.09956	3843.6625
2433.88131	3817.5625
2436.6613	3817.2625
2439.43954	3810.8625
2442.21603	3824.6625
2444.99077	3793.5625
2447.76377	3819.6625
2450.53501	3802.9625
2453.30451	3794.6625
2456.07226	3798.6625
2458.83827	3784.2625
2461.60254	3747.6625
2464.36507	3773.9625
2467.12586	3748.9625
2469.88492	3748.5625
2472.64224	3775.2625
2475.39782	3749.7625
2478.15167	3756.3625
2480.90379	3753.7625
2483.65417	3765.9625
2486.40283	3759.1625
2489.14976	3768.5625
2491.89497	3761.2625
2494.63845	3752.9625
2497.3802	3744.9625
2500.12024	3745.7625
2502.85855	3735.0625
2505.59514	3740.8625
2508.33002	3732.7625
2511.06318	3704.9625
2513.79462	3710.1625
2516.52435	3670.3625
2519.25237	3653.2625
2521.97867	3661.7625
2524.70327	3649.2625
2527.42616	3664.3625
2530.14734	3661.3625
2532.86681	3639.4625
2535.58458	3642.9625
2538.30065	3629.8625
2541.01501	3646.3625
2543.72768	3615.4625
2546.43864	3631.9625
2549.14791	3608.7625
2551.85548	3597.2625
2554.56136	3590.1625
2557.26554	3591.7625
2559.96803	3581.5625
2562.66883	3575.2625
2565.36794	3561.7625
2568.06536	3535.0625
2570.7611	3571.5625
2573.45514	3548.8625
2576.14751	3535.0625
2578.83819	3522.0625
2581.52719	3508.7625
2584.21451	3505.0625
2586.90015	3486.3625
2589.58411	3465.3625
2592.2664	3486.1625
2594.94701	3474.9625
2597.62594	3485.4625
2600.30321	3418.4625
2602.9788	3432.2625
2605.65273	3425.3625
2608.32498	3430.8625
2610.99557	3456.9625
2613.66449	3420.7625
2616.33175	3426.8625
2618.99734	3425.9625
2621.66128	3427.2625
2624.32355	3406.0625
2626.98416	3394.5625
2629.64311	3394.8625
2632.30041	3369.8625
2634.95605	3367.0625
2637.61004	3351.5625
2640.26238	3335.0625
2642.91306	3346.7625
2645.56209	3372.6625
2648.20948	3362.8625
2650.85521	3331.7625
2653.4993	3359.1625
2656.14175	3337.8625
2658.78255	3324.3625
2661.42171	3310.2625
2664.05923	3342.9625
2666.6951	3358.2625
2669.32934	3348.4625
2671.96194	3369.5625
2674.59291	3340.0625
2677.22224	3351.0625
2679.84993	3344.5625
2682.476	3329.4625
2685.10043	3327.9625
2687.72324	3324.6625
2690.34441	3325.3625
2692.96396	3316.1625
2695.58188	3340.4625
2698.19818	3325.2625
2700.81285	3317.8625
2703.4259	3303.7625
2706.03733	3287.4625
2708.64714	3285.8625
2711.25533	3306.8625
2713.86191	3308.3625
2716.46687	3309.5625
2719.07021	3301.3625
2721.67194	3314.8625
2724.27206	3324.3625
2726.87057	3295.1625
2729.46747	3298.2625
2732.06276	3299.6625
2734.65644	3286.6625
2737.24852	3277.8625
2739.83899	3248.7625
2742.42786	3269.8625
2745.01513	3278.3625
2747.60079	3256.8625
2750.18486	3242.9625
2752.76733	3236.8625
2755.3482	3223.2625
2757.92747	3239.8625
2760.50515	3225.3625
2763.08123	3212.8625
2765.65573	3208.7625
2768.22863	3200.1625
2770.79994	3180.0625
2773.36967	3192.9625
2775.9378	3173.1625
2778.50435	3181.3625
2781.06932	3172.3625
2783.6327	3163.7625
2786.1945	3177.3625
2788.75471	3171.8625
2791.31335	3163.2625
2793.87041	3155.9625
2796.42589	3129.8625
2798.97979	3129.8625
2801.53212	3134.1625
2804.08288	3142.3625
2806.63206	3127.7625
2809.17967	3107.2625
2811.72571	3111.8625
2814.27018	3109.1625
2816.81308	3096.9625
2819.35442	3059.1625
2821.89419	3075.5625
2824.43239	3055.8625
2826.96904	3087.6625
2829.50412	3071.5625
2832.03763	3070.2625
2834.56959	3067.2625
2837.1	3042.2625
2839.62884	3052.6625
2842.15613	3046.7625
2844.68186	3058.8625
2847.20604	3027.3625
2849.72867	3024.0625
2852.24974	3026.1625
2854.76927	2997.2625
2857.28724	2959.5625
2859.80367	3021.4625
2862.31855	3001.8625
2864.83189	3006.2625
2867.34368	3012.0625
2869.85393	3018.4625
2872.36264	2995.0625
2874.8698	2994.1625
2877.37543	3008.9625
2879.87952	2990.4625
2882.38207	2970.7625
2884.88308	2989.8625
2887.38256	2977.9625
2889.88051	2967.3625
2892.37692	2972.4625
2894.8718	2953.6625
2897.36515	2968.8625
2899.85698	2951.7625
2902.34727	2954.1625
2904.83604	2955.9625
2907.32328	2986.1625
2909.809	2976.0625
2912.29319	2979.3625
2914.77587	2977.9625
2917.25702	2996.3625
2919.73665	3002.0625
2922.21476	2984.1625
2924.69136	2992.0625
2927.16644	2959.9625
2929.64	2980.5625
2932.11205	2962.9625
2934.58258	2957.1625
2937.05161	2938.6625
2939.51912	2947.9625
2941.98513	2964.1625
2944.44962	2933.0625
2946.91261	2914.8625
2949.37409	2915.0625
2951.83407	2922.0625
2954.29254	2902.3625
2956.74951	2913.1625
2959.20498	2886.4625
2961.65895	2901.1625
2964.11142	2884.4625
2966.56239	2877.2625
2969.01186	2883.3625
2971.45984	2888.2625
2973.90632	2860.8625
2976.35131	2885.7625
2978.7948	2875.1625
2981.23681	2858.7625
2983.67732	2857.8625
2986.11635	2847.2625
2988.55388	2830.4625
2990.98993	2832.1625
2993.4245	2819.2625
2995.85758	2813.2625
2998.28917	2800.5625
3000.71928	2797.3625
3003.14791	2790.4625
3005.57506	2782.9625
3008.00073	2771.4625
3010.42493	2702.3625
3012.84764	2755.8625
3015.26888	2767.3625
3017.68865	2748.4625
3020.10694	2700.7625
3022.52376	2721.3625
3024.9391	2728.3625
3027.35298	2707.1625
3029.76539	2694.9625
3032.17632	2698.7625
3034.5858	2681.8625
3036.9938	2695.7625
3039.40034	2687.4625
3041.80542	2670.6625
3044.20903	2658.4625
3046.61118	2654.2625
3049.01187	2673.8625
3051.4111	2654.7625
3053.80888	2641.2625
3056.20519	2617.7625
3058.60005	2610.3625
3060.99345	2637.6625
3063.3854	2619.8625
3065.7759	2598.9625
3068.16494	2580.6625
3070.55254	2578.2625
3072.93868	2593.0625
3075.32338	2584.4625
3077.70662	2569.5625
3080.08842	2546.0625
3082.46878	2543.4625
3084.84769	2560.6625
3087.22515	2548.2625
3089.60118	2563.5625
3091.97576	2537.7625
3094.3489	2547.4625
3096.72061	2543.7625
3099.09087	2527.9625
3101.4597	2544.9625
3103.82709	2522.2625
3106.19305	2513.2625
3108.55757	2524.5625
3110.92066	2504.1625
3113.28232	2524.1625
3115.64255	2515.6625
3118.00134	2488.7625
3120.35871	2479.4625
3122.71466	2473.7625
3125.06917	2472.4625
3127.42226	2460.1625
3129.77393	2445.0625
3132.12417	2453.1625
3134.47299	2469.1625
3136.82039	2443.3625
3139.16636	2415.6625
3141.51092	2443.0625
3143.85406	2447.5625
3146.19579	2428.2625
3148.53609	2427.4625
3150.87499	2427.3625
3153.21246	2429.9625
3155.54853	2432.9625
3157.88318	2443.2625
3160.21642	2445.1625
3162.54826	2430.6625
3164.87868	2422.1625
3167.2077	2392.8625
3169.5353	2416.5625
3171.86151	2432.6625
3174.18631	2390.8625
3176.5097	2399.1625
3178.83169	2394.5625
3181.15228	2401.4625
3183.47147	2376.1625
3185.78926	2359.1625
3188.10565	2376.6625
3190.42065	2348.5625
3192.73424	2358.9625
3195.04645	2363.2625
3197.35725	2336.8625
3199.66667	2342.3625
3201.97469	2343.0625
3204.28132	2321.0625
3206.58656	2329.3625
3208.8904	2352.3625
3211.19287	2331.3625
3213.49394	2339.8625
3215.79363	2322.9625
3218.09193	2337.8625
3220.38884	2324.0625
3222.68438	2328.8625
3224.97853	2301.9625
3227.2713	2327.0625
3229.56269	2302.1625
3231.8527	2302.3625
3234.14133	2299.5625
3236.42858	2296.6625
3238.71446	2284.8625
3240.99896	2289.3625
3243.28209	2265.8625
3245.56384	2277.5625
3247.84423	2260.3625
3250.12324	2271.9625
3252.40088	2261.6625
3254.67715	2245.5625
3256.95205	2251.1625
3259.22558	2249.9625
3261.49775	2260.6625
3263.76855	2256.7625
3266.03799	2254.4625
3268.30606	2246.9625
3270.57277	2245.4625
3272.83812	2219.3625
3275.10211	2222.3625
3277.36474	2240.0625
3279.62601	2224.8625
3281.88593	2209.5625
3284.14448	2185.8625
3286.40168	2214.7625
3288.65753	2198.8625
3290.91202	2198.3625
3293.16516	2186.5625
3295.41695	2205.4625
3297.66738	2190.3625
3299.91647	2176.0625
3302.16421	2174.8625
3304.4106	2125.6625
3306.65564	2148.6625
3308.89933	2111.0625
3311.14169	2105.7625
3313.38269	2092.4625
3315.62236	2078.8625
3317.86068	2060.4625
3320.09766	2058.5625
3322.3333	2016.2625
3324.5676	2013.0625
3326.80056	1978.0625
3329.03219	1973.9625
3331.26248	-0.8375
3333.49143	1.1625
3335.71905	0.4625
