Data from AgNPs_UA_5uM_CRN_500uM_SU_RamanShift__85__11-43-33-156.txt Node

Date: Thu Aug 04 11:43:33 BST 2022
User: TCL
Spectrometer: QEP01345
Trigger mode: 4
Integration Time (sec): 1.000000E0
Scans to average: 10
Electric dark correction enabled: true
Nonlinearity correction enabled: false
Boxcar width: 0
XAxis mode: Raman Shifts
Number of Pixels in Spectrum: 1044
>>>>>Begin Spectral Data<<<<<
46.04893	-0.5375
50.45542	-0.2375
54.85868	0.5625
59.25871	0.1625
63.6555	-64.1375
68.04907	-45.9375
72.43941	-77.9375
76.82654	-63.2375
81.21044	-61.3375
85.59113	-56.9375
89.96862	-81.9375
94.34289	-63.7375
98.71396	-83.3375
103.08183	-66.0375
107.4465	-56.9375
111.80798	-63.8375
116.16626	-54.4375
120.52136	-83.3375
124.87327	-60.9375
129.222	-73.1375
133.56755	-61.6375
137.90993	-77.1375
142.24913	-66.4375
146.58517	-60.6375
150.91804	-62.1375
155.24774	-54.9375
159.57429	-42.9375
163.89768	-50.6375
168.21792	-24.9375
172.53501	-26.5375
176.84895	13.7625
181.15975	92.8625
185.46741	169.3625
189.77193	243.3625
194.07331	408.5625
198.37157	548.1625
202.6667	679.7625
206.9587	835.7625
211.24758	993.3625
215.53334	1140.4625
219.81599	1306.4625
224.09553	1488.7625
228.37195	1679.4625
232.64527	1882.9625
236.91549	2119.2625
241.18261	2301.7625
245.44663	2493.3625
249.70755	2640.3625
253.96539	2793.5625
258.22014	2922.7625
262.4718	3010.7625
266.72039	3092.8625
270.96589	3101.7625
275.20832	3065.3625
279.44768	3035.3625
283.68397	2981.4625
287.91719	2940.7625
292.14735	2917.0625
296.37445	2935.4625
300.59849	2992.9625
304.81948	3060.6625
309.03742	3158.7625
313.25231	3215.3625
317.46415	3223.6625
321.67296	3119.0625
325.87872	3012.8625
330.08145	2964.6625
334.28114	2957.6625
338.47781	3007.3625
342.67145	3068.3625
346.86207	3170.4625
351.04966	3287.7625
355.23424	3423.6625
359.4158	3515.7625
363.59435	3521.0625
367.76989	3501.6625
371.94243	3468.0625
376.11196	3456.0625
380.27849	3458.8625
384.44203	3471.5625
388.60257	3466.6625
392.76012	3500.0625
396.91468	3581.1625
401.06626	3630.1625
405.21485	3623.7625
409.36047	3616.6625
413.50311	3567.9625
417.64277	3511.6625
421.77947	3454.5625
425.9132	3452.6625
430.04396	3475.4625
434.17176	3483.1625
438.2966	3544.4625
442.41849	3576.1625
446.53742	3612.4625
450.6534	3662.2625
454.76644	3699.9625
458.87653	3704.2625
462.98368	3704.9625
467.08789	3703.7625
471.18916	3713.2625
475.2875	3696.6625
479.38291	3702.3625
483.4754	3694.9625
487.56496	3708.9625
491.6516	3703.0625
495.73531	3708.4625
499.81612	3712.5625
503.89401	3776.0625
507.96899	3766.0625
512.04106	3806.4625
516.11023	3820.6625
520.1765	3874.5625
524.23987	3883.2625
528.30034	3918.7625
532.35792	3872.2625
536.41261	3896.3625
540.46441	3891.3625
544.51333	3882.7625
548.55936	3905.2625
552.60252	3951.5625
556.64279	3973.4625
560.6802	4034.7625
564.71473	4075.3625
568.7464	4161.6625
572.7752	4161.7625
576.80114	4074.5625
580.82422	4014.8625
584.84444	3981.2625
588.86181	3988.3625
592.87633	3994.4625
596.888	4028.2625
600.89682	4139.1625
604.9028	4398.2625
608.90594	4911.5625
612.90624	5527.1625
616.90371	5322.1625
620.89834	4566.2625
624.89015	4259.0625
628.87913	4221.2625
632.86528	4287.3625
636.84862	4321.5625
640.82913	4296.6625
644.80683	4205.8625
648.78172	4185.3625
652.75379	4214.7625
656.72306	4287.8625
660.68952	4361.8625
664.65319	4362.2625
668.61405	4282.9625
672.57211	4268.9625
676.52738	4305.9625
680.47986	4301.2625
684.42955	4283.1625
688.37646	4302.3625
692.32058	4303.7625
696.26192	4342.6625
700.20048	4361.0625
704.13626	4380.7625
708.06928	4370.5625
711.99952	4393.8625
715.927	4385.0625
719.85171	4413.5625
723.77365	4437.1625
727.69284	4438.0625
731.60928	4459.4625
735.52295	4424.3625
739.43388	4467.2625
743.34206	4490.6625
747.24749	4510.1625
751.15017	4536.1625
755.05012	4533.7625
758.94733	4652.7625
762.8418	4844.1625
766.73354	5177.2625
770.62254	5347.5625
774.50882	5305.9625
778.39237	5217.0625
782.27321	5075.0625
786.15132	4846.8625
790.02671	4737.0625
793.89938	4617.4625
797.76935	4596.3625
801.6366	4580.4625
805.50115	4582.3625
809.36299	4578.4625
813.22213	4612.3625
817.07857	4616.0625
820.93231	4599.8625
824.78336	4629.9625
828.63172	4648.5625
832.47738	4652.4625
836.32036	4672.6625
840.16066	4668.5625
843.99827	4679.2625
847.8332	4669.1625
851.66546	4682.1625
855.49504	4675.6625
859.32195	4713.2625
863.1462	4699.3625
866.96777	4730.0625
870.78668	4705.7625
874.60293	4745.8625
878.41652	4766.0625
882.22745	4789.7625
886.03573	4807.0625
889.84136	4775.9625
893.64433	4816.8625
897.44466	4815.3625
901.24235	4796.2625
905.0374	4837.3625
908.8298	4799.6625
912.61957	4797.2625
916.40671	4745.0625
920.19121	4786.7625
923.97308	4821.0625
927.75233	4823.3625
931.52895	4850.6625
935.30295	4868.0625
939.07433	4817.1625
942.84309	4777.6625
946.60924	4792.2625
950.37278	4770.6625
954.13371	4779.4625
957.89203	4773.3625
961.64774	4789.2625
965.40086	4766.5625
969.15137	4748.5625
972.89929	4784.0625
976.64461	4793.9625
980.38733	4793.0625
984.12747	4784.3625
987.86502	4788.8625
991.59999	4789.0625
995.33237	4846.1625
999.06217	4863.8625
1002.78939	4872.1625
1006.51404	4925.0625
1010.23611	4929.2625
1013.95561	4958.7625
1017.67255	4947.8625
1021.38692	4950.8625
1025.09872	4946.5625
1028.80796	4885.7625
1032.51465	4944.6625
1036.21877	4927.2625
1039.92035	4932.1625
1043.61937	4954.7625
1047.31584	4979.1625
1051.00976	5006.4625
1054.70114	5023.5625
1058.38998	5028.0625
1062.07627	5019.5625
1065.76003	5034.9625
1069.44126	5068.5625
1073.11995	5077.6625
1076.79611	5141.5625
1080.46974	5202.6625
1084.14085	5238.0625
1087.80943	5263.6625
1091.47549	5276.8625
1095.13903	5256.3625
1098.80005	5216.9625
1102.45857	5202.8625
1106.11456	5216.4625
1109.76805	5153.4625
1113.41903	5200.2625
1117.06751	5221.5625
1120.71348	5292.9625
1124.35696	5394.1625
1127.99793	5473.1625
1131.63641	5421.0625
1135.2724	5329.7625
1138.90589	5240.6625
1142.5369	5172.5625
1146.16542	5165.3625
1149.79145	5107.9625
1153.415	5103.0625
1157.03607	5104.9625
1160.65467	5114.8625
1164.27079	5176.0625
1167.88443	5213.2625
1171.49561	5348.1625
1175.10432	5461.0625
1178.71056	5686.5625
1182.31434	5851.7625
1185.91565	5904.5625
1189.51451	5836.7625
1193.11091	5745.8625
1196.70485	5686.0625
1200.29634	5637.8625
1203.88538	5568.8625
1207.47197	5480.6625
1211.05612	5377.7625
1214.63782	5309.4625
1218.21708	5290.1625
1221.79391	5258.6625
1225.36829	5235.7625
1228.94024	5240.4625
1232.50976	5246.4625
1236.07685	5267.4625
1239.6415	5274.6625
1243.20374	5285.5625
1246.76355	5304.0625
1250.32093	5356.1625
1253.8759	5369.0625
1257.42845	5431.3625
1260.97859	5489.3625
1264.52631	5568.7625
1268.07163	5587.2625
1271.61453	5625.4625
1275.15503	5593.3625
1278.69312	5574.9625
1282.22882	5588.0625
1285.76211	5658.5625
1289.29301	5706.2625
1292.82151	5765.3625
1296.34761	5783.0625
1299.87133	5861.2625
1303.39266	6018.7625
1306.9116	6283.8625
1310.42815	6603.8625
1313.94233	6765.5625
1317.45412	6581.4625
1320.96354	6269.3625
1324.47058	6012.7625
1327.97525	5838.2625
1331.47754	5699.2625
1334.97747	5647.5625
1338.47502	5659.5625
1341.97022	5730.2625
1345.46305	5935.3625
1348.95352	6173.2625
1352.44163	6425.7625
1355.92738	6631.3625
1359.41078	7032.3625
1362.89183	7431.4625
1366.37053	7329.4625
1369.84688	6662.3625
1373.32088	6050.2625
1376.79254	5768.8625
1380.26186	5585.9625
1383.72883	5481.7625
1387.19347	5359.3625
1390.65578	5243.5625
1394.11575	5206.0625
1397.57339	5176.2625
1401.0287	5147.9625
1404.48168	5134.4625
1407.93234	5166.0625
1411.38068	5146.1625
1414.82669	5168.6625
1418.27039	5207.0625
1421.71177	5207.4625
1425.15083	5168.4625
1428.58758	5161.3625
1432.02203	5186.1625
1435.45416	5223.2625
1438.88399	5179.8625
1442.31151	5131.7625
1445.73673	5131.0625
1449.15965	5132.0625
1452.58027	5124.4625
1455.9986	5130.7625
1459.41463	5129.3625
1462.82837	5146.5625
1466.23982	5183.7625
1469.64898	5207.3625
1473.05586	5212.8625
1476.46045	5232.6625
1479.86276	5254.6625
1483.26279	5280.7625
1486.66054	5370.7625
1490.05602	5422.2625
1493.44922	5568.4625
1496.84016	5754.1625
1500.22882	6043.8625
1503.61521	6426.0625
1506.99934	6872.4625
1510.38121	7272.1625
1513.76081	7414.9625
1517.13816	7122.0625
1520.51324	6581.7625
1523.88607	6082.0625
1527.25665	5799.7625
1530.62498	5605.4625
1533.99105	5535.3625
1537.35488	5479.9625
1540.71647	5455.4625
1544.07581	5447.9625
1547.4329	5419.6625
1550.78776	5442.0625
1554.14038	5439.1625
1557.49077	5482.3625
1560.83892	5539.1625
1564.18484	5652.2625
1567.52853	5720.6625
1570.86999	5809.0625
1574.20922	5813.1625
1577.54624	5776.4625
1580.88103	5667.8625
1584.2136	5476.9625
1587.54395	5432.6625
1590.87208	5419.3625
1594.19801	5426.8625
1597.52172	5517.5625
1600.84321	5560.4625
1604.16251	5498.7625
1607.47959	5424.3625
1610.79447	5378.4625
1614.10715	5306.5625
1617.41763	5282.2625
1620.7259	5210.4625
1624.03199	5211.2625
1627.33587	5198.6625
1630.63757	5184.8625
1633.93707	5248.8625
1637.23439	5372.0625
1640.52951	5553.2625
1643.82246	5764.8625
1647.11321	6124.8625
1650.40179	6315.8625
1653.68819	6246.0625
1656.97241	5936.4625
1660.25446	5571.8625
1663.53433	5308.8625
1666.81203	5155.4625
1670.08756	5101.8625
1673.36092	5068.3625
1676.63211	5032.0625
1679.90115	5002.0625
1683.16801	4980.9625
1686.43272	4943.4625
1689.69527	4935.9625
1692.95567	4914.2625
1696.2139	4916.0625
1699.46999	4864.1625
1702.72392	4891.0625
1705.97571	4912.8625
1709.22535	4903.4625
1712.47284	4950.0625
1715.71819	4941.9625
1718.96139	4960.3625
1722.20246	4943.7625
1725.44139	4944.3625
1728.67818	4940.9625
1731.91284	4928.8625
1735.14537	4909.7625
1738.37576	4915.7625
1741.60403	4922.1625
1744.83017	4875.8625
1748.05418	4912.0625
1751.27607	4907.7625
1754.49584	4874.8625
1757.71349	4834.2625
1760.92903	4857.5625
1764.14244	4835.0625
1767.35375	4836.8625
1770.56294	4840.7625
1773.77002	4838.2625
1776.97499	4851.0625
1780.17785	4844.1625
1783.37861	4861.8625
1786.57727	4864.0625
1789.77382	4815.0625
1792.96828	4854.8625
1796.16064	4871.1625
1799.3509	4838.6625
1802.53907	4860.2625
1805.72514	4817.3625
1808.90913	4815.2625
1812.09102	4807.6625
1815.27083	4806.0625
1818.44856	4798.3625
1821.6242	4806.1625
1824.79776	4792.5625
1827.96924	4783.8625
1831.13864	4783.8625
1834.30597	4777.3625
1837.47122	4779.7625
1840.6344	4764.6625
1843.7955	4755.5625
1846.95454	4748.4625
1850.11151	4783.4625
1853.26642	4740.3625
1856.41926	4752.4625
1859.57004	4754.2625
1862.71876	4750.6625
1865.86542	4768.3625
1869.01003	4738.8625
1872.15258	4727.2625
1875.29308	4755.0625
1878.43152	4754.3625
1881.56792	4724.3625
1884.70227	4711.7625
1887.83457	4715.9625
1890.96482	4709.1625
1894.09304	4703.9625
1897.21921	4700.1625
1900.34335	4700.1625
1903.46544	4672.5625
1906.58551	4687.3625
1909.70353	4685.5625
1912.81953	4695.2625
1915.93349	4674.3625
1919.04543	4669.4625
1922.15534	4640.2625
1925.26322	4662.5625
1928.36908	4644.1625
1931.47292	4645.8625
1934.57473	4660.7625
1937.67453	4623.0625
1940.77232	4626.5625
1943.86808	4627.0625
1946.96184	4600.9625
1950.05358	4579.1625
1953.14331	4574.6625
1956.23103	4576.9625
1959.31675	4544.5625
1962.40046	4481.6625
1965.48217	4528.2625
1968.56188	4497.5625
1971.63959	4498.7625
1974.7153	4492.6625
1977.78901	4475.4625
1980.86073	4460.4625
1983.93046	4428.8625
1986.99819	4367.8625
1990.06394	4392.6625
1993.1277	4411.5625
1996.18947	4394.7625
1999.24925	4372.2625
2002.30706	4388.3625
2005.36288	4384.6625
2008.41672	4359.6625
2011.46859	4331.9625
2014.51848	4334.5625
2017.56639	4320.5625
2020.61233	4306.6625
2023.6563	4305.9625
2026.6983	4257.4625
2029.73833	4258.8625
2032.7764	4270.3625
2035.8125	4225.3625
2038.84664	4228.8625
2041.87881	4230.9625
2044.90903	4241.2625
2047.93729	4213.1625
2050.96359	4193.0625
2053.98794	4216.1625
2057.01034	4212.8625
2060.03078	4197.2625
2063.04927	4187.3625
2066.06582	4200.4625
2069.08042	4186.9625
2072.09307	4180.0625
2075.10378	4200.4625
2078.11255	4192.1625
2081.11938	4183.6625
2084.12426	4181.8625
2087.12722	4184.3625
2090.12824	4169.1625
2093.12732	4190.9625
2096.12447	4197.0625
2099.11969	4197.8625
2102.11299	4192.1625
2105.10435	4208.8625
2108.09379	4190.7625
2111.08131	4188.0625
2114.0669	4192.3625
2117.05057	4187.0625
2120.03233	4187.5625
2123.01216	4203.2625
2125.99008	4194.9625
2128.96609	4211.3625
2131.94018	4222.3625
2134.91236	4220.2625
2137.88263	4215.3625
2140.851	4220.0625
2143.81746	4238.7625
2146.78201	4242.8625
2149.74466	4225.9625
2152.7054	4232.8625
2155.66425	4229.2625
2158.6212	4229.4625
2161.57625	4205.9625
2164.52941	4183.0625
2167.48067	4205.7625
2170.43004	4208.5625
2173.37752	4222.1625
2176.32311	4202.7625
2179.26681	4200.6625
2182.20863	4229.0625
2185.14856	4228.2625
2188.08661	4210.3625
2191.02278	4216.0625
2193.95707	4203.5625
2196.88948	4192.2625
2199.82001	4214.9625
2202.74867	4187.7625
2205.67545	4198.1625
2208.60037	4222.2625
2211.52341	4183.1625
2214.44458	4170.4625
2217.36388	4167.2625
2220.28132	4152.4625
2223.1969	4141.8625
2226.11061	4130.3625
2229.02246	4126.6625
2231.93245	4143.6625
2234.84058	4122.8625
2237.74686	4115.9625
2240.65128	4110.1625
2243.55385	4108.3625
2246.45456	4096.8625
2249.35343	4120.7625
2252.25044	4094.0625
2255.14561	4097.8625
2258.03893	4085.8625
2260.93041	4070.3625
2263.82004	4049.3625
2266.70783	4059.9625
2269.59378	4038.9625
2272.4779	4021.8625
2275.36017	4026.9625
2278.24061	4007.9625
2281.11922	3975.9625
2283.996	3997.4625
2286.87094	3966.3625
2289.74405	3977.5625
2292.61534	3985.0625
2295.4848	3983.1625
2298.35243	3978.6625
2301.21824	3962.9625
2304.08223	3969.6625
2306.94439	3977.0625
2309.80474	3974.0625
2312.66327	3968.8625
2315.51999	3941.6625
2318.37489	3950.9625
2321.22797	3939.1625
2324.07925	3933.9625
2326.92871	3923.3625
2329.77637	3900.1625
2332.62222	3908.1625
2335.46626	3885.2625
2338.3085	3880.5625
2341.14893	3897.1625
2343.98756	3897.1625
2346.8244	3873.5625
2349.65943	3862.3625
2352.49267	3867.9625
2355.32411	3868.7625
2358.15376	3851.8625
2360.98161	3859.2625
2363.80768	3837.8625
2366.63195	3848.1625
2369.45444	3853.6625
2372.27514	3849.6625
2375.09405	3853.3625
2377.91118	3826.5625
2380.72652	3815.0625
2383.54009	3820.9625
2386.35187	3820.1625
2389.16188	3792.4625
2391.97011	3806.1625
2394.77657	3797.8625
2397.58125	3777.2625
2400.38416	3777.2625
2403.18529	3764.4625
2405.98466	3759.3625
2408.78226	3768.8625
2411.57809	3765.7625
2414.37216	3732.2625
2417.16446	3753.6625
2419.955	3710.7625
2422.74378	3746.0625
2425.5308	3721.3625
2428.31606	3724.1625
2431.09956	3728.3625
2433.88131	3698.9625
2436.6613	3704.8625
2439.43954	3685.3625
2442.21603	3699.3625
2444.99077	3680.3625
2447.76377	3686.3625
2450.53501	3672.1625
2453.30451	3666.5625
2456.07226	3684.7625
2458.83827	3661.0625
2461.60254	3625.4625
2464.36507	3664.8625
2467.12586	3638.4625
2469.88492	3643.1625
2472.64224	3625.3625
2475.39782	3608.1625
2478.15167	3612.5625
2480.90379	3623.0625
2483.65417	3623.5625
2486.40283	3616.2625
2489.14976	3631.5625
2491.89497	3604.1625
2494.63845	3606.1625
2497.3802	3596.8625
2500.12024	3584.1625
2502.85855	3589.9625
2505.59514	3596.6625
2508.33002	3592.4625
2511.06318	3556.7625
2513.79462	3581.6625
2516.52435	3537.0625
2519.25237	3533.2625
2521.97867	3542.0625
2524.70327	3547.6625
2527.42616	3544.3625
2530.14734	3549.0625
2532.86681	3535.3625
2535.58458	3528.1625
2538.30065	3519.3625
2541.01501	3521.3625
2543.72768	3504.4625
2546.43864	3510.4625
2549.14791	3500.0625
2551.85548	3480.6625
2554.56136	3483.7625
2557.26554	3478.3625
2559.96803	3459.4625
2562.66883	3461.6625
2565.36794	3446.6625
2568.06536	3426.5625
2570.7611	3443.0625
2573.45514	3428.2625
2576.14751	3419.9625
2578.83819	3399.7625
2581.52719	3400.9625
2584.21451	3399.1625
2586.90015	3381.5625
2589.58411	3365.5625
2592.2664	3382.5625
2594.94701	3372.3625
2597.62594	3372.5625
2600.30321	3311.9625
2602.9788	3345.8625
2605.65273	3315.7625
2608.32498	3325.4625
2610.99557	3336.1625
2613.66449	3289.2625
2616.33175	3324.7625
2618.99734	3306.3625
2621.66128	3321.6625
2624.32355	3290.2625
2626.98416	3280.9625
2629.64311	3279.7625
2632.30041	3279.6625
2634.95605	3259.0625
2637.61004	3250.6625
2640.26238	3228.3625
2642.91306	3228.7625
2645.56209	3256.8625
2648.20948	3248.3625
2650.85521	3230.9625
2653.4993	3254.6625
2656.14175	3243.5625
2658.78255	3221.1625
2661.42171	3194.7625
2664.05923	3231.3625
2666.6951	3241.7625
2669.32934	3239.5625
2671.96194	3239.3625
2674.59291	3222.9625
2677.22224	3225.7625
2679.84993	3227.9625
2682.476	3224.4625
2685.10043	3206.7625
2687.72324	3205.4625
2690.34441	3202.5625
2692.96396	3192.1625
2695.58188	3211.9625
2698.19818	3202.8625
2700.81285	3195.1625
2703.4259	3181.9625
2706.03733	3155.9625
2708.64714	3168.6625
2711.25533	3190.7625
2713.86191	3188.4625
2716.46687	3188.5625
2719.07021	3198.6625
2721.67194	3178.8625
2724.27206	3186.4625
2726.87057	3176.1625
2729.46747	3176.4625
2732.06276	3181.5625
2734.65644	3159.3625
2737.24852	3170.3625
2739.83899	3153.7625
2742.42786	3162.2625
2745.01513	3172.9625
2747.60079	3144.3625
2750.18486	3122.4625
2752.76733	3141.0625
2755.3482	3125.0625
2757.92747	3139.2625
2760.50515	3109.9625
2763.08123	3110.7625
2765.65573	3125.1625
2768.22863	3105.3625
2770.79994	3089.3625
2773.36967	3085.6625
2775.9378	3077.8625
2778.50435	3070.6625
2781.06932	3067.7625
2783.6327	3054.6625
2786.1945	3072.4625
2788.75471	3062.6625
2791.31335	3051.3625
2793.87041	3047.9625
2796.42589	3033.6625
2798.97979	3020.0625
2801.53212	3010.9625
2804.08288	3024.8625
2806.63206	3010.9625
2809.17967	2989.3625
2811.72571	2990.1625
2814.27018	2988.6625
2816.81308	2971.1625
2819.35442	2937.5625
2821.89419	2955.2625
2824.43239	2936.3625
2826.96904	2964.7625
2829.50412	2949.0625
2832.03763	2951.8625
2834.56959	2941.0625
2837.1	2929.6625
2839.62884	2936.2625
2842.15613	2927.0625
2844.68186	2940.9625
2847.20604	2904.6625
2849.72867	2900.2625
2852.24974	2910.3625
2854.76927	2859.0625
2857.28724	2825.2625
2859.80367	2881.8625
2862.31855	2873.1625
2864.83189	2881.9625
2867.34368	2873.1625
2869.85393	2873.1625
2872.36264	2848.5625
2874.8698	2852.3625
2877.37543	2861.4625
2879.87952	2863.9625
2882.38207	2836.5625
2884.88308	2858.3625
2887.38256	2855.6625
2889.88051	2852.3625
2892.37692	2845.1625
2894.8718	2816.8625
2897.36515	2829.5625
2899.85698	2840.7625
2902.34727	2830.8625
2904.83604	2838.7625
2907.32328	2823.1625
2909.809	2835.1625
2912.29319	2823.7625
2914.77587	2829.5625
2917.25702	2849.9625
2919.73665	2841.0625
2922.21476	2837.7625
2924.69136	2840.3625
2927.16644	2833.0625
2929.64	2817.9625
2932.11205	2815.8625
2934.58258	2815.3625
2937.05161	2807.2625
2939.51912	2815.4625
2941.98513	2832.0625
2944.44962	2825.5625
2946.91261	2793.4625
2949.37409	2804.3625
2951.83407	2787.4625
2954.29254	2789.6625
2956.74951	2794.8625
2959.20498	2779.7625
2961.65895	2792.3625
2964.11142	2792.6625
2966.56239	2785.4625
2969.01186	2783.7625
2971.45984	2783.6625
2973.90632	2777.4625
2976.35131	2773.1625
2978.7948	2787.5625
2981.23681	2763.7625
2983.67732	2766.1625
2986.11635	2760.9625
2988.55388	2734.3625
2990.98993	2747.2625
2993.4245	2726.8625
2995.85758	2724.1625
2998.28917	2725.8625
3000.71928	2715.2625
3003.14791	2695.2625
3005.57506	2697.3625
3008.00073	2693.9625
3010.42493	2626.4625
3012.84764	2687.8625
3015.26888	2692.8625
3017.68865	2685.0625
3020.10694	2649.1625
3022.52376	2655.4625
3024.9391	2655.3625
3027.35298	2648.7625
3029.76539	2641.7625
3032.17632	2647.6625
3034.5858	2643.6625
3036.9938	2643.6625
3039.40034	2643.7625
3041.80542	2637.9625
3044.20903	2627.1625
3046.61118	2607.3625
3049.01187	2630.4625
3051.4111	2612.5625
3053.80888	2587.6625
3056.20519	2591.1625
3058.60005	2575.1625
3060.99345	2593.6625
3063.3854	2571.2625
3065.7759	2559.6625
3068.16494	2548.3625
3070.55254	2539.2625
3072.93868	2562.3625
3075.32338	2553.0625
3077.70662	2544.0625
3080.08842	2529.2625
3082.46878	2518.5625
3084.84769	2548.3625
3087.22515	2522.7625
3089.60118	2533.9625
3091.97576	2520.8625
3094.3489	2537.2625
3096.72061	2522.4625
3099.09087	2519.6625
3101.4597	2532.5625
3103.82709	2519.1625
3106.19305	2506.1625
3108.55757	2522.2625
3110.92066	2503.6625
3113.28232	2515.1625
3115.64255	2504.4625
3118.00134	2516.3625
3120.35871	2483.6625
3122.71466	2472.0625
3125.06917	2488.4625
3127.42226	2477.1625
3129.77393	2458.9625
3132.12417	2461.3625
3134.47299	2474.1625
3136.82039	2450.6625
3139.16636	2435.6625
3141.51092	2457.6625
3143.85406	2448.2625
3146.19579	2432.1625
3148.53609	2432.7625
3150.87499	2442.6625
3153.21246	2440.1625
3155.54853	2446.2625
3157.88318	2445.9625
3160.21642	2454.5625
3162.54826	2439.3625
3164.87868	2452.3625
3167.2077	2402.8625
3169.5353	2444.5625
3171.86151	2446.2625
3174.18631	2432.1625
3176.5097	2437.0625
3178.83169	2432.4625
3181.15228	2439.7625
3183.47147	2414.5625
3185.78926	2389.5625
3188.10565	2399.1625
3190.42065	2391.2625
3192.73424	2396.6625
3195.04645	2394.0625
3197.35725	2367.9625
3199.66667	2384.9625
3201.97469	2380.7625
3204.28132	2374.5625
3206.58656	2383.2625
3208.8904	2384.0625
3211.19287	2386.9625
3213.49394	2365.0625
3215.79363	2373.1625
3218.09193	2385.5625
3220.38884	2364.3625
3222.68438	2375.7625
3224.97853	2357.3625
3227.2713	2370.8625
3229.56269	2357.5625
3231.8527	2353.6625
3234.14133	2355.1625
3236.42858	2350.2625
3238.71446	2319.9625
3240.99896	2336.2625
3243.28209	2324.1625
3245.56384	2326.9625
3247.84423	2316.9625
3250.12324	2327.4625
3252.40088	2318.5625
3254.67715	2314.6625
3256.95205	2309.0625
3259.22558	2320.9625
3261.49775	2311.6625
3263.76855	2314.7625
3266.03799	2312.2625
3268.30606	2321.4625
3270.57277	2311.4625
3272.83812	2289.1625
3275.10211	2298.5625
3277.36474	2311.9625
3279.62601	2293.5625
3281.88593	2263.3625
3284.14448	2247.1625
3286.40168	2272.6625
3288.65753	2263.2625
3290.91202	2258.1625
3293.16516	2243.1625
3295.41695	2260.1625
3297.66738	2261.2625
3299.91647	2222.9625
3302.16421	2223.4625
3304.4106	2192.2625
3306.65564	2201.6625
3308.89933	2172.7625
3311.14169	2166.6625
3313.38269	2155.1625
3315.62236	2125.3625
3317.86068	2115.7625
3320.09766	2106.7625
3322.3333	2069.2625
3324.5676	2067.6625
3326.80056	2026.1625
3329.03219	2018.0625
3331.26248	-1.0375
3333.49143	0.3625
3335.71905	1.0625
