Data from AgNPs_UA_20uM_CRN_500uM_SU_RamanShift__82__13-50-10-307.txt Node

Date: Thu Aug 04 13:50:10 BST 2022
User: TCL
Spectrometer: QEP01345
Trigger mode: 4
Integration Time (sec): 1.000000E0
Scans to average: 10
Electric dark correction enabled: true
Nonlinearity correction enabled: false
Boxcar width: 0
XAxis mode: Raman Shifts
Number of Pixels in Spectrum: 1044
>>>>>Begin Spectral Data<<<<<
46.04893	-1.3
50.45542	-0.4
54.85868	1.1
59.25871	0.5
63.6555	12.7
68.04907	10
72.43941	15.6
76.82654	12.3
81.21044	14.4
85.59113	15.1
89.96862	16.1
94.34289	14.8
98.71396	18.1
103.08183	19.4
107.4465	15.6
111.80798	18.6
116.16626	20.8
120.52136	21.8
124.87327	17.8
129.222	23
133.56755	22.5
137.90993	26.7
142.24913	28.6
146.58517	30.2
150.91804	33.5
155.24774	42.6
159.57429	54
163.89768	70.4
168.21792	95.1
172.53501	130.2
176.84895	176.3
181.15975	251.9
185.46741	353.2
189.77193	495.2
194.07331	661.6
198.37157	853.1
202.6667	1062
206.9587	1255.2
211.24758	1466.6
215.53334	1671.6
219.81599	1900.4
224.09553	2148.1
228.37195	2428.9
232.64527	2738.8
236.91549	3023.8
241.18261	3269.3
245.44663	3477.1
249.70755	3632.6
253.96539	3765.7
258.22014	3887.1
262.4718	3978.7
266.72039	4060.2
270.96589	4087.8
275.20832	4076.6
279.44768	4028.1
283.68397	3949.3
287.91719	3891.5
292.14735	3903
296.37445	3978.8
300.59849	4117.8
304.81948	4315.3
309.03742	4473.8
313.25231	4547.3
317.46415	4495.2
321.67296	4308
325.87872	4106.4
330.08145	3997.5
334.28114	3999.5
338.47781	4050.6
342.67145	4160
346.86207	4288.5
351.04966	4440.6
355.23424	4628.4
359.4158	4756.6
363.59435	4813.9
367.76989	4835.1
371.94243	4830.1
376.11196	4802.5
380.27849	4798.8
384.44203	4787.1
388.60257	4779.5
392.76012	4813.7
396.91468	4861.7
401.06626	4954.2
405.21485	5006
409.36047	4894.7
413.50311	4724.1
417.64277	4527.5
421.77947	4432.5
425.9132	4386.8
430.04396	4427.3
434.17176	4467.1
438.2966	4540.1
442.41849	4666.2
446.53742	4807.3
450.6534	4955.6
454.76644	5029.3
458.87653	5010.8
462.98368	4967.8
467.08789	4885
471.18916	4778.3
475.2875	4664.8
479.38291	4557.6
483.4754	4490.7
487.56496	4447.2
491.6516	4399.9
495.73531	4383.9
499.81612	4396.4
503.89401	4433.3
507.96899	4458
512.04106	4513.1
516.11023	4563.8
520.1765	4617.3
524.23987	4633.1
528.30034	4608
532.35792	4603
536.41261	4561.7
540.46441	4473.4
544.51333	4430.4
548.55936	4449.2
552.60252	4551.7
556.64279	4644
560.6802	4689.3
564.71473	4758.1
568.7464	4831.9
572.7752	4856.1
576.80114	4722.3
580.82422	4617
584.84444	4626.1
588.86181	4699
592.87633	4813.9
596.888	4920.4
600.89682	5107.6
604.9028	5714.1
608.90594	7040.8
612.90624	8362
616.90371	7649.4
620.89834	5745.6
624.89015	4999.3
628.87913	4925.3
632.86528	4942.4
636.84862	4915.9
640.82913	4782.1
644.80683	4595.5
648.78172	4472.5
652.75379	4520.2
656.72306	4685.4
660.68952	4861.4
664.65319	4805.4
668.61405	4650.4
672.57211	4596.2
676.52738	4581.4
680.47986	4555.4
684.42955	4486.4
688.37646	4468.3
692.32058	4520.3
696.26192	4597.2
700.20048	4646.5
704.13626	4667.9
708.06928	4618.9
711.99952	4569.2
715.927	4591.9
719.85171	4627.7
723.77365	4613.7
727.69284	4555.9
731.60928	4532.9
735.52295	4540.7
739.43388	4572.2
743.34206	4601.6
747.24749	4629.9
751.15017	4626.3
755.05012	4698.1
758.94733	4901.1
762.8418	5403.5
766.73354	6156.3
770.62254	6814
774.50882	6913.8
778.39237	6494
782.27321	5848.7
786.15132	5239.1
790.02671	4876.5
793.89938	4699.5
797.76935	4636.5
801.6366	4610.2
805.50115	4588.8
809.36299	4582.8
813.22213	4552.5
817.07857	4547.8
820.93231	4532.1
824.78336	4552.7
828.63172	4565.1
832.47738	4570.8
836.32036	4588.1
840.16066	4588.5
843.99827	4609.5
847.8332	4595.7
851.66546	4601.3
855.49504	4600.7
859.32195	4599.4
863.1462	4589.8
866.96777	4594.4
870.78668	4556.4
874.60293	4555.4
878.41652	4578.7
882.22745	4619.1
886.03573	4641.6
889.84136	4621.8
893.64433	4587.3
897.44466	4585.6
901.24235	4588.3
905.0374	4578.1
908.8298	4545.4
912.61957	4539.2
916.40671	4561.7
920.19121	4607.3
923.97308	4680.5
927.75233	4750.1
931.52895	4788.2
935.30295	4728.6
939.07433	4606.9
942.84309	4545.9
946.60924	4503.4
950.37278	4479.8
954.13371	4476.8
957.89203	4467
961.64774	4449.6
965.40086	4437.2
969.15137	4426
972.89929	4421.2
976.64461	4421
980.38733	4442.3
984.12747	4461.6
987.86502	4505.9
991.59999	4584.2
995.33237	4667.3
999.06217	4808.6
1002.78939	4945.6
1006.51404	5021.7
1010.23611	5071.2
1013.95561	5109.3
1017.67255	5141.2
1021.38692	5111.4
1025.09872	5080.8
1028.80796	5132.8
1032.51465	5273
1036.21877	5332.2
1039.92035	5358.3
1043.61937	5266.1
1047.31584	5161.4
1051.00976	5069.7
1054.70114	4992.7
1058.38998	5009.9
1062.07627	5023
1065.76003	5036.7
1069.44126	5073
1073.11995	5136.1
1076.79611	5207.4
1080.46974	5269.1
1084.14085	5357.8
1087.80943	5429.9
1091.47549	5434.1
1095.13903	5370.7
1098.80005	5229.9
1102.45857	5149.1
1106.11456	5125.7
1109.76805	5142.2
1113.41903	5242.3
1117.06751	5363
1120.71348	5493.2
1124.35696	5701.1
1127.99793	5783.9
1131.63641	5678.4
1135.2724	5506.1
1138.90589	5337
1142.5369	5207.7
1146.16542	5156.2
1149.79145	5128.7
1153.415	5086.2
1157.03607	5108.9
1160.65467	5155.4
1164.27079	5313.2
1167.88443	5511.6
1171.49561	5846
1175.10432	6341.6
1178.71056	7038.5
1182.31434	7585.4
1185.91565	7835.3
1189.51451	7726.3
1193.11091	7415.1
1196.70485	7043.3
1200.29634	6728.3
1203.88538	6443.9
1207.47197	6140.3
1211.05612	5886.9
1214.63782	5727.3
1218.21708	5659.1
1221.79391	5659.2
1225.36829	5719.9
1228.94024	5706.5
1232.50976	5655.4
1236.07685	5596.8
1239.6415	5598.9
1243.20374	5591.8
1246.76355	5631.7
1250.32093	5737.1
1253.8759	5872.5
1257.42845	6041.6
1260.97859	6225.1
1264.52631	6405.6
1268.07163	6524
1271.61453	6644.2
1275.15503	6768.8
1278.69312	6847.9
1282.22882	6972.5
1285.76211	7113.8
1289.29301	7284.6
1292.82151	7463.8
1296.34761	7702.4
1299.87133	8038
1303.39266	8647.2
1306.9116	9446.4
1310.42815	10250.7
1313.94233	10540.9
1317.45412	10173.1
1320.96354	9492.5
1324.47058	8766
1327.97525	8196.9
1331.47754	7847.2
1334.97747	7783.6
1338.47502	7881.9
1341.97022	8119.9
1345.46305	8444.9
1348.95352	8935.1
1352.44163	9526.8
1355.92738	10343.6
1359.41078	11428.6
1362.89183	12246.4
1366.37053	11599.1
1369.84688	9887.5
1373.32088	8300.6
1376.79254	7432.9
1380.26186	7042.3
1383.72883	6830.3
1387.19347	6670.8
1390.65578	6471
1394.11575	6253.8
1397.57339	6124.4
1401.0287	6092.2
1404.48168	6091.2
1407.93234	6144.8
1411.38068	6200.5
1414.82669	6279.7
1418.27039	6304.6
1421.71177	6242.7
1425.15083	6211.9
1428.58758	6218.6
1432.02203	6330.3
1435.45416	6411.8
1438.88399	6430.5
1442.31151	6401.7
1445.73673	6383.4
1449.15965	6348.5
1452.58027	6255.1
1455.9986	6193.4
1459.41463	6177.8
1462.82837	6242
1466.23982	6334.6
1469.64898	6457.9
1473.05586	6553.9
1476.46045	6626.8
1479.86276	6691.7
1483.26279	6759.1
1486.66054	6880.8
1490.05602	7081.1
1493.44922	7416.8
1496.84016	7918.6
1500.22882	8662.2
1503.61521	9605.7
1506.99934	10555.8
1510.38121	11072.6
1513.76081	10923.4
1517.13816	10051.5
1520.51324	8918.9
1523.88607	8060
1527.25665	7537.2
1530.62498	7294.8
1533.99105	7146.8
1537.35488	7081.8
1540.71647	6999
1544.07581	6913.5
1547.4329	6839.3
1550.78776	6766.6
1554.14038	6729.3
1557.49077	6699.9
1560.83892	6739.1
1564.18484	6851.4
1567.52853	7038.2
1570.86999	7162.9
1574.20922	7197.8
1577.54624	7058.7
1580.88103	6745.9
1584.2136	6415.9
1587.54395	6293.8
1590.87208	6428.6
1594.19801	6820.4
1597.52172	7342
1600.84321	7593.9
1604.16251	7505.3
1607.47959	7199.2
1610.79447	6768.4
1614.10715	6305.7
1617.41763	5911.9
1620.7259	5665.2
1624.03199	5525.7
1627.33587	5535.6
1630.63757	5663.7
1633.93707	5960.9
1637.23439	6438.8
1640.52951	7107.6
1643.82246	7929.5
1647.11321	8644.6
1650.40179	8856.3
1653.68819	8244
1656.97241	7106.1
1660.25446	6118.3
1663.53433	5434.5
1666.81203	5037.9
1670.08756	4820.6
1673.36092	4679.2
1676.63211	4578.2
1679.90115	4512.4
1683.16801	4461.1
1686.43272	4422.9
1689.69527	4402.3
1692.95567	4360.8
1696.2139	4377.4
1699.46999	4329.4
1702.72392	4343.8
1705.97571	4337
1709.22535	4341.9
1712.47284	4348.9
1715.71819	4335.5
1718.96139	4343.8
1722.20246	4321.5
1725.44139	4317.8
1728.67818	4279.5
1731.91284	4255.2
1735.14537	4238.1
1738.37576	4225.4
1741.60403	4196.1
1744.83017	4204
1748.05418	4201
1751.27607	4185
1754.49584	4181.7
1757.71349	4156.9
1760.92903	4149.6
1764.14244	4156
1767.35375	4152.2
1770.56294	4136.5
1773.77002	4142.3
1776.97499	4125.7
1780.17785	4106
1783.37861	4096.4
1786.57727	4104.7
1789.77382	4079.3
1792.96828	4097.5
1796.16064	4069.7
1799.3509	4064.5
1802.53907	4074.9
1805.72514	4073.3
1808.90913	4066.7
1812.09102	4055.2
1815.27083	4037.7
1818.44856	4019.8
1821.6242	4009.9
1824.79776	4029.3
1827.96924	4030.5
1831.13864	4003.3
1834.30597	4000.5
1837.47122	3994.4
1840.6344	3984.1
1843.7955	3983.7
1846.95454	3966.1
1850.11151	3981
1853.26642	3975.7
1856.41926	3985.5
1859.57004	3972.6
1862.71876	3978.2
1865.86542	3975.9
1869.01003	3965.4
1872.15258	3960.6
1875.29308	3948.8
1878.43152	3967.3
1881.56792	3962.8
1884.70227	3946.6
1887.83457	3962.9
1890.96482	3952.6
1894.09304	3939.6
1897.21921	3931.7
1900.34335	3935.2
1903.46544	3931.6
1906.58551	3923.3
1909.70353	3930.7
1912.81953	3925.1
1915.93349	3919.5
1919.04543	3921.3
1922.15534	3912.5
1925.26322	3901.1
1928.36908	3913.3
1931.47292	3889.7
1934.57473	3892.5
1937.67453	3882.3
1940.77232	3883.3
1943.86808	3864.1
1946.96184	3844.3
1950.05358	3853.3
1953.14331	3834.8
1956.23103	3817
1959.31675	3804.9
1962.40046	3788
1965.48217	3791.3
1968.56188	3783.5
1971.63959	3766.5
1974.7153	3756.7
1977.78901	3768.3
1980.86073	3738
1983.93046	3723.3
1986.99819	3710.9
1990.06394	3701.5
1993.1277	3705.3
1996.18947	3687.9
1999.24925	3678.9
2002.30706	3661.8
2005.36288	3651.1
2008.41672	3645.3
2011.46859	3625
2014.51848	3626
2017.56639	3616.7
2020.61233	3608.1
2023.6563	3593.8
2026.6983	3588.6
2029.73833	3584.4
2032.7764	3575.7
2035.8125	3577.5
2038.84664	3566.3
2041.87881	3568.6
2044.90903	3561.9
2047.93729	3558
2050.96359	3534
2053.98794	3545.9
2057.01034	3538.5
2060.03078	3535.3
2063.04927	3527
2066.06582	3533.8
2069.08042	3524.1
2072.09307	3525.6
2075.10378	3510.5
2078.11255	3527.8
2081.11938	3497.8
2084.12426	3505.5
2087.12722	3504.3
2090.12824	3515.2
2093.12732	3520.3
2096.12447	3512.3
2099.11969	3516.5
2102.11299	3516
2105.10435	3524.5
2108.09379	3517.4
2111.08131	3512
2114.0669	3527.6
2117.05057	3512.5
2120.03233	3521
2123.01216	3511.4
2125.99008	3532
2128.96609	3522.5
2131.94018	3528.9
2134.91236	3530.1
2137.88263	3531.3
2140.851	3542.8
2143.81746	3537.1
2146.78201	3540.1
2149.74466	3533.3
2152.7054	3536.7
2155.66425	3547.1
2158.6212	3545.6
2161.57625	3540
2164.52941	3536.1
2167.48067	3536.6
2170.43004	3526.8
2173.37752	3518.7
2176.32311	3536.1
2179.26681	3512.6
2182.20863	3535.7
2185.14856	3534
2188.08661	3529.2
2191.02278	3521.6
2193.95707	3531.1
2196.88948	3530
2199.82001	3537.8
2202.74867	3523
2205.67545	3544.3
2208.60037	3533.7
2211.52341	3530.8
2214.44458	3508.7
2217.36388	3515.3
2220.28132	3503.5
2223.1969	3484.5
2226.11061	3491
2229.02246	3484.5
2231.93245	3465.9
2234.84058	3459.1
2237.74686	3462.6
2240.65128	3462.1
2243.55385	3446.4
2246.45456	3454.5
2249.35343	3454.1
2252.25044	3449.1
2255.14561	3455.9
2258.03893	3452.4
2260.93041	3449.9
2263.82004	3441.9
2266.70783	3436.5
2269.59378	3423.2
2272.4779	3410.2
2275.36017	3400.8
2278.24061	3385.1
2281.11922	3375.7
2283.996	3362.4
2286.87094	3378.4
2289.74405	3355.1
2292.61534	3362.2
2295.4848	3373.5
2298.35243	3373
2301.21824	3353.3
2304.08223	3361.5
2306.94439	3367.1
2309.80474	3371.2
2312.66327	3364.9
2315.51999	3359.8
2318.37489	3365.4
2321.22797	3365.3
2324.07925	3346.6
2326.92871	3346
2329.77637	3358.9
2332.62222	3346.9
2335.46626	3343.9
2338.3085	3354.8
2341.14893	3359.5
2343.98756	3340.7
2346.8244	3362
2349.65943	3347.8
2352.49267	3347
2355.32411	3346.5
2358.15376	3346
2360.98161	3337.2
2363.80768	3346.4
2366.63195	3340.9
2369.45444	3331.8
2372.27514	3337.3
2375.09405	3323.4
2377.91118	3331.8
2380.72652	3316.5
2383.54009	3308.5
2386.35187	3284.5
2389.16188	3298.6
2391.97011	3274.1
2394.77657	3286.2
2397.58125	3279.8
2400.38416	3250.1
2403.18529	3276.8
2405.98466	3244.8
2408.78226	3252.4
2411.57809	3239
2414.37216	3246.6
2417.16446	3235.3
2419.955	3234.1
2422.74378	3230.9
2425.5308	3221.8
2428.31606	3205.7
2431.09956	3220.4
2433.88131	3214
2436.6613	3203.6
2439.43954	3221.7
2442.21603	3212.9
2444.99077	3215.7
2447.76377	3215.9
2450.53501	3209
2453.30451	3200.5
2456.07226	3203
2458.83827	3210.5
2461.60254	3195.2
2464.36507	3186.4
2467.12586	3197.2
2469.88492	3189.8
2472.64224	3196.1
2475.39782	3185.9
2478.15167	3197.7
2480.90379	3196.6
2483.65417	3197.4
2486.40283	3200.4
2489.14976	3206.1
2491.89497	3207.4
2494.63845	3204
2497.3802	3206.1
2500.12024	3191.5
2502.85855	3200.3
2505.59514	3189.9
2508.33002	3180.9
2511.06318	3170.5
2513.79462	3157.1
2516.52435	3160.5
2519.25237	3174.7
2521.97867	3165.1
2524.70327	3169.4
2527.42616	3145
2530.14734	3148.1
2532.86681	3147.9
2535.58458	3146.7
2538.30065	3144.9
2541.01501	3127.8
2543.72768	3138
2546.43864	3142.9
2549.14791	3145.5
2551.85548	3149
2554.56136	3134.8
2557.26554	3132.8
2559.96803	3131.7
2562.66883	3119.5
2565.36794	3113.5
2568.06536	3105.6
2570.7611	3091
2573.45514	3109.5
2576.14751	3088.9
2578.83819	3092.6
2581.52719	3078.7
2584.21451	3079.1
2586.90015	3073.3
2589.58411	3068.3
2592.2664	3078.2
2594.94701	3073.8
2597.62594	3090.5
2600.30321	3077.8
2602.9788	3064.8
2605.65273	3063.5
2608.32498	3078.6
2610.99557	3058.5
2613.66449	3062.5
2616.33175	3051.2
2618.99734	3053
2621.66128	3062.8
2624.32355	3069.4
2626.98416	3067.5
2629.64311	3064.4
2632.30041	3056.3
2634.95605	3055.9
2637.61004	3060.9
2640.26238	3040.4
2642.91306	3046.9
2645.56209	3034.1
2648.20948	3022.1
2650.85521	3033.8
2653.4993	3038.7
2656.14175	3027.5
2658.78255	3028.2
2661.42171	3038.3
2664.05923	3043
2666.6951	3045.9
2669.32934	3038.2
2671.96194	3040.2
2674.59291	3027.7
2677.22224	3041.3
2679.84993	3034.8
2682.476	3033
2685.10043	3043.9
2687.72324	3011.6
2690.34441	3033.2
2692.96396	3026.7
2695.58188	3025.5
2698.19818	3019.7
2700.81285	3024
2703.4259	3015.3
2706.03733	3018.7
2708.64714	3021.7
2711.25533	3012.4
2713.86191	2999.4
2716.46687	3017.6
2719.07021	3020.6
2721.67194	3024.8
2724.27206	3030.3
2726.87057	3025.2
2729.46747	3014.8
2732.06276	3018.4
2734.65644	3024
2737.24852	3023.6
2739.83899	3015.2
2742.42786	3007.4
2745.01513	3013.8
2747.60079	3000
2750.18486	2998
2752.76733	2995.4
2755.3482	3001
2757.92747	2992.4
2760.50515	2997.2
2763.08123	2982.4
2765.65573	2981.6
2768.22863	2960.9
2770.79994	2977.7
2773.36967	2981.9
2775.9378	2980.1
2778.50435	2986.6
2781.06932	2973.6
2783.6327	2973.7
2786.1945	2970
2788.75471	2966.4
2791.31335	2960.3
2793.87041	2951.9
2796.42589	2947.1
2798.97979	2946.4
2801.53212	2929.2
2804.08288	2930.6
2806.63206	2935.8
2809.17967	2937.3
2811.72571	2924.1
2814.27018	2922.1
2816.81308	2920.1
2819.35442	2910.8
2821.89419	2899.5
2824.43239	2906.5
2826.96904	2897.7
2829.50412	2891
2832.03763	2894.7
2834.56959	2895.1
2837.1	2883
2839.62884	2887.3
2842.15613	2892
2844.68186	2881.2
2847.20604	2871.8
2849.72867	2896.3
2852.24974	2865.3
2854.76927	2852.1
2857.28724	2850.4
2859.80367	2856.5
2862.31855	2845.2
2864.83189	2853
2867.34368	2843.5
2869.85393	2850.7
2872.36264	2836.9
2874.8698	2844.1
2877.37543	2840.1
2879.87952	2836.7
2882.38207	2851.5
2884.88308	2820.5
2887.38256	2827.7
2889.88051	2831.9
2892.37692	2833.3
2894.8718	2825
2897.36515	2826.4
2899.85698	2851.7
2902.34727	2833.4
2904.83604	2834.6
2907.32328	2838.1
2909.809	2857.5
2912.29319	2842.3
2914.77587	2836.8
2917.25702	2858.7
2919.73665	2855.2
2922.21476	2849.6
2924.69136	2840.9
2927.16644	2844.6
2929.64	2839.4
2932.11205	2841.4
2934.58258	2819.8
2937.05161	2837.9
2939.51912	2824.9
2941.98513	2814.1
2944.44962	2809.8
2946.91261	2803.8
2949.37409	2826.2
2951.83407	2829.4
2954.29254	2822.4
2956.74951	2813.1
2959.20498	2802.6
2961.65895	2789.1
2964.11142	2796.2
2966.56239	2795.2
2969.01186	2800.7
2971.45984	2797.7
2973.90632	2787.5
2976.35131	2788
2978.7948	2787.9
2981.23681	2770.3
2983.67732	2772.7
2986.11635	2772.8
2988.55388	2761.8
2990.98993	2746.3
2993.4245	2755.8
2995.85758	2745.2
2998.28917	2743.8
3000.71928	2740.1
3003.14791	2729.3
3005.57506	2718.4
3008.00073	2724
3010.42493	2690
3012.84764	2692.4
3015.26888	2687.6
3017.68865	2681.9
3020.10694	2686.6
3022.52376	2681.9
3024.9391	2685.1
3027.35298	2666.4
3029.76539	2656.8
3032.17632	2665.7
3034.5858	2651.2
3036.9938	2652.3
3039.40034	2654.7
3041.80542	2630.4
3044.20903	2638.8
3046.61118	2636.9
3049.01187	2622.4
3051.4111	2628.9
3053.80888	2624.9
3056.20519	2615.2
3058.60005	2597.6
3060.99345	2611.5
3063.3854	2602.7
3065.7759	2610.2
3068.16494	2586.3
3070.55254	2583.7
3072.93868	2581
3075.32338	2562.3
3077.70662	2561.8
3080.08842	2557.4
3082.46878	2541.6
3084.84769	2545.2
3087.22515	2543.6
3089.60118	2540.6
3091.97576	2547.1
3094.3489	2541.8
3096.72061	2534.5
3099.09087	2531.6
3101.4597	2546.3
3103.82709	2544.4
3106.19305	2523.5
3108.55757	2536.1
3110.92066	2533.8
3113.28232	2526.1
3115.64255	2517.5
3118.00134	2503.5
3120.35871	2506.2
3122.71466	2511
3125.06917	2511
3127.42226	2505.3
3129.77393	2488.7
3132.12417	2494.6
3134.47299	2488.1
3136.82039	2477.8
3139.16636	2483
3141.51092	2466.7
3143.85406	2488.4
3146.19579	2488.5
3148.53609	2481
3150.87499	2487.7
3153.21246	2475.6
3155.54853	2481.5
3157.88318	2493.1
3160.21642	2487.6
3162.54826	2480.2
3164.87868	2483.8
3167.2077	2472.6
3169.5353	2467.7
3171.86151	2472.3
3174.18631	2470.1
3176.5097	2472.5
3178.83169	2453.9
3181.15228	2456.6
3183.47147	2443.3
3185.78926	2450.7
3188.10565	2441.3
3190.42065	2445.3
3192.73424	2438.9
3195.04645	2426.4
3197.35725	2424.5
3199.66667	2430
3201.97469	2426.1
3204.28132	2426.7
3206.58656	2425.5
3208.8904	2430.9
3211.19287	2434.1
3213.49394	2427.8
3215.79363	2444.1
3218.09193	2449.4
3220.38884	2430.6
3222.68438	2433.8
3224.97853	2423.9
3227.2713	2429.5
3229.56269	2431.5
3231.8527	2426.6
3234.14133	2425.8
3236.42858	2418.2
3238.71446	2409.7
3240.99896	2410.8
3243.28209	2402.9
3245.56384	2397
3247.84423	2394.3
3250.12324	2385.3
3252.40088	2390.9
3254.67715	2393
3256.95205	2385.3
3259.22558	2388.2
3261.49775	2391.9
3263.76855	2391.7
3266.03799	2389.1
3268.30606	2384
3270.57277	2395.4
3272.83812	2382.4
3275.10211	2368.6
3277.36474	2362.2
3279.62601	2364.6
3281.88593	2363.1
3284.14448	2363.5
3286.40168	2357.1
3288.65753	2360.8
3290.91202	2345.4
3293.16516	2341.5
3295.41695	2344.8
3297.66738	2331.3
3299.91647	2318.3
3302.16421	2308.8
3304.4106	2300.5
3306.65564	2279.5
3308.89933	2262.9
3311.14169	2259.3
3313.38269	2228.4
3315.62236	2214.4
3317.86068	2205.8
3320.09766	2177.2
3322.3333	2162.5
3324.5676	2158.4
3326.80056	2129.6
3329.03219	2120
3331.26248	1.4
3333.49143	-0.4
3335.71905	-2.1
