Data from AgNPs_UA_20uM_CRN_500uM_SU_RamanShift__66__13-47-30-303.txt Node

Date: Thu Aug 04 13:47:30 BST 2022
User: TCL
Spectrometer: QEP01345
Trigger mode: 4
Integration Time (sec): 1.000000E0
Scans to average: 10
Electric dark correction enabled: true
Nonlinearity correction enabled: false
Boxcar width: 0
XAxis mode: Raman Shifts
Number of Pixels in Spectrum: 1044
>>>>>Begin Spectral Data<<<<<
46.04893	-2.1
50.45542	-0.2
54.85868	1.3
59.25871	0.4
63.6555	11.8
68.04907	9.4
72.43941	15.2
76.82654	10.7
81.21044	13.8
85.59113	13.2
89.96862	13.5
94.34289	15.1
98.71396	12.9
103.08183	16.8
107.4465	13.9
111.80798	17.6
116.16626	17.9
120.52136	19.6
124.87327	16.5
129.222	21.3
133.56755	17.4
137.90993	20
142.24913	24.7
146.58517	26.4
150.91804	27
155.24774	36.1
159.57429	45.5
163.89768	55.9
168.21792	75.4
172.53501	102.7
176.84895	137.1
181.15975	200
185.46741	274.3
189.77193	381.1
194.07331	511.7
198.37157	656
202.6667	815.4
206.9587	962.4
211.24758	1108.6
215.53334	1266
219.81599	1422.3
224.09553	1604.2
228.37195	1797.7
232.64527	2014.5
236.91549	2227.5
241.18261	2436.4
245.44663	2627.9
249.70755	2797.4
253.96539	2946.8
258.22014	3072.9
262.4718	3183
266.72039	3264.6
270.96589	3289.8
275.20832	3287.2
279.44768	3265.8
283.68397	3208.8
287.91719	3162.3
292.14735	3151.3
296.37445	3162.8
300.59849	3228.9
304.81948	3296.3
309.03742	3366.7
313.25231	3369.6
317.46415	3334.8
321.67296	3274.7
325.87872	3194.6
330.08145	3171.1
334.28114	3183.6
338.47781	3220.1
342.67145	3307.1
346.86207	3377.3
351.04966	3466.6
355.23424	3574.5
359.4158	3664.4
363.59435	3712
367.76989	3752.9
371.94243	3776.1
376.11196	3813.8
380.27849	3854.4
384.44203	3883.3
388.60257	3892.8
392.76012	3929.5
396.91468	3973.8
401.06626	4054.5
405.21485	4117.1
409.36047	4089.6
413.50311	4016.6
417.64277	3965.7
421.77947	3901.3
425.9132	3915
430.04396	3954.4
434.17176	4032.2
438.2966	4163.7
442.41849	4349.4
446.53742	4573.9
450.6534	4785.1
454.76644	4923
458.87653	4919.5
462.98368	4772.1
467.08789	4598
471.18916	4418.8
475.2875	4245.2
479.38291	4094.7
483.4754	4006.3
487.56496	3938.9
491.6516	3886.6
495.73531	3868.2
499.81612	3842.1
503.89401	3873.6
507.96899	3893
512.04106	3892.6
516.11023	3933.1
520.1765	3985.5
524.23987	4009.5
528.30034	4029.9
532.35792	4018.3
536.41261	3976.4
540.46441	3917.3
544.51333	3902.4
548.55936	3945.2
552.60252	3992.1
556.64279	4036.9
560.6802	4049.4
564.71473	4044.5
568.7464	4028.6
572.7752	4046.3
576.80114	4033.9
580.82422	4033.7
584.84444	4152.3
588.86181	4320.8
592.87633	4518.5
596.888	4631.3
600.89682	4749.7
604.9028	5116.2
608.90594	5824.2
612.90624	6355.2
616.90371	5812.4
620.89834	4801.4
624.89015	4416.1
628.87913	4349.3
632.86528	4301.5
636.84862	4208.5
640.82913	4084.4
644.80683	3984.2
648.78172	3931.3
652.75379	3965.8
656.72306	4093.4
660.68952	4184.5
664.65319	4162.6
668.61405	4119.5
672.57211	4118.3
676.52738	4106.8
680.47986	4054.9
684.42955	4006.2
688.37646	3999.6
692.32058	4039.3
696.26192	4105.9
700.20048	4181.3
704.13626	4189.3
708.06928	4135.7
711.99952	4074.9
715.927	4093
719.85171	4117.7
723.77365	4096.5
727.69284	4055.5
731.60928	4038.9
735.52295	4059.3
739.43388	4106.8
743.34206	4131.5
747.24749	4167.1
751.15017	4171.1
755.05012	4221.9
758.94733	4362.3
762.8418	4619.8
766.73354	4972.7
770.62254	5321.3
774.50882	5462.6
778.39237	5267.2
782.27321	4877.8
786.15132	4503.3
790.02671	4271
793.89938	4178.6
797.76935	4116.7
801.6366	4105.9
805.50115	4093.7
809.36299	4082.9
813.22213	4068
817.07857	4057.3
820.93231	4054.9
824.78336	4068.9
828.63172	4083.1
832.47738	4087.7
836.32036	4085.9
840.16066	4100.6
843.99827	4099
847.8332	4096.6
851.66546	4081.1
855.49504	4088.1
859.32195	4096.5
863.1462	4084.5
866.96777	4064.1
870.78668	4051.6
874.60293	4074.9
878.41652	4096
882.22745	4116.1
886.03573	4128.4
889.84136	4125.6
893.64433	4110.7
897.44466	4087.9
901.24235	4085.6
905.0374	4057.8
908.8298	4069.2
912.61957	4056.7
916.40671	4082.3
920.19121	4104.8
923.97308	4167
927.75233	4211.7
931.52895	4215.6
935.30295	4188.5
939.07433	4090.4
942.84309	4048
946.60924	4031.3
950.37278	4023.7
954.13371	3994
957.89203	3985.6
961.64774	3974.9
965.40086	3967.6
969.15137	3946.1
972.89929	3962.4
976.64461	3966.4
980.38733	3975.5
984.12747	3998.3
987.86502	4033.5
991.59999	4096.6
995.33237	4199.9
999.06217	4351.3
1002.78939	4513.4
1006.51404	4586.3
1010.23611	4638.7
1013.95561	4729.2
1017.67255	4791.9
1021.38692	4734.4
1025.09872	4652.3
1028.80796	4654.5
1032.51465	4742
1036.21877	4793.6
1039.92035	4799.5
1043.61937	4726.2
1047.31584	4618.3
1051.00976	4519.7
1054.70114	4469
1058.38998	4484.1
1062.07627	4489.1
1065.76003	4524
1069.44126	4575.8
1073.11995	4603.4
1076.79611	4628.3
1080.46974	4666.2
1084.14085	4709.1
1087.80943	4740.1
1091.47549	4750.7
1095.13903	4695.4
1098.80005	4583.3
1102.45857	4545.7
1106.11456	4549.7
1109.76805	4574.6
1113.41903	4618.9
1117.06751	4697.6
1120.71348	4772.2
1124.35696	4865.7
1127.99793	4899.7
1131.63641	4866.2
1135.2724	4774
1138.90589	4682.3
1142.5369	4605.1
1146.16542	4559.1
1149.79145	4547.5
1153.415	4555.3
1157.03607	4593.8
1160.65467	4662
1164.27079	4771.7
1167.88443	4964.6
1171.49561	5211.6
1175.10432	5632.3
1178.71056	6184.5
1182.31434	6709.4
1185.91565	7102.8
1189.51451	7278.5
1193.11091	7086.1
1196.70485	6637.3
1200.29634	6217.3
1203.88538	5838.9
1207.47197	5553
1211.05612	5328.6
1214.63782	5234.2
1218.21708	5197.8
1221.79391	5226
1225.36829	5299.7
1228.94024	5291.9
1232.50976	5301.2
1236.07685	5342
1239.6415	5399.5
1243.20374	5445.1
1246.76355	5449.6
1250.32093	5491.6
1253.8759	5609.4
1257.42845	5788.6
1260.97859	6000.5
1264.52631	6149
1268.07163	6236.7
1271.61453	6324.9
1275.15503	6392.2
1278.69312	6473.1
1282.22882	6589.5
1285.76211	6771.3
1289.29301	6985.3
1292.82151	7181.9
1296.34761	7369.5
1299.87133	7559.1
1303.39266	7845
1306.9116	8277.7
1310.42815	8732.6
1313.94233	8927.4
1317.45412	8825.5
1320.96354	8597.1
1324.47058	8408.4
1327.97525	8313.9
1331.47754	8453.8
1334.97747	8697.8
1338.47502	8883.9
1341.97022	8948.1
1345.46305	8998.5
1348.95352	9132.5
1352.44163	9451.1
1355.92738	9799.8
1359.41078	10231.2
1362.89183	10367.7
1366.37053	9829.9
1369.84688	8857.8
1373.32088	7957.7
1376.79254	7389.6
1380.26186	7115.2
1383.72883	6973.3
1387.19347	6759.2
1390.65578	6512.5
1394.11575	6240.1
1397.57339	6102.7
1401.0287	6146.2
1404.48168	6327.9
1407.93234	6562.2
1411.38068	6792.1
1414.82669	6817.2
1418.27039	6695.7
1421.71177	6542.5
1425.15083	6542
1428.58758	6652.7
1432.02203	6848.2
1435.45416	6958.7
1438.88399	6946.5
1442.31151	6876.2
1445.73673	6795.7
1449.15965	6714
1452.58027	6584.8
1455.9986	6425.7
1459.41463	6384.6
1462.82837	6467.1
1466.23982	6611.1
1469.64898	6773.5
1473.05586	6921.8
1476.46045	7037.4
1479.86276	7116.7
1483.26279	7150.3
1486.66054	7173.9
1490.05602	7267.4
1493.44922	7397.3
1496.84016	7596.1
1500.22882	7840.4
1503.61521	8213.5
1506.99934	8497.3
1510.38121	8601.9
1513.76081	8379.7
1517.13816	7941.2
1520.51324	7474.6
1523.88607	7177
1527.25665	7075.1
1530.62498	7075.4
1533.99105	7102.9
1537.35488	7156.9
1540.71647	7154.1
1544.07581	7083
1547.4329	6910.6
1550.78776	6711.7
1554.14038	6490.7
1557.49077	6328.5
1560.83892	6274.1
1564.18484	6232.8
1567.52853	6275.6
1570.86999	6298.7
1574.20922	6313.6
1577.54624	6267.4
1580.88103	6100.8
1584.2136	5987.4
1587.54395	6053.6
1590.87208	6357.7
1594.19801	6957.7
1597.52172	7681.3
1600.84321	8206.2
1604.16251	8227.6
1607.47959	7735.9
1610.79447	7001.5
1614.10715	6300.8
1617.41763	5798.1
1620.7259	5440.6
1624.03199	5325.2
1627.33587	5313.9
1630.63757	5459.3
1633.93707	5774.6
1637.23439	6296.6
1640.52951	6958.5
1643.82246	7683
1647.11321	8086.4
1650.40179	7877.6
1653.68819	7127.7
1656.97241	6177.7
1660.25446	5415.2
1663.53433	4920.8
1666.81203	4614.8
1670.08756	4426.1
1673.36092	4314.2
1676.63211	4234.6
1679.90115	4166.8
1683.16801	4107.7
1686.43272	4063.6
1689.69527	4046
1692.95567	4034.1
1696.2139	4010.9
1699.46999	4007.1
1702.72392	4001.5
1705.97571	3999.5
1709.22535	4018
1712.47284	3980.5
1715.71819	3998.8
1718.96139	3976.8
1722.20246	3974.1
1725.44139	3952
1728.67818	3930.9
1731.91284	3920.4
1735.14537	3902.1
1738.37576	3881.9
1741.60403	3877.7
1744.83017	3851.8
1748.05418	3864.1
1751.27607	3842.3
1754.49584	3842.6
1757.71349	3818.5
1760.92903	3829
1764.14244	3810.2
1767.35375	3822
1770.56294	3813.2
1773.77002	3801.6
1776.97499	3810
1780.17785	3794.9
1783.37861	3795.1
1786.57727	3777.3
1789.77382	3787.6
1792.96828	3775.8
1796.16064	3776.9
1799.3509	3761
1802.53907	3759.5
1805.72514	3758.8
1808.90913	3764.3
1812.09102	3743.6
1815.27083	3737.7
1818.44856	3721.7
1821.6242	3729.6
1824.79776	3714.9
1827.96924	3705.1
1831.13864	3704
1834.30597	3693
1837.47122	3697.3
1840.6344	3686.1
1843.7955	3675.7
1846.95454	3679.9
1850.11151	3682.9
1853.26642	3684.6
1856.41926	3677.3
1859.57004	3670.9
1862.71876	3672.5
1865.86542	3698.3
1869.01003	3676.7
1872.15258	3677.1
1875.29308	3666.4
1878.43152	3669.6
1881.56792	3654.9
1884.70227	3652.8
1887.83457	3656.3
1890.96482	3665.9
1894.09304	3656.1
1897.21921	3643.1
1900.34335	3638.4
1903.46544	3641.5
1906.58551	3654.1
1909.70353	3658.8
1912.81953	3643.6
1915.93349	3640.3
1919.04543	3633.6
1922.15534	3620
1925.26322	3618.3
1928.36908	3612.2
1931.47292	3610.5
1934.57473	3613.9
1937.67453	3609.9
1940.77232	3598.6
1943.86808	3586.4
1946.96184	3578.7
1950.05358	3583.1
1953.14331	3557
1956.23103	3558.6
1959.31675	3528.5
1962.40046	3521.5
1965.48217	3510.7
1968.56188	3496.1
1971.63959	3487.7
1974.7153	3474.5
1977.78901	3480.1
1980.86073	3452.9
1983.93046	3449.7
1986.99819	3432.9
1990.06394	3417
1993.1277	3406.4
1996.18947	3416
1999.24925	3410.5
2002.30706	3389.3
2005.36288	3379.7
2008.41672	3355.5
2011.46859	3352.3
2014.51848	3345.8
2017.56639	3330.4
2020.61233	3335.7
2023.6563	3329.4
2026.6983	3324.5
2029.73833	3307.8
2032.7764	3315.7
2035.8125	3295
2038.84664	3294.2
2041.87881	3304.7
2044.90903	3277.8
2047.93729	3272.2
2050.96359	3282.5
2053.98794	3271.3
2057.01034	3282.6
2060.03078	3268
2063.04927	3260.3
2066.06582	3256.3
2069.08042	3255.2
2072.09307	3256.8
2075.10378	3249.8
2078.11255	3251.7
2081.11938	3235
2084.12426	3241.4
2087.12722	3225.3
2090.12824	3229.5
2093.12732	3232.3
2096.12447	3231.4
2099.11969	3243.9
2102.11299	3233.4
2105.10435	3232.9
2108.09379	3223.9
2111.08131	3228.5
2114.0669	3233
2117.05057	3232.7
2120.03233	3214.6
2123.01216	3234.1
2125.99008	3220.9
2128.96609	3227.6
2131.94018	3248.1
2134.91236	3224.3
2137.88263	3234.6
2140.851	3227.3
2143.81746	3233.1
2146.78201	3221.6
2149.74466	3235.8
2152.7054	3238.5
2155.66425	3230.6
2158.6212	3231.8
2161.57625	3227.9
2164.52941	3212.6
2167.48067	3223.1
2170.43004	3222.8
2173.37752	3203.5
2176.32311	3210.2
2179.26681	3216.2
2182.20863	3224
2185.14856	3231.8
2188.08661	3218.4
2191.02278	3221.8
2193.95707	3214.6
2196.88948	3225
2199.82001	3214.7
2202.74867	3217.3
2205.67545	3207.3
2208.60037	3203
2211.52341	3218.9
2214.44458	3201.5
2217.36388	3183.4
2220.28132	3179.1
2223.1969	3167.6
2226.11061	3177.1
2229.02246	3167.6
2231.93245	3155
2234.84058	3139.8
2237.74686	3129.8
2240.65128	3143.9
2243.55385	3144.7
2246.45456	3131.9
2249.35343	3118.9
2252.25044	3118.1
2255.14561	3119.9
2258.03893	3125.5
2260.93041	3110.5
2263.82004	3103.4
2266.70783	3107.9
2269.59378	3077.3
2272.4779	3088.8
2275.36017	3070.6
2278.24061	3047
2281.11922	3050.5
2283.996	3037.7
2286.87094	3041.2
2289.74405	3029.1
2292.61534	3024.5
2295.4848	3022.9
2298.35243	3030.9
2301.21824	3030
2304.08223	3022.7
2306.94439	3023.7
2309.80474	3038.8
2312.66327	3022.7
2315.51999	3021.2
2318.37489	3018.4
2321.22797	3026
2324.07925	3025.2
2326.92871	3018.4
2329.77637	3015.9
2332.62222	3002.3
2335.46626	3007.5
2338.3085	3002.8
2341.14893	2999.2
2343.98756	3019.7
2346.8244	3012.5
2349.65943	3005.9
2352.49267	3006.4
2355.32411	3001.2
2358.15376	3003.3
2360.98161	3002.3
2363.80768	2993.4
2366.63195	2996
2369.45444	2981.4
2372.27514	2965.9
2375.09405	2972.5
2377.91118	2974.5
2380.72652	2977.6
2383.54009	2954.9
2386.35187	2945.4
2389.16188	2939.2
2391.97011	2939.8
2394.77657	2937.2
2397.58125	2920.2
2400.38416	2908.4
2403.18529	2915.9
2405.98466	2914.2
2408.78226	2915.7
2411.57809	2898.7
2414.37216	2892
2417.16446	2896.4
2419.955	2888.4
2422.74378	2876.6
2425.5308	2878.3
2428.31606	2865.4
2431.09956	2878.6
2433.88131	2869.5
2436.6613	2867.5
2439.43954	2869.2
2442.21603	2859.2
2444.99077	2861.6
2447.76377	2860.6
2450.53501	2855.1
2453.30451	2860.5
2456.07226	2850.3
2458.83827	2842
2461.60254	2834.6
2464.36507	2831.9
2467.12586	2839.5
2469.88492	2830
2472.64224	2845.3
2475.39782	2845.8
2478.15167	2853.7
2480.90379	2836.2
2483.65417	2836.9
2486.40283	2846.9
2489.14976	2846.4
2491.89497	2850.1
2494.63845	2843.8
2497.3802	2850.8
2500.12024	2836.5
2502.85855	2831.6
2505.59514	2832.4
2508.33002	2823.3
2511.06318	2820.8
2513.79462	2812.9
2516.52435	2819
2519.25237	2829.7
2521.97867	2804.4
2524.70327	2816.9
2527.42616	2804.1
2530.14734	2809.8
2532.86681	2799.6
2535.58458	2802.9
2538.30065	2803.6
2541.01501	2808.6
2543.72768	2797.1
2546.43864	2802.6
2549.14791	2785.8
2551.85548	2798.8
2554.56136	2792.2
2557.26554	2794
2559.96803	2783.2
2562.66883	2777.8
2565.36794	2773.7
2568.06536	2765.6
2570.7611	2753
2573.45514	2749.6
2576.14751	2752.4
2578.83819	2758.7
2581.52719	2745.8
2584.21451	2755.8
2586.90015	2748.4
2589.58411	2736.3
2592.2664	2752.6
2594.94701	2744.4
2597.62594	2746.1
2600.30321	2733.5
2602.9788	2743.2
2605.65273	2732.1
2608.32498	2742.3
2610.99557	2727.1
2613.66449	2724.3
2616.33175	2739.8
2618.99734	2731.8
2621.66128	2723
2624.32355	2733
2626.98416	2737.8
2629.64311	2732
2632.30041	2724.7
2634.95605	2739.7
2637.61004	2739.1
2640.26238	2721.6
2642.91306	2720.8
2645.56209	2713.9
2648.20948	2702.1
2650.85521	2711.2
2653.4993	2713.9
2656.14175	2710.3
2658.78255	2709.8
2661.42171	2720.4
2664.05923	2728.6
2666.6951	2722
2669.32934	2729.7
2671.96194	2733.9
2674.59291	2724
2677.22224	2728.6
2679.84993	2724.7
2682.476	2715.6
2685.10043	2734.5
2687.72324	2726.4
2690.34441	2733.1
2692.96396	2723.3
2695.58188	2714.9
2698.19818	2712.6
2700.81285	2712.9
2703.4259	2716.4
2706.03733	2716.4
2708.64714	2711.2
2711.25533	2706.2
2713.86191	2713.1
2716.46687	2711.8
2719.07021	2721.6
2721.67194	2726.9
2724.27206	2730.5
2726.87057	2721.1
2729.46747	2728.4
2732.06276	2715
2734.65644	2720.3
2737.24852	2719
2739.83899	2715.3
2742.42786	2709.1
2745.01513	2709.5
2747.60079	2705.4
2750.18486	2715.3
2752.76733	2708.2
2755.3482	2709.9
2757.92747	2703.7
2760.50515	2705.9
2763.08123	2692.3
2765.65573	2686.5
2768.22863	2683.8
2770.79994	2696.9
2773.36967	2689.3
2775.9378	2693.8
2778.50435	2690.6
2781.06932	2690.3
2783.6327	2685.5
2786.1945	2678.3
2788.75471	2678.9
2791.31335	2676
2793.87041	2677.6
2796.42589	2674.3
2798.97979	2672.9
2801.53212	2674.2
2804.08288	2665.3
2806.63206	2646.8
2809.17967	2658.2
2811.72571	2648.1
2814.27018	2648.8
2816.81308	2639.3
2819.35442	2633.5
2821.89419	2623.4
2824.43239	2612.1
2826.96904	2622.3
2829.50412	2623.9
2832.03763	2628.2
2834.56959	2617.2
2837.1	2605.4
2839.62884	2616.3
2842.15613	2617.5
2844.68186	2616.5
2847.20604	2618.3
2849.72867	2594.7
2852.24974	2598.8
2854.76927	2588.4
2857.28724	2583.4
2859.80367	2577.1
2862.31855	2576.4
2864.83189	2563.8
2867.34368	2576.5
2869.85393	2565.7
2872.36264	2559.6
2874.8698	2561.6
2877.37543	2558.6
2879.87952	2544.9
2882.38207	2558.4
2884.88308	2553.2
2887.38256	2540.9
2889.88051	2542.2
2892.37692	2542.6
2894.8718	2536.4
2897.36515	2539.7
2899.85698	2539.7
2902.34727	2538.5
2904.83604	2543
2907.32328	2546.4
2909.809	2552.7
2912.29319	2544.8
2914.77587	2553.4
2917.25702	2542.6
2919.73665	2544.4
2922.21476	2542.4
2924.69136	2539
2927.16644	2537.4
2929.64	2535.5
2932.11205	2545
2934.58258	2524
2937.05161	2519.7
2939.51912	2520.5
2941.98513	2519.5
2944.44962	2511.9
2946.91261	2506.8
2949.37409	2525.3
2951.83407	2507.4
2954.29254	2511.1
2956.74951	2511.7
2959.20498	2498.6
2961.65895	2497.1
2964.11142	2485.6
2966.56239	2485.7
2969.01186	2499.6
2971.45984	2501.4
2973.90632	2488.9
2976.35131	2486.8
2978.7948	2465.3
2981.23681	2459.7
2983.67732	2464.8
2986.11635	2465.1
2988.55388	2452.4
2990.98993	2444.4
2993.4245	2432.5
2995.85758	2428.3
2998.28917	2424.4
3000.71928	2411
3003.14791	2403.4
3005.57506	2397.2
3008.00073	2381.7
3010.42493	2390.3
3012.84764	2370.3
3015.26888	2369.4
3017.68865	2364.9
3020.10694	2364.7
3022.52376	2349.1
3024.9391	2343.6
3027.35298	2339
3029.76539	2350.4
3032.17632	2342.9
3034.5858	2344.7
3036.9938	2341.2
3039.40034	2322
3041.80542	2318.2
3044.20903	2313.6
3046.61118	2325
3049.01187	2304.3
3051.4111	2309.3
3053.80888	2301.1
3056.20519	2279.1
3058.60005	2285.8
3060.99345	2270.7
3063.3854	2275.2
3065.7759	2262.6
3068.16494	2272.1
3070.55254	2255.4
3072.93868	2259
3075.32338	2231.3
3077.70662	2221.3
3080.08842	2221.6
3082.46878	2217
3084.84769	2202.3
3087.22515	2195.6
3089.60118	2199.9
3091.97576	2204.6
3094.3489	2209.6
3096.72061	2197.4
3099.09087	2198.5
3101.4597	2194.7
3103.82709	2195.3
3106.19305	2177.3
3108.55757	2178.6
3110.92066	2170.5
3113.28232	2170.5
3115.64255	2162.8
3118.00134	2156.4
3120.35871	2158.5
3122.71466	2145.5
3125.06917	2158.1
3127.42226	2141.9
3129.77393	2135.5
3132.12417	2132.4
3134.47299	2134.7
3136.82039	2130.6
3139.16636	2130.2
3141.51092	2122.8
3143.85406	2110.2
3146.19579	2125.6
3148.53609	2118
3150.87499	2127.7
3153.21246	2115
3155.54853	2099.6
3157.88318	2107.4
3160.21642	2111.3
3162.54826	2117.6
3164.87868	2110.4
3167.2077	2100.7
3169.5353	2094.2
3171.86151	2099.9
3174.18631	2093.2
3176.5097	2090.9
3178.83169	2086.2
3181.15228	2075.7
3183.47147	2081.2
3185.78926	2073.3
3188.10565	2065.5
3190.42065	2062.1
3192.73424	2068.5
3195.04645	2054.8
3197.35725	2046.6
3199.66667	2051
3201.97469	2050.6
3204.28132	2048.9
3206.58656	2051.1
3208.8904	2055.4
3211.19287	2055
3213.49394	2055.1
3215.79363	2040.9
3218.09193	2050.3
3220.38884	2048
3222.68438	2040.4
3224.97853	2043.8
3227.2713	2044
3229.56269	2050
3231.8527	2039.5
3234.14133	2025.5
3236.42858	2023.6
3238.71446	2024.8
3240.99896	2012
3243.28209	2011.8
3245.56384	2014.3
3247.84423	2001.6
3250.12324	1999.8
3252.40088	2005.7
3254.67715	2003.5
3256.95205	1993
3259.22558	1998.5
3261.49775	1998.4
3263.76855	1995.1
3266.03799	1998.2
3268.30606	1987.4
3270.57277	1986.7
3272.83812	1987.3
3275.10211	1975.6
3277.36474	1962.2
3279.62601	1969.7
3281.88593	1956
3284.14448	1957.5
3286.40168	1954.3
3288.65753	1958.5
3290.91202	1953.7
3293.16516	1954.2
3295.41695	1945.6
3297.66738	1926.9
3299.91647	1918.1
3302.16421	1908.1
3304.4106	1901
3306.65564	1876.9
3308.89933	1878
3311.14169	1859.3
3313.38269	1847.9
3315.62236	1836.2
3317.86068	1811.1
3320.09766	1804.5
3322.3333	1772.8
3324.5676	1761.1
3326.80056	1749.4
3329.03219	1723.7
3331.26248	2.5
3333.49143	-1
3335.71905	-2
