Data from AgNPs_UA_20uM_CRN_500uM_SU_RamanShift__62__13-46-50-303.txt Node

Date: Thu Aug 04 13:46:50 BST 2022
User: TCL
Spectrometer: QEP01345
Trigger mode: 4
Integration Time (sec): 1.000000E0
Scans to average: 10
Electric dark correction enabled: true
Nonlinearity correction enabled: false
Boxcar width: 0
XAxis mode: Raman Shifts
Number of Pixels in Spectrum: 1044
>>>>>Begin Spectral Data<<<<<
46.04893	-0.9
50.45542	0.7
54.85868	-0.5
59.25871	-0.1
63.6555	11.3
68.04907	10
72.43941	14.8
76.82654	11.8
81.21044	12.5
85.59113	15.3
89.96862	14.2
94.34289	15.5
98.71396	16.2
103.08183	16.7
107.4465	13.8
111.80798	17.6
116.16626	17.8
120.52136	21.3
124.87327	20.8
129.222	22.8
133.56755	19.6
137.90993	22.9
142.24913	24
146.58517	26.8
150.91804	33
155.24774	40.7
159.57429	48.9
163.89768	64.2
168.21792	83.1
172.53501	116.9
176.84895	158.3
181.15975	228.8
185.46741	315.4
189.77193	440
194.07331	588.6
198.37157	752.8
202.6667	940.3
206.9587	1116.4
211.24758	1290.4
215.53334	1462.1
219.81599	1645.6
224.09553	1872.3
228.37195	2084.2
232.64527	2330.9
236.91549	2590
241.18261	2835.9
245.44663	3046.1
249.70755	3236
253.96539	3423.1
258.22014	3551.1
262.4718	3686.2
266.72039	3757.8
270.96589	3808.4
275.20832	3809.3
279.44768	3766.8
283.68397	3708.4
287.91719	3655.8
292.14735	3656.7
296.37445	3679.7
300.59849	3754.1
304.81948	3824.4
309.03742	3895.6
313.25231	3913.7
317.46415	3877
321.67296	3793.6
325.87872	3700.3
330.08145	3671.1
334.28114	3679.7
338.47781	3745.1
342.67145	3831
346.86207	3905.7
351.04966	4008.7
355.23424	4143.1
359.4158	4241.8
363.59435	4308.4
367.76989	4361.4
371.94243	4404.2
376.11196	4432.2
380.27849	4464.4
384.44203	4503
388.60257	4518.5
392.76012	4550.1
396.91468	4622
401.06626	4695.2
405.21485	4754.4
409.36047	4742.5
413.50311	4638.4
417.64277	4555.7
421.77947	4518.1
425.9132	4496.2
430.04396	4546.9
434.17176	4628.2
438.2966	4779.2
442.41849	4944.1
446.53742	5182.1
450.6534	5391.4
454.76644	5543.7
458.87653	5526.6
462.98368	5394.8
467.08789	5252.1
471.18916	5075.2
475.2875	4871.9
479.38291	4722.2
483.4754	4633.7
487.56496	4585.4
491.6516	4522.7
495.73531	4483.9
499.81612	4484.8
503.89401	4501.9
507.96899	4525.1
512.04106	4550.9
516.11023	4580.5
520.1765	4639.6
524.23987	4661.5
528.30034	4662.3
532.35792	4664.7
536.41261	4593.7
540.46441	4540.5
544.51333	4531.8
548.55936	4569.3
552.60252	4627.6
556.64279	4682.3
560.6802	4694.9
564.71473	4688.2
568.7464	4700.2
572.7752	4697.3
576.80114	4679.6
580.82422	4670.4
584.84444	4774.3
588.86181	4963.3
592.87633	5147.9
596.888	5270.5
600.89682	5430.8
604.9028	5828.7
608.90594	6697.3
612.90624	7367.2
616.90371	6744.3
620.89834	5605.5
624.89015	5175.8
628.87913	5117.1
632.86528	5065
636.84862	4939.3
640.82913	4796.2
644.80683	4652.9
648.78172	4578.5
652.75379	4633.9
656.72306	4771.6
660.68952	4914.4
664.65319	4863.1
668.61405	4826.5
672.57211	4828
676.52738	4821.1
680.47986	4743.8
684.42955	4700.4
688.37646	4687.6
692.32058	4734.6
696.26192	4831.2
700.20048	4901.9
704.13626	4915
708.06928	4839.9
711.99952	4789.5
715.927	4783.5
719.85171	4823
723.77365	4809.2
727.69284	4748.2
731.60928	4729.5
735.52295	4733.2
739.43388	4779.4
743.34206	4848.1
747.24749	4865.9
751.15017	4899.7
755.05012	4961.6
758.94733	5090.2
762.8418	5392.9
766.73354	5829.9
770.62254	6214.2
774.50882	6356.8
778.39237	6154.5
782.27321	5726.1
786.15132	5290.1
790.02671	5018
793.89938	4902.5
797.76935	4847.7
801.6366	4839.8
805.50115	4804.3
809.36299	4797.9
813.22213	4794.7
817.07857	4768.3
820.93231	4769.2
824.78336	4791.6
828.63172	4786.4
832.47738	4803.6
836.32036	4830.1
840.16066	4843.3
843.99827	4863.7
847.8332	4855.2
851.66546	4814.6
855.49504	4833.8
859.32195	4822.5
863.1462	4797.6
866.96777	4802.9
870.78668	4776.8
874.60293	4786.9
878.41652	4824.5
882.22745	4846.6
886.03573	4865
889.84136	4868.3
893.64433	4828.3
897.44466	4816.7
901.24235	4801.1
905.0374	4797.6
908.8298	4777.9
912.61957	4786
916.40671	4817.4
920.19121	4867.7
923.97308	4929.3
927.75233	4979.4
931.52895	4992.6
935.30295	4954.1
939.07433	4860.5
942.84309	4797.5
946.60924	4791.7
950.37278	4767.5
954.13371	4736.5
957.89203	4713.8
961.64774	4707
965.40086	4713.7
969.15137	4678.2
972.89929	4669.1
976.64461	4689.4
980.38733	4707.3
984.12747	4724
987.86502	4787.7
991.59999	4856.9
995.33237	4963.5
999.06217	5166
1002.78939	5355
1006.51404	5430.2
1010.23611	5464.7
1013.95561	5567
1017.67255	5666.2
1021.38692	5602.2
1025.09872	5546.6
1028.80796	5578.6
1032.51465	5703.8
1036.21877	5814.8
1039.92035	5796.2
1043.61937	5690.6
1047.31584	5530.4
1051.00976	5398.7
1054.70114	5338.7
1058.38998	5336.8
1062.07627	5338.3
1065.76003	5364.3
1069.44126	5397.9
1073.11995	5450.9
1076.79611	5482.9
1080.46974	5526.8
1084.14085	5587.4
1087.80943	5646.4
1091.47549	5639
1095.13903	5548.9
1098.80005	5451.8
1102.45857	5397.8
1106.11456	5406.2
1109.76805	5396.8
1113.41903	5468.3
1117.06751	5531.8
1120.71348	5648.7
1124.35696	5755.9
1127.99793	5817.9
1131.63641	5747.3
1135.2724	5631.2
1138.90589	5528.4
1142.5369	5434.2
1146.16542	5388.2
1149.79145	5356
1153.415	5372.8
1157.03607	5417.8
1160.65467	5476.1
1164.27079	5609
1167.88443	5801.1
1171.49561	6103
1175.10432	6561.7
1178.71056	7169.9
1182.31434	7797.7
1185.91565	8203
1189.51451	8314.9
1193.11091	8103.7
1196.70485	7616.7
1200.29634	7184.5
1203.88538	6791.9
1207.47197	6462.1
1211.05612	6237.2
1214.63782	6100.1
1218.21708	6098.1
1221.79391	6132
1225.36829	6192.4
1228.94024	6211.9
1232.50976	6189.2
1236.07685	6206.9
1239.6415	6241.7
1243.20374	6273
1246.76355	6312.2
1250.32093	6370.7
1253.8759	6547.1
1257.42845	6741
1260.97859	6926.5
1264.52631	7115.6
1268.07163	7220.3
1271.61453	7306.8
1275.15503	7410
1278.69312	7541.1
1282.22882	7681.1
1285.76211	7827.4
1289.29301	8037
1292.82151	8264
1296.34761	8458.4
1299.87133	8710.5
1303.39266	9107.3
1306.9116	9674.7
1310.42815	10240.3
1313.94233	10468.8
1317.45412	10340.5
1320.96354	9977.8
1324.47058	9609.9
1327.97525	9423.6
1331.47754	9493.9
1334.97747	9732.6
1338.47502	9918.7
1341.97022	10078
1345.46305	10169
1348.95352	10373.7
1352.44163	10700.3
1355.92738	11140.4
1359.41078	11651.4
1362.89183	11851.3
1366.37053	11283.1
1369.84688	10112.3
1373.32088	9052.9
1376.79254	8377.6
1380.26186	8043.9
1383.72883	7874.7
1387.19347	7707.4
1390.65578	7425.3
1394.11575	7162.6
1397.57339	7042.3
1401.0287	7078.6
1404.48168	7240.4
1407.93234	7482.7
1411.38068	7688.8
1414.82669	7768.6
1418.27039	7639.4
1421.71177	7484.4
1425.15083	7446.6
1428.58758	7559.3
1432.02203	7757.6
1435.45416	7853.7
1438.88399	7837.1
1442.31151	7794.6
1445.73673	7702.1
1449.15965	7631.4
1452.58027	7497
1455.9986	7337.5
1459.41463	7308.1
1462.82837	7375.3
1466.23982	7532.5
1469.64898	7696.8
1473.05586	7847.5
1476.46045	7985.7
1479.86276	8078.2
1483.26279	8124.2
1486.66054	8183.8
1490.05602	8301.3
1493.44922	8470.5
1496.84016	8709.1
1500.22882	9081.6
1503.61521	9501.7
1506.99934	9897.6
1510.38121	10014.1
1513.76081	9776.7
1517.13816	9251.6
1520.51324	8673.9
1523.88607	8294.6
1527.25665	8137.1
1530.62498	8105.1
1533.99105	8115.5
1537.35488	8105.8
1540.71647	8115.2
1544.07581	8047.9
1547.4329	7889.5
1550.78776	7709.5
1554.14038	7470.7
1557.49077	7345.4
1560.83892	7257.8
1564.18484	7292.8
1567.52853	7312.8
1570.86999	7359.1
1574.20922	7337.4
1577.54624	7268.5
1580.88103	7095.8
1584.2136	6961.4
1587.54395	7008.8
1590.87208	7363.1
1594.19801	7983
1597.52172	8770.4
1600.84321	9324.7
1604.16251	9291.7
1607.47959	8756.7
1610.79447	7996.4
1614.10715	7254
1617.41763	6714.9
1620.7259	6351.8
1624.03199	6195.1
1627.33587	6194.4
1630.63757	6352.4
1633.93707	6724
1637.23439	7263.3
1640.52951	7991.3
1643.82246	8729.2
1647.11321	9209.2
1650.40179	8983.9
1653.68819	8170
1656.97241	7136.3
1660.25446	6290.4
1663.53433	5740
1666.81203	5420.7
1670.08756	5214
1673.36092	5096.6
1676.63211	4997
1679.90115	4925.7
1683.16801	4862.9
1686.43272	4818.5
1689.69527	4804.2
1692.95567	4800.8
1696.2139	4773.5
1699.46999	4738.4
1702.72392	4749.6
1705.97571	4751.8
1709.22535	4754.1
1712.47284	4757.5
1715.71819	4729.7
1718.96139	4728.8
1722.20246	4718.6
1725.44139	4704.2
1728.67818	4674.2
1731.91284	4657.8
1735.14537	4641.1
1738.37576	4607.6
1741.60403	4610.4
1744.83017	4602.6
1748.05418	4594.5
1751.27607	4582
1754.49584	4560.1
1757.71349	4553.1
1760.92903	4556.3
1764.14244	4554.1
1767.35375	4539.3
1770.56294	4535.8
1773.77002	4541.6
1776.97499	4542.5
1780.17785	4514.4
1783.37861	4509.6
1786.57727	4498.2
1789.77382	4509.1
1792.96828	4506.6
1796.16064	4500.2
1799.3509	4491.5
1802.53907	4482
1805.72514	4478.2
1808.90913	4471.2
1812.09102	4468.4
1815.27083	4458.6
1818.44856	4442.7
1821.6242	4417
1824.79776	4428.9
1827.96924	4422.5
1831.13864	4407.3
1834.30597	4405.7
1837.47122	4396.8
1840.6344	4378.5
1843.7955	4391.7
1846.95454	4396.2
1850.11151	4386.7
1853.26642	4378.8
1856.41926	4384.1
1859.57004	4396.8
1862.71876	4363.7
1865.86542	4374.5
1869.01003	4386.1
1872.15258	4375.7
1875.29308	4384.9
1878.43152	4368.4
1881.56792	4362.2
1884.70227	4361.1
1887.83457	4362.3
1890.96482	4370.2
1894.09304	4360.6
1897.21921	4354.2
1900.34335	4326.5
1903.46544	4334.6
1906.58551	4345.6
1909.70353	4346.8
1912.81953	4343.9
1915.93349	4331.9
1919.04543	4327.1
1922.15534	4324.3
1925.26322	4308.2
1928.36908	4304.7
1931.47292	4311.2
1934.57473	4299.1
1937.67453	4306.6
1940.77232	4287.5
1943.86808	4297
1946.96184	4273
1950.05358	4259.9
1953.14331	4244.5
1956.23103	4222.1
1959.31675	4203.5
1962.40046	4179.4
1965.48217	4189.1
1968.56188	4169.1
1971.63959	4149.9
1974.7153	4153
1977.78901	4148.6
1980.86073	4139.8
1983.93046	4117.3
1986.99819	4089.3
1990.06394	4093.7
1993.1277	4070.5
1996.18947	4065.8
1999.24925	4054.4
2002.30706	4035.4
2005.36288	4032.5
2008.41672	4029.1
2011.46859	4007.3
2014.51848	3987
2017.56639	3988.1
2020.61233	3981.5
2023.6563	3974.3
2026.6983	3951.2
2029.73833	3939.3
2032.7764	3942.8
2035.8125	3924.6
2038.84664	3921.1
2041.87881	3919.6
2044.90903	3913.8
2047.93729	3911.2
2050.96359	3907.5
2053.98794	3913.4
2057.01034	3898.9
2060.03078	3904.8
2063.04927	3893.7
2066.06582	3874.1
2069.08042	3891.3
2072.09307	3875.5
2075.10378	3869.9
2078.11255	3884.3
2081.11938	3853.8
2084.12426	3854.4
2087.12722	3869.9
2090.12824	3861.3
2093.12732	3871.7
2096.12447	3859.7
2099.11969	3870.5
2102.11299	3859
2105.10435	3865.4
2108.09379	3845.1
2111.08131	3854.9
2114.0669	3872.2
2117.05057	3843
2120.03233	3837.4
2123.01216	3849.5
2125.99008	3857.2
2128.96609	3861
2131.94018	3866.7
2134.91236	3865.5
2137.88263	3859.5
2140.851	3866.7
2143.81746	3870.1
2146.78201	3861.2
2149.74466	3855.8
2152.7054	3859.2
2155.66425	3869.3
2158.6212	3872.4
2161.57625	3854.6
2164.52941	3862.5
2167.48067	3860.3
2170.43004	3843.3
2173.37752	3857.4
2176.32311	3865
2179.26681	3845.7
2182.20863	3860.2
2185.14856	3857.7
2188.08661	3850.3
2191.02278	3855.4
2193.95707	3854
2196.88948	3859.3
2199.82001	3864.3
2202.74867	3850.1
2205.67545	3846.1
2208.60037	3850.6
2211.52341	3846.2
2214.44458	3845.6
2217.36388	3827.1
2220.28132	3802.9
2223.1969	3800.8
2226.11061	3795.2
2229.02246	3787
2231.93245	3781.3
2234.84058	3769.9
2237.74686	3772.2
2240.65128	3762.8
2243.55385	3765.3
2246.45456	3767.1
2249.35343	3750.2
2252.25044	3745.9
2255.14561	3755.7
2258.03893	3749.2
2260.93041	3734.5
2263.82004	3743.7
2266.70783	3721.9
2269.59378	3694.5
2272.4779	3711.4
2275.36017	3685
2278.24061	3656.8
2281.11922	3663
2283.996	3657.6
2286.87094	3634.1
2289.74405	3632.7
2292.61534	3646.9
2295.4848	3632.9
2298.35243	3643.3
2301.21824	3641
2304.08223	3639.4
2306.94439	3645.7
2309.80474	3643.3
2312.66327	3636.3
2315.51999	3628.8
2318.37489	3641.3
2321.22797	3637
2324.07925	3638.1
2326.92871	3612.4
2329.77637	3630.9
2332.62222	3608.9
2335.46626	3608
2338.3085	3612.2
2341.14893	3627.6
2343.98756	3630
2346.8244	3623.2
2349.65943	3637.8
2352.49267	3621.9
2355.32411	3621.1
2358.15376	3620.8
2360.98161	3600.2
2363.80768	3607.1
2366.63195	3604.4
2369.45444	3583.8
2372.27514	3590.8
2375.09405	3583.5
2377.91118	3575.1
2380.72652	3574.6
2383.54009	3541.1
2386.35187	3558.6
2389.16188	3550
2391.97011	3529.8
2394.77657	3533.4
2397.58125	3516.8
2400.38416	3511.6
2403.18529	3508.3
2405.98466	3529
2408.78226	3502.9
2411.57809	3498.5
2414.37216	3477.1
2417.16446	3478.9
2419.955	3477.8
2422.74378	3472.2
2425.5308	3460.3
2428.31606	3458.7
2431.09956	3449.8
2433.88131	3451.3
2436.6613	3463.9
2439.43954	3460.7
2442.21603	3460.4
2444.99077	3456.9
2447.76377	3452.2
2450.53501	3429.3
2453.30451	3430.6
2456.07226	3443.7
2458.83827	3442.7
2461.60254	3423.8
2464.36507	3410.5
2467.12586	3405.3
2469.88492	3420.2
2472.64224	3428.9
2475.39782	3407.5
2478.15167	3416.6
2480.90379	3409.7
2483.65417	3406.1
2486.40283	3436.3
2489.14976	3421.7
2491.89497	3431.1
2494.63845	3427
2497.3802	3436.5
2500.12024	3416.2
2502.85855	3402.9
2505.59514	3406.1
2508.33002	3400.7
2511.06318	3389.1
2513.79462	3379.1
2516.52435	3396.3
2519.25237	3387.7
2521.97867	3394
2524.70327	3381.1
2527.42616	3373.8
2530.14734	3382.2
2532.86681	3386.2
2535.58458	3357.2
2538.30065	3369.9
2541.01501	3365.5
2543.72768	3363.5
2546.43864	3375
2549.14791	3379.2
2551.85548	3370.5
2554.56136	3377.1
2557.26554	3356.9
2559.96803	3339.4
2562.66883	3342.7
2565.36794	3330
2568.06536	3326.7
2570.7611	3319.7
2573.45514	3322.2
2576.14751	3321.2
2578.83819	3312.1
2581.52719	3319.3
2584.21451	3311.1
2586.90015	3298.2
2589.58411	3297.6
2592.2664	3309.2
2594.94701	3296
2597.62594	3297.1
2600.30321	3298.9
2602.9788	3302
2605.65273	3287.1
2608.32498	3297
2610.99557	3292.8
2613.66449	3289
2616.33175	3294
2618.99734	3284.4
2621.66128	3285.5
2624.32355	3296.8
2626.98416	3310.5
2629.64311	3300.5
2632.30041	3289.3
2634.95605	3297
2637.61004	3286.2
2640.26238	3290.8
2642.91306	3281.2
2645.56209	3274.2
2648.20948	3252.2
2650.85521	3266.6
2653.4993	3270.4
2656.14175	3266.2
2658.78255	3264.2
2661.42171	3272.1
2664.05923	3265.1
2666.6951	3286.3
2669.32934	3290.2
2671.96194	3271.5
2674.59291	3268.1
2677.22224	3270.3
2679.84993	3275
2682.476	3271.9
2685.10043	3259.5
2687.72324	3254.7
2690.34441	3265.7
2692.96396	3267.7
2695.58188	3263
2698.19818	3257.4
2700.81285	3265.3
2703.4259	3248.1
2706.03733	3262
2708.64714	3249.1
2711.25533	3251.2
2713.86191	3241.3
2716.46687	3252.5
2719.07021	3249.9
2721.67194	3265.4
2724.27206	3251.9
2726.87057	3264.1
2729.46747	3263.7
2732.06276	3249.1
2734.65644	3258
2737.24852	3245.4
2739.83899	3251
2742.42786	3254.6
2745.01513	3251.4
2747.60079	3240.5
2750.18486	3247.8
2752.76733	3245.4
2755.3482	3248.5
2757.92747	3228.2
2760.50515	3220.6
2763.08123	3227.3
2765.65573	3215.6
2768.22863	3218
2770.79994	3221.1
2773.36967	3234.2
2775.9378	3225.1
2778.50435	3211.7
2781.06932	3220.2
2783.6327	3219.7
2786.1945	3216
2788.75471	3208.9
2791.31335	3213.9
2793.87041	3201.7
2796.42589	3186.3
2798.97979	3198.7
2801.53212	3190.5
2804.08288	3181
2806.63206	3182.4
2809.17967	3178
2811.72571	3180.7
2814.27018	3188.8
2816.81308	3154.3
2819.35442	3147.3
2821.89419	3128.3
2824.43239	3117.1
2826.96904	3124.4
2829.50412	3149.4
2832.03763	3121.3
2834.56959	3125.1
2837.1	3112.5
2839.62884	3133.1
2842.15613	3116
2844.68186	3132.9
2847.20604	3122
2849.72867	3118.6
2852.24974	3099.7
2854.76927	3097.6
2857.28724	3091.3
2859.80367	3073.1
2862.31855	3066.2
2864.83189	3080.4
2867.34368	3067.5
2869.85393	3069.3
2872.36264	3062.2
2874.8698	3068.7
2877.37543	3056.2
2879.87952	3044
2882.38207	3051.1
2884.88308	3068.7
2887.38256	3047.3
2889.88051	3043.9
2892.37692	3039
2894.8718	3050.5
2897.36515	3041.2
2899.85698	3044.1
2902.34727	3053
2904.83604	3034.2
2907.32328	3058.2
2909.809	3049.8
2912.29319	3050.5
2914.77587	3051
2917.25702	3041.7
2919.73665	3040.7
2922.21476	3053.3
2924.69136	3032.7
2927.16644	3035
2929.64	3035.2
2932.11205	3040.7
2934.58258	3011.6
2937.05161	3028.7
2939.51912	3025.8
2941.98513	3018.8
2944.44962	3010.6
2946.91261	3014.7
2949.37409	3010.1
2951.83407	3009.1
2954.29254	3003.6
2956.74951	3012.4
2959.20498	2999
2961.65895	2987.7
2964.11142	2987.4
2966.56239	2988.5
2969.01186	2980.4
2971.45984	2984.6
2973.90632	2973.7
2976.35131	2974
2978.7948	2956.9
2981.23681	2949.7
2983.67732	2948.8
2986.11635	2935.1
2988.55388	2927.6
2990.98993	2924.8
2993.4245	2913.2
2995.85758	2921.1
2998.28917	2905.8
3000.71928	2892.4
3003.14791	2892.3
3005.57506	2877.8
3008.00073	2866.3
3010.42493	2850.8
3012.84764	2846.3
3015.26888	2841.5
3017.68865	2838.4
3020.10694	2843.6
3022.52376	2825.1
3024.9391	2822.8
3027.35298	2808.2
3029.76539	2807.1
3032.17632	2819
3034.5858	2818
3036.9938	2808.4
3039.40034	2781.3
3041.80542	2781.6
3044.20903	2778.3
3046.61118	2783.9
3049.01187	2754.6
3051.4111	2757.3
3053.80888	2769.6
3056.20519	2752.1
3058.60005	2736.7
3060.99345	2729.7
3063.3854	2729.4
3065.7759	2728.5
3068.16494	2714.6
3070.55254	2702.7
3072.93868	2695.6
3075.32338	2677.4
3077.70662	2679.5
3080.08842	2663
3082.46878	2670.4
3084.84769	2650.1
3087.22515	2661.3
3089.60118	2654
3091.97576	2641
3094.3489	2643.5
3096.72061	2637.7
3099.09087	2629.5
3101.4597	2631.6
3103.82709	2642
3106.19305	2616.5
3108.55757	2633.2
3110.92066	2609.6
3113.28232	2620.6
3115.64255	2604.7
3118.00134	2598.2
3120.35871	2599.1
3122.71466	2597.8
3125.06917	2589.9
3127.42226	2586.4
3129.77393	2563.7
3132.12417	2567
3134.47299	2555.6
3136.82039	2559.8
3139.16636	2549
3141.51092	2546.6
3143.85406	2551.7
3146.19579	2559.2
3148.53609	2556.3
3150.87499	2561.6
3153.21246	2547.8
3155.54853	2544.4
3157.88318	2543
3160.21642	2543
3162.54826	2538.3
3164.87868	2541
3167.2077	2534.5
3169.5353	2521.7
3171.86151	2517.2
3174.18631	2512.7
3176.5097	2516.2
3178.83169	2507.2
3181.15228	2502.3
3183.47147	2485.7
3185.78926	2501.1
3188.10565	2495.1
3190.42065	2483.7
3192.73424	2487.9
3195.04645	2476.7
3197.35725	2473.6
3199.66667	2465.1
3201.97469	2477.7
3204.28132	2464
3206.58656	2466.1
3208.8904	2467.6
3211.19287	2467.8
3213.49394	2483.4
3215.79363	2459.3
3218.09193	2469.1
3220.38884	2455.1
3222.68438	2464.4
3224.97853	2459.4
3227.2713	2467.4
3229.56269	2451.8
3231.8527	2459.1
3234.14133	2448.7
3236.42858	2447.7
3238.71446	2444.3
3240.99896	2443.4
3243.28209	2434.2
3245.56384	2430.2
3247.84423	2423.6
3250.12324	2415.6
3252.40088	2422.8
3254.67715	2410.8
3256.95205	2407.2
3259.22558	2405.3
3261.49775	2408.1
3263.76855	2407.2
3266.03799	2410
3268.30606	2403.5
3270.57277	2397.9
3272.83812	2396.7
3275.10211	2392.8
3277.36474	2384.8
3279.62601	2373.4
3281.88593	2364.5
3284.14448	2363.7
3286.40168	2372.7
3288.65753	2366.4
3290.91202	2354
3293.16516	2354.4
3295.41695	2348.2
3297.66738	2332
3299.91647	2328.7
3302.16421	2308.5
3304.4106	2302.1
3306.65564	2291.8
3308.89933	2255.4
3311.14169	2244.6
3313.38269	2230.4
3315.62236	2201.4
3317.86068	2186.3
3320.09766	2175.5
3322.3333	2157.8
3324.5676	2143.8
3326.80056	2119.8
3329.03219	2095
3331.26248	1.2
3333.49143	-0.1
3335.71905	-0.8
