Data from AgNPs_UA_5uM_CRN_500uM_SU_RamanShift__195__12-01-53-178.txt Node

Date: Thu Aug 04 12:01:53 BST 2022
User: TCL
Spectrometer: QEP01345
Trigger mode: 4
Integration Time (sec): 1.000000E0
Scans to average: 10
Electric dark correction enabled: true
Nonlinearity correction enabled: false
Boxcar width: 0
XAxis mode: Raman Shifts
Number of Pixels in Spectrum: 1044
>>>>>Begin Spectral Data<<<<<
46.04893	-1.1
50.45542	-0.1
54.85868	0.4
59.25871	-0.5
63.6555	-57.9
68.04907	-38.5
72.43941	-70.6
76.82654	-56.6
81.21044	-56.4
85.59113	-46.6
89.96862	-75.8
94.34289	-56.1
98.71396	-76.6
103.08183	-58.5
107.4465	-48.9
111.80798	-55.6
116.16626	-42.9
120.52136	-75.5
124.87327	-49.3
129.222	-62.3
133.56755	-48.9
137.90993	-64.3
142.24913	-51
146.58517	-44.5
150.91804	-39.4
155.24774	-29
159.57429	-6.1
163.89768	-2.9
168.21792	38.1
172.53501	58.9
176.84895	148.4
181.15975	279
185.46741	435.4
189.77193	615.5
194.07331	912.6
198.37157	1203.6
202.6667	1500.4
206.9587	1826.4
211.24758	2140.4
215.53334	2471
219.81599	2825.7
224.09553	3250.4
228.37195	3687.4
232.64527	4155.3
236.91549	4639.1
241.18261	5006.2
245.44663	5278.4
249.70755	5464.7
253.96539	5599.9
258.22014	5710.6
262.4718	5766.6
266.72039	5808.2
270.96589	5770.8
275.20832	5687.6
279.44768	5561
283.68397	5456.3
287.91719	5396
292.14735	5430.2
296.37445	5603.9
300.59849	5911.4
304.81948	6241.3
309.03742	6624.4
313.25231	6855.6
317.46415	6820.5
321.67296	6405.6
325.87872	6003.3
330.08145	5792.8
334.28114	5759.4
338.47781	5828.1
342.67145	5965.8
346.86207	6218.6
351.04966	6573.3
355.23424	6998.8
359.4158	7256.4
363.59435	7297.2
367.76989	7247.1
371.94243	7099.5
376.11196	6980.5
380.27849	6914
384.44203	6810.5
388.60257	6795.9
392.76012	6799.3
396.91468	6904
401.06626	7079
405.21485	7115.3
409.36047	6946
413.50311	6612.8
417.64277	6308.6
421.77947	6115.7
425.9132	6029.5
430.04396	6031.3
434.17176	6073.2
438.2966	6149.1
442.41849	6253.5
446.53742	6378.7
450.6534	6459.9
454.76644	6556.7
458.87653	6550.5
462.98368	6519.8
467.08789	6449.4
471.18916	6386.5
475.2875	6247.5
479.38291	6137.6
483.4754	6056.8
487.56496	5998.6
491.6516	5970.3
495.73531	5976.8
499.81612	6020.8
503.89401	6086.3
507.96899	6125
512.04106	6228.4
516.11023	6336.3
520.1765	6420.6
524.23987	6439.5
528.30034	6437
532.35792	6374.3
536.41261	6319.6
540.46441	6224.5
544.51333	6158.7
548.55936	6181.7
552.60252	6329.9
556.64279	6441.6
560.6802	6547.1
564.71473	6692.6
568.7464	6918.7
572.7752	6875.9
576.80114	6556.7
580.82422	6309.3
584.84444	6215.1
588.86181	6193.2
592.87633	6209
596.888	6358.6
600.89682	6715.3
604.9028	7701.4
608.90594	9821.7
612.90624	12205.9
616.90371	11357.6
620.89834	8227
624.89015	6865.7
628.87913	6661
632.86528	6805.2
636.84862	6978.6
640.82913	6832.1
644.80683	6499.8
648.78172	6298.9
652.75379	6327.7
656.72306	6583.3
660.68952	6822.6
664.65319	6730.7
668.61405	6504.2
672.57211	6415.1
676.52738	6404.3
680.47986	6320.8
684.42955	6233.2
688.37646	6178.9
692.32058	6167.5
696.26192	6250
700.20048	6357.8
704.13626	6392.6
708.06928	6353.2
711.99952	6325.2
715.927	6281.8
719.85171	6320.6
723.77365	6379.7
727.69284	6368.3
731.60928	6341.2
735.52295	6324.2
739.43388	6353
743.34206	6367.2
747.24749	6409.4
751.15017	6398.7
755.05012	6483.4
758.94733	6866.7
762.8418	7729.9
766.73354	9077.5
770.62254	10100.8
774.50882	10194.9
778.39237	9668.4
782.27321	8707.1
786.15132	7644.1
790.02671	6957.7
793.89938	6567.5
797.76935	6445.1
801.6366	6377.7
805.50115	6313.3
809.36299	6314.7
813.22213	6295.4
817.07857	6306.8
820.93231	6293.3
824.78336	6332
828.63172	6327.5
832.47738	6341.8
836.32036	6341.6
840.16066	6314.3
843.99827	6296.8
847.8332	6291.6
851.66546	6308
855.49504	6303.8
859.32195	6357
863.1462	6321.9
866.96777	6327.7
870.78668	6319
874.60293	6350
878.41652	6356.9
882.22745	6439.3
886.03573	6485.7
889.84136	6479.8
893.64433	6468.3
897.44466	6455.2
901.24235	6438.3
905.0374	6449.8
908.8298	6378.4
912.61957	6353.3
916.40671	6306
920.19121	6388.9
923.97308	6432.6
927.75233	6520.3
931.52895	6580.9
935.30295	6547.7
939.07433	6388.2
942.84309	6272.5
946.60924	6236.1
950.37278	6190.2
954.13371	6191.1
957.89203	6196.7
961.64774	6210.4
965.40086	6198.3
969.15137	6180.6
972.89929	6196.3
976.64461	6185.5
980.38733	6216.9
984.12747	6224.9
987.86502	6224.6
991.59999	6258
995.33237	6325.1
999.06217	6395.3
1002.78939	6483.1
1006.51404	6609.3
1010.23611	6741.6
1013.95561	6781.6
1017.67255	6780.8
1021.38692	6752.2
1025.09872	6695
1028.80796	6609.2
1032.51465	6623.1
1036.21877	6592.4
1039.92035	6639.8
1043.61937	6688.1
1047.31584	6737.4
1051.00976	6753.1
1054.70114	6772.3
1058.38998	6756.9
1062.07627	6775
1065.76003	6809
1069.44126	6880.2
1073.11995	6950.1
1076.79611	7092.3
1080.46974	7252.4
1084.14085	7435.1
1087.80943	7550.7
1091.47549	7586.4
1095.13903	7513.8
1098.80005	7356.6
1102.45857	7280.2
1106.11456	7221.8
1109.76805	7190.3
1113.41903	7283.2
1117.06751	7477.9
1120.71348	7748.1
1124.35696	8128.2
1127.99793	8401.1
1131.63641	8255.8
1135.2724	7820.5
1138.90589	7544.7
1142.5369	7349.4
1146.16542	7217.1
1149.79145	7100.9
1153.415	7065.7
1157.03607	7071.2
1160.65467	7159.3
1164.27079	7369.5
1167.88443	7605.6
1171.49561	8036.8
1175.10432	8662.2
1178.71056	9586.1
1182.31434	10385.2
1185.91565	10621.4
1189.51451	10486.7
1193.11091	10223.7
1196.70485	9978.9
1200.29634	9740.8
1203.88538	9456.7
1207.47197	8998.1
1211.05612	8537.9
1214.63782	8118.3
1218.21708	7866.8
1221.79391	7710
1225.36829	7643.5
1228.94024	7649
1232.50976	7667.4
1236.07685	7674.9
1239.6415	7693.4
1243.20374	7731.3
1246.76355	7756
1250.32093	7834.8
1253.8759	7918.3
1257.42845	8110.3
1260.97859	8299.4
1264.52631	8532.9
1268.07163	8691.6
1271.61453	8815.3
1275.15503	8869
1278.69312	8873.6
1282.22882	8945
1285.76211	9145.9
1289.29301	9389.5
1292.82151	9667
1296.34761	9886.8
1299.87133	10282
1303.39266	11001.9
1306.9116	12159.6
1310.42815	13426.8
1313.94233	13855
1317.45412	13079.2
1320.96354	11894.2
1324.47058	10888.8
1327.97525	10110
1331.47754	9677.6
1334.97747	9594.9
1338.47502	9723.5
1341.97022	10071.7
1345.46305	10838.4
1348.95352	11914.5
1352.44163	13208
1355.92738	14564.1
1359.41078	16259.6
1362.89183	17778.2
1366.37053	17146
1369.84688	14271
1373.32088	11559.6
1376.79254	10135.3
1380.26186	9451.1
1383.72883	9036.4
1387.19347	8630.1
1390.65578	8299.5
1394.11575	8039.7
1397.57339	7840.1
1401.0287	7767.8
1404.48168	7738.6
1407.93234	7744.5
1411.38068	7732.3
1414.82669	7851.2
1418.27039	7933.5
1421.71177	7935.4
1425.15083	7804.1
1428.58758	7729.4
1432.02203	7760.9
1435.45416	7856.4
1438.88399	7849.4
1442.31151	7849.5
1445.73673	7908.5
1449.15965	7957
1452.58027	7987.5
1455.9986	7972.4
1459.41463	7986.5
1462.82837	8095.3
1466.23982	8268.4
1469.64898	8463.6
1473.05586	8628.1
1476.46045	8722.4
1479.86276	8791.2
1483.26279	8885
1486.66054	9105.3
1490.05602	9357.6
1493.44922	9894.9
1496.84016	10844.4
1500.22882	12186.2
1503.61521	13956.5
1506.99934	15736.3
1510.38121	16990.4
1513.76081	16839.1
1517.13816	15294
1520.51324	13119.6
1523.88607	11368.6
1527.25665	10339.8
1530.62498	9824.8
1533.99105	9611.3
1537.35488	9491.3
1540.71647	9393.8
1544.07581	9286.6
1547.4329	9143.8
1550.78776	9039.9
1554.14038	8963.3
1557.49077	8893.1
1560.83892	9018
1564.18484	9234.2
1567.52853	9589.3
1570.86999	9900.4
1574.20922	10054.5
1577.54624	9941.1
1580.88103	9414.8
1584.2136	8735.5
1587.54395	8343.8
1590.87208	8263.7
1594.19801	8447.7
1597.52172	8829.5
1600.84321	8976.7
1604.16251	8840.6
1607.47959	8624.6
1610.79447	8443.5
1614.10715	8126.4
1617.41763	7859.2
1620.7259	7566.9
1624.03199	7413.6
1627.33587	7339.7
1630.63757	7404.4
1633.93707	7630.3
1637.23439	8038.3
1640.52951	8747.9
1643.82246	9727.1
1647.11321	10938.2
1650.40179	11658.7
1653.68819	11333.7
1656.97241	10048.8
1660.25446	8649.9
1663.53433	7621.8
1666.81203	6990.6
1670.08756	6650.4
1673.36092	6483.5
1676.63211	6340.7
1679.90115	6248.1
1683.16801	6168
1686.43272	6053.1
1689.69527	6028.8
1692.95567	5983.9
1696.2139	5944.8
1699.46999	5880.4
1702.72392	5889.3
1705.97571	5898.3
1709.22535	5880.9
1712.47284	5926.3
1715.71819	5926.6
1718.96139	5929
1722.20246	5908.7
1725.44139	5858.3
1728.67818	5836.3
1731.91284	5792.7
1735.14537	5753.7
1738.37576	5746
1741.60403	5701.2
1744.83017	5689.7
1748.05418	5703.9
1751.27607	5702.5
1754.49584	5645.2
1757.71349	5629.7
1760.92903	5616.5
1764.14244	5566.2
1767.35375	5574
1770.56294	5571.8
1773.77002	5538.2
1776.97499	5558.9
1780.17785	5535.2
1783.37861	5515.3
1786.57727	5539.7
1789.77382	5472.6
1792.96828	5522
1796.16064	5493.7
1799.3509	5485.1
1802.53907	5498.8
1805.72514	5475.8
1808.90913	5427.8
1812.09102	5430.7
1815.27083	5439.1
1818.44856	5410.3
1821.6242	5410
1824.79776	5378.2
1827.96924	5361.3
1831.13864	5356
1834.30597	5375.8
1837.47122	5336.5
1840.6344	5339.9
1843.7955	5320.7
1846.95454	5298.3
1850.11151	5332.1
1853.26642	5285.1
1856.41926	5306
1859.57004	5282
1862.71876	5276.7
1865.86542	5300.3
1869.01003	5286.8
1872.15258	5243.7
1875.29308	5288.2
1878.43152	5273.1
1881.56792	5250.6
1884.70227	5240.6
1887.83457	5247.4
1890.96482	5211.4
1894.09304	5210.7
1897.21921	5194
1900.34335	5204.3
1903.46544	5184.4
1906.58551	5199.4
1909.70353	5192.4
1912.81953	5190.3
1915.93349	5168.7
1919.04543	5159.7
1922.15534	5149.3
1925.26322	5151.7
1928.36908	5120
1931.47292	5118.9
1934.57473	5123
1937.67453	5084.5
1940.77232	5054.5
1943.86808	5058.8
1946.96184	5049.6
1950.05358	5022.3
1953.14331	5012.5
1956.23103	5018
1959.31675	4974.9
1962.40046	4932.7
1965.48217	4964.7
1968.56188	4940.1
1971.63959	4939.3
1974.7153	4931.9
1977.78901	4911.4
1980.86073	4892.1
1983.93046	4845
1986.99819	4798.6
1990.06394	4792.4
1993.1277	4791.5
1996.18947	4795.9
1999.24925	4760.3
2002.30706	4766.9
2005.36288	4757.2
2008.41672	4725.8
2011.46859	4709.4
2014.51848	4695.8
2017.56639	4680.2
2020.61233	4658.6
2023.6563	4668.8
2026.6983	4609
2029.73833	4612.5
2032.7764	4625
2035.8125	4583.2
2038.84664	4578.1
2041.87881	4569.3
2044.90903	4572
2047.93729	4573.2
2050.96359	4538.6
2053.98794	4550
2057.01034	4555.9
2060.03078	4524.2
2063.04927	4520.9
2066.06582	4509.9
2069.08042	4510
2072.09307	4490.4
2075.10378	4505.9
2078.11255	4497.8
2081.11938	4494.4
2084.12426	4481.5
2087.12722	4492.5
2090.12824	4487.5
2093.12732	4486.7
2096.12447	4489.2
2099.11969	4492.9
2102.11299	4484.4
2105.10435	4496.6
2108.09379	4478.3
2111.08131	4485
2114.0669	4485.6
2117.05057	4480.8
2120.03233	4469.2
2123.01216	4477.7
2125.99008	4505
2128.96609	4494.3
2131.94018	4513
2134.91236	4495.9
2137.88263	4492.1
2140.851	4484.9
2143.81746	4518.4
2146.78201	4505.3
2149.74466	4489.8
2152.7054	4519.9
2155.66425	4488.2
2158.6212	4474.1
2161.57625	4459.4
2164.52941	4439.6
2167.48067	4444.8
2170.43004	4456.8
2173.37752	4447.6
2176.32311	4449.4
2179.26681	4444.8
2182.20863	4450.4
2185.14856	4441.9
2188.08661	4454.3
2191.02278	4453.4
2193.95707	4434.9
2196.88948	4419.9
2199.82001	4435.8
2202.74867	4412.3
2205.67545	4416.6
2208.60037	4428.7
2211.52341	4400.2
2214.44458	4392.7
2217.36388	4385.9
2220.28132	4360
2223.1969	4349.3
2226.11061	4350.1
2229.02246	4330.6
2231.93245	4339.1
2234.84058	4335.3
2237.74686	4311.9
2240.65128	4291.5
2243.55385	4293.6
2246.45456	4270.6
2249.35343	4282.9
2252.25044	4279.6
2255.14561	4281.6
2258.03893	4280
2260.93041	4273.5
2263.82004	4245.1
2266.70783	4259.5
2269.59378	4234.4
2272.4779	4214.5
2275.36017	4227.4
2278.24061	4204.4
2281.11922	4173.7
2283.996	4192.6
2286.87094	4150
2289.74405	4169.9
2292.61534	4162.7
2295.4848	4155.2
2298.35243	4143.5
2301.21824	4136.2
2304.08223	4139.3
2306.94439	4147.1
2309.80474	4135.1
2312.66327	4122.4
2315.51999	4118
2318.37489	4107.3
2321.22797	4086.6
2324.07925	4079.3
2326.92871	4082.1
2329.77637	4047.1
2332.62222	4053.6
2335.46626	4025.3
2338.3085	4036.7
2341.14893	4040.7
2343.98756	4051.4
2346.8244	4008.7
2349.65943	4013.2
2352.49267	4021.5
2355.32411	4029.8
2358.15376	4024.1
2360.98161	4019.4
2363.80768	4005.4
2366.63195	4002.6
2369.45444	4024.1
2372.27514	4001.4
2375.09405	4018.6
2377.91118	3979.4
2380.72652	3984.4
2383.54009	3975.8
2386.35187	3973.8
2389.16188	3947.4
2391.97011	3940.4
2394.77657	3943.4
2397.58125	3928.6
2400.38416	3922.7
2403.18529	3915
2405.98466	3890.4
2408.78226	3889.4
2411.57809	3877.1
2414.37216	3878.4
2417.16446	3878.7
2419.955	3849.7
2422.74378	3857.6
2425.5308	3839
2428.31606	3848
2431.09956	3848.3
2433.88131	3819
2436.6613	3836.9
2439.43954	3823.4
2442.21603	3803
2444.99077	3813.7
2447.76377	3825.9
2450.53501	3823.6
2453.30451	3801.6
2456.07226	3811.6
2458.83827	3787.6
2461.60254	3758
2464.36507	3804
2467.12586	3766.2
2469.88492	3788.3
2472.64224	3784.9
2475.39782	3751.1
2478.15167	3771.2
2480.90379	3758.4
2483.65417	3781.9
2486.40283	3775.8
2489.14976	3780.9
2491.89497	3782.6
2494.63845	3761
2497.3802	3743.5
2500.12024	3761.7
2502.85855	3750.2
2505.59514	3746.7
2508.33002	3742.3
2511.06318	3702.8
2513.79462	3716.5
2516.52435	3666.5
2519.25237	3650
2521.97867	3665
2524.70327	3672.2
2527.42616	3663.9
2530.14734	3677.9
2532.86681	3630.3
2535.58458	3647.6
2538.30065	3633.7
2541.01501	3645.3
2543.72768	3640.8
2546.43864	3617.9
2549.14791	3630.5
2551.85548	3593.9
2554.56136	3597.5
2557.26554	3611.6
2559.96803	3599
2562.66883	3584.5
2565.36794	3569.6
2568.06536	3527.9
2570.7611	3563.8
2573.45514	3543.2
2576.14751	3547.7
2578.83819	3531.7
2581.52719	3517.1
2584.21451	3515.9
2586.90015	3497.1
2589.58411	3478.5
2592.2664	3488.4
2594.94701	3486
2597.62594	3498.1
2600.30321	3424.1
2602.9788	3435.8
2605.65273	3446.1
2608.32498	3444.6
2610.99557	3446.5
2613.66449	3425.2
2616.33175	3441.4
2618.99734	3422
2621.66128	3439.4
2624.32355	3415.5
2626.98416	3407.7
2629.64311	3396.4
2632.30041	3397.5
2634.95605	3358.3
2637.61004	3366.2
2640.26238	3346.1
2642.91306	3349.9
2645.56209	3365.7
2648.20948	3364.3
2650.85521	3339.1
2653.4993	3362.6
2656.14175	3354.3
2658.78255	3342.1
2661.42171	3307.3
2664.05923	3362
2666.6951	3349.9
2669.32934	3362
2671.96194	3371.2
2674.59291	3355.5
2677.22224	3355.7
2679.84993	3352.7
2682.476	3354.3
2685.10043	3343.6
2687.72324	3322
2690.34441	3329.1
2692.96396	3322.3
2695.58188	3347.3
2698.19818	3330.2
2700.81285	3329.4
2703.4259	3303.6
2706.03733	3286.2
2708.64714	3287.7
2711.25533	3312.8
2713.86191	3317.3
2716.46687	3311
2719.07021	3319.4
2721.67194	3321.8
2724.27206	3309.8
2726.87057	3301.5
2729.46747	3302
2732.06276	3302.4
2734.65644	3286
2737.24852	3272
2739.83899	3261.8
2742.42786	3274.4
2745.01513	3278
2747.60079	3263.1
2750.18486	3246.7
2752.76733	3242
2755.3482	3238.3
2757.92747	3238.3
2760.50515	3221.9
2763.08123	3212.2
2765.65573	3223.1
2768.22863	3207.6
2770.79994	3190.9
2773.36967	3203.4
2775.9378	3185.1
2778.50435	3185.5
2781.06932	3176.4
2783.6327	3186.4
2786.1945	3190.2
2788.75471	3168.6
2791.31335	3165.9
2793.87041	3161.1
2796.42589	3125.7
2798.97979	3122.1
2801.53212	3135
2804.08288	3148.5
2806.63206	3132.7
2809.17967	3113.1
2811.72571	3115.1
2814.27018	3110.7
2816.81308	3099.1
2819.35442	3065.4
2821.89419	3083.6
2824.43239	3070.9
2826.96904	3094.6
2829.50412	3077.6
2832.03763	3063.3
2834.56959	3076.8
2837.1	3059.5
2839.62884	3065.1
2842.15613	3060.8
2844.68186	3065.1
2847.20604	3035.9
2849.72867	3037.4
2852.24974	3037.8
2854.76927	3000.5
2857.28724	2959.8
2859.80367	3012.6
2862.31855	3032.2
2864.83189	3005.7
2867.34368	3013.2
2869.85393	3026.9
2872.36264	3002.1
2874.8698	3003.1
2877.37543	3010.1
2879.87952	2999.4
2882.38207	2971.9
2884.88308	2981.1
2887.38256	2991
2889.88051	2978.4
2892.37692	2980.7
2894.8718	2954.7
2897.36515	2977.8
2899.85698	2973.5
2902.34727	2961.6
2904.83604	2968
2907.32328	2987.1
2909.809	2987.8
2912.29319	2974
2914.77587	2984.1
2917.25702	3001.5
2919.73665	3000.5
2922.21476	3007.6
2924.69136	3013.4
2927.16644	2979.3
2929.64	2975.7
2932.11205	2973.9
2934.58258	2958.6
2937.05161	2945.6
2939.51912	2949.6
2941.98513	2968.5
2944.44962	2956.1
2946.91261	2912.4
2949.37409	2935
2951.83407	2924.1
2954.29254	2925.5
2956.74951	2920.4
2959.20498	2909.8
2961.65895	2903.1
2964.11142	2884.8
2966.56239	2903.1
2969.01186	2891.2
2971.45984	2895.1
2973.90632	2888.5
2976.35131	2888.4
2978.7948	2876.3
2981.23681	2868.1
2983.67732	2866
2986.11635	2853.1
2988.55388	2831.8
2990.98993	2845.9
2993.4245	2836.7
2995.85758	2809.8
2998.28917	2807
3000.71928	2800.9
3003.14791	2796
3005.57506	2783.7
3008.00073	2772.6
3010.42493	2718.2
3012.84764	2779.9
3015.26888	2763.6
3017.68865	2746.7
3020.10694	2704.7
3022.52376	2735.6
3024.9391	2723.6
3027.35298	2722.9
3029.76539	2704.8
3032.17632	2702.9
3034.5858	2693.5
3036.9938	2693.7
3039.40034	2691.4
3041.80542	2678.3
3044.20903	2676.7
3046.61118	2663.7
3049.01187	2662.7
3051.4111	2642.3
3053.80888	2641.9
3056.20519	2642.6
3058.60005	2618.6
3060.99345	2631.2
3063.3854	2614.5
3065.7759	2600.6
3068.16494	2597.4
3070.55254	2581.7
3072.93868	2599.4
3075.32338	2588
3077.70662	2573.4
3080.08842	2574.6
3082.46878	2547.9
3084.84769	2575.1
3087.22515	2545.4
3089.60118	2567.6
3091.97576	2554.5
3094.3489	2550.7
3096.72061	2545.8
3099.09087	2535.8
3101.4597	2537.5
3103.82709	2541
3106.19305	2527.6
3108.55757	2520.7
3110.92066	2509.5
3113.28232	2514.2
3115.64255	2512.8
3118.00134	2515.1
3120.35871	2480.8
3122.71466	2480.2
3125.06917	2489.4
3127.42226	2458.8
3129.77393	2445.7
3132.12417	2471.9
3134.47299	2477.5
3136.82039	2448.3
3139.16636	2424.3
3141.51092	2453.1
3143.85406	2460
3146.19579	2431.5
3148.53609	2433.2
3150.87499	2436.9
3153.21246	2429.8
3155.54853	2448.8
3157.88318	2440.5
3160.21642	2436.4
3162.54826	2440
3164.87868	2440.3
3167.2077	2402.6
3169.5353	2421.2
3171.86151	2430.6
3174.18631	2410.4
3176.5097	2405.1
3178.83169	2411.5
3181.15228	2412.4
3183.47147	2394.4
3185.78926	2358.2
3188.10565	2376.3
3190.42065	2347.8
3192.73424	2356.6
3195.04645	2355.2
3197.35725	2333.2
3199.66667	2353.2
3201.97469	2351.8
3204.28132	2332.4
3206.58656	2349.9
3208.8904	2352.7
3211.19287	2345.2
3213.49394	2343.5
3215.79363	2327.9
3218.09193	2350.7
3220.38884	2337
3222.68438	2323.1
3224.97853	2308
3227.2713	2329.2
3229.56269	2322.9
3231.8527	2311.3
3234.14133	2304.7
3236.42858	2312.1
3238.71446	2282.1
3240.99896	2296.7
3243.28209	2276.6
3245.56384	2279.3
3247.84423	2265.7
3250.12324	2278.7
3252.40088	2271.2
3254.67715	2253.5
3256.95205	2256.1
3259.22558	2257.9
3261.49775	2263.8
3263.76855	2259.9
3266.03799	2261.2
3268.30606	2259.8
3270.57277	2255.2
3272.83812	2235.3
3275.10211	2232.7
3277.36474	2239.3
3279.62601	2239.5
3281.88593	2201.3
3284.14448	2191.7
3286.40168	2213.9
3288.65753	2208.9
3290.91202	2206.5
3293.16516	2190.6
3295.41695	2203.1
3297.66738	2205.8
3299.91647	2183.2
3302.16421	2176.6
3304.4106	2122.5
3306.65564	2150.2
3308.89933	2115
3311.14169	2104.4
3313.38269	2103.9
3315.62236	2080.4
3317.86068	2064.3
3320.09766	2058.4
3322.3333	2022.3
3324.5676	2019.1
3326.80056	1986.8
3329.03219	1981.9
3331.26248	0.6
3333.49143	-0.3
3335.71905	0
