Data from AgNPs_UA_5uM_CRN_500uM_SU_RamanShift__302__12-19-43-200.txt Node

Date: Thu Aug 04 12:19:43 BST 2022
User: TCL
Spectrometer: QEP01345
Trigger mode: 4
Integration Time (sec): 1.000000E0
Scans to average: 10
Electric dark correction enabled: true
Nonlinearity correction enabled: false
Boxcar width: 0
XAxis mode: Raman Shifts
Number of Pixels in Spectrum: 1044
>>>>>Begin Spectral Data<<<<<
46.04893	-0.1125
50.45542	-0.6125
54.85868	1.2875
59.25871	-1.0125
63.6555	-74.2125
68.04907	-56.6125
72.43941	-87.0125
76.82654	-76.0125
81.21044	-74.3125
85.59113	-68.5125
89.96862	-94.8125
94.34289	-75.1125
98.71396	-99.3125
103.08183	-78.6125
107.4465	-71.6125
111.80798	-78.7125
116.16626	-68.9125
120.52136	-99.1125
124.87327	-78.1125
129.222	-91.6125
133.56755	-81.1125
137.90993	-97.2125
142.24913	-88.6125
146.58517	-86.7125
150.91804	-91.1125
155.24774	-89.6125
159.57429	-85.3125
163.89768	-102.9125
168.21792	-92.3125
172.53501	-121.2125
176.84895	-112.8125
181.15975	-89.8125
185.46741	-90.3125
189.77193	-115.6125
194.07331	-76.9125
198.37157	-75.8125
202.6667	-93.1125
206.9587	-80.6125
211.24758	-79.2125
215.53334	-81.5125
219.81599	-84.7125
224.09553	-70.9125
228.37195	-71.7125
232.64527	-76.4125
236.91549	-52.4125
241.18261	-62.6125
245.44663	-43.7125
249.70755	-49.4125
253.96539	-48.5125
258.22014	-34.1125
262.4718	-33.9125
266.72039	-21.2125
270.96589	-19.9125
275.20832	-23.6125
279.44768	-19.3125
283.68397	-29.3125
287.91719	-35.1125
292.14735	-37.3125
296.37445	-25.5125
300.59849	-13.7125
304.81948	-30.2125
309.03742	-30.2125
313.25231	-36.1125
317.46415	-13.5125
321.67296	-38.1125
325.87872	-36.2125
330.08145	-20.8125
334.28114	-23.3125
338.47781	-27.2125
342.67145	-27.8125
346.86207	-32.1125
351.04966	-27.9125
355.23424	-32.3125
359.4158	-20.6125
363.59435	-39.8125
367.76989	-23.1125
371.94243	-18.0125
376.11196	-26.5125
380.27849	-4.1125
384.44203	-10.0125
388.60257	-12.5125
392.76012	-17.3125
396.91468	4.7875
401.06626	15.7875
405.21485	-1.5125
409.36047	12.4875
413.50311	37.1875
417.64277	74.7875
421.77947	93.4875
425.9132	155.0875
430.04396	178.7875
434.17176	180.8875
438.2966	162.6875
442.41849	107.0875
446.53742	68.7875
450.6534	44.3875
454.76644	45.8875
458.87653	41.2875
462.98368	12.5875
467.08789	-13.6125
471.18916	-6.6125
475.2875	17.7875
479.38291	41.6875
483.4754	40.2875
487.56496	67.4875
491.6516	57.6875
495.73531	55.3875
499.81612	46.2875
503.89401	51.6875
507.96899	17.3875
512.04106	16.9875
516.11023	17.8875
520.1765	12.0875
524.23987	7.3875
528.30034	23.7875
532.35792	-16.5125
536.41261	5.6875
540.46441	7.1875
544.51333	-1.2125
548.55936	-3.0125
552.60252	18.7875
556.64279	-0.8125
560.6802	12.8875
564.71473	1.6875
568.7464	-0.2125
572.7752	2.9875
576.80114	3.5875
580.82422	13.5875
584.84444	2.8875
588.86181	10.8875
592.87633	28.3875
596.888	31.3875
600.89682	31.9875
604.9028	47.3875
608.90594	20.2875
612.90624	26.9875
616.90371	-7.6125
620.89834	-10.1125
624.89015	8.1875
628.87913	-7.1125
632.86528	-11.7125
636.84862	3.0875
640.82913	17.8875
644.80683	-13.6125
648.78172	-0.5125
652.75379	2.2875
656.72306	4.3875
660.68952	-7.2125
664.65319	-5.6125
668.61405	-6.8125
672.57211	-10.0125
676.52738	8.2875
680.47986	-7.9125
684.42955	7.1875
688.37646	25.5875
692.32058	31.9875
696.26192	66.7875
700.20048	105.3875
704.13626	140.8875
708.06928	144.9875
711.99952	152.4875
715.927	88.7875
719.85171	56.6875
723.77365	52.8875
727.69284	22.0875
731.60928	34.1875
735.52295	13.6875
739.43388	28.3875
743.34206	8.1875
747.24749	24.6875
751.15017	31.3875
755.05012	-8.2125
758.94733	8.8875
762.8418	-21.6125
766.73354	-12.6125
770.62254	-2.4125
774.50882	-12.8125
778.39237	-7.9125
782.27321	-16.1125
786.15132	-12.0125
790.02671	15.5875
793.89938	-33.6125
797.76935	4.2875
801.6366	-8.7125
805.50115	-4.4125
809.36299	8.0875
813.22213	10.0875
817.07857	9.2875
820.93231	-3.7125
824.78336	2.8875
828.63172	-3.8125
832.47738	-11.4125
836.32036	7.9875
840.16066	1.3875
843.99827	2.0875
847.8332	-7.2125
851.66546	-10.5125
855.49504	-32.6125
859.32195	-8.4125
863.1462	-18.6125
866.96777	-10.8125
870.78668	-37.1125
874.60293	-36.2125
878.41652	-44.3125
882.22745	-21.2125
886.03573	-27.3125
889.84136	-45.1125
893.64433	-25.9125
897.44466	-39.1125
901.24235	-35.4125
905.0374	-8.6125
908.8298	-28.7125
912.61957	-24.6125
916.40671	-71.2125
920.19121	-39.7125
923.97308	-12.9125
927.75233	-54.0125
931.52895	-70.0125
935.30295	-32.5125
939.07433	-28.3125
942.84309	-51.2125
946.60924	-41.8125
950.37278	-49.0125
954.13371	-50.0125
957.89203	-53.3125
961.64774	-28.3125
965.40086	-44.6125
969.15137	-63.4125
972.89929	-28.3125
976.64461	-41.1125
980.38733	-26.4125
984.12747	-40.5125
987.86502	-46.6125
991.59999	-48.7125
995.33237	-28.0125
999.06217	-22.9125
1002.78939	-40.4125
1006.51404	-53.6125
1010.23611	-53.0125
1013.95561	-39.7125
1017.67255	-26.3125
1021.38692	-28.0125
1025.09872	-34.0125
1028.80796	-55.7125
1032.51465	-27.0125
1036.21877	-53.2125
1039.92035	-35.2125
1043.61937	-44.4125
1047.31584	-32.5125
1051.00976	-15.3125
1054.70114	-5.3125
1058.38998	-7.0125
1062.07627	-19.1125
1065.76003	-26.3125
1069.44126	-9.6125
1073.11995	-23.0125
1076.79611	-17.9125
1080.46974	-13.5125
1084.14085	-4.9125
1087.80943	-8.2125
1091.47549	-2.7125
1095.13903	2.3875
1098.80005	17.4875
1102.45857	4.7875
1106.11456	14.3875
1109.76805	-27.2125
1113.41903	13.3875
1117.06751	14.0875
1120.71348	-6.4125
1124.35696	4.6875
1127.99793	-8.4125
1131.63641	-3.4125
1135.2724	3.4875
1138.90589	2.5875
1142.5369	-22.9125
1146.16542	-6.1125
1149.79145	-18.2125
1153.415	-10.5125
1157.03607	-16.8125
1160.65467	-13.0125
1164.27079	-6.3125
1167.88443	-26.0125
1171.49561	-4.2125
1175.10432	-20.2125
1178.71056	-19.8125
1182.31434	-11.2125
1185.91565	-15.6125
1189.51451	-9.5125
1193.11091	-1.9125
1196.70485	12.9875
1200.29634	10.3875
1203.88538	5.7875
1207.47197	-6.0125
1211.05612	-2.7125
1214.63782	-9.4125
1218.21708	13.1875
1221.79391	17.9875
1225.36829	-1.1125
1228.94024	10.5875
1232.50976	15.6875
1236.07685	24.9875
1239.6415	36.4875
1243.20374	34.6875
1246.76355	48.5875
1250.32093	88.0875
1253.8759	90.8875
1257.42845	117.8875
1260.97859	120.0875
1264.52631	140.0875
1268.07163	111.0875
1271.61453	102.9875
1275.15503	85.5875
1278.69312	53.7875
1282.22882	41.8875
1285.76211	43.1875
1289.29301	-2.5125
1292.82151	6.5875
1296.34761	-15.6125
1299.87133	-6.8125
1303.39266	-19.9125
1306.9116	-24.6125
1310.42815	-32.3125
1313.94233	-30.4125
1317.45412	-39.8125
1320.96354	-21.0125
1324.47058	5.8875
1327.97525	27.3875
1331.47754	-32.1125
1334.97747	-26.4125
1338.47502	-38.7125
1341.97022	-41.0125
1345.46305	-32.5125
1348.95352	-39.9125
1352.44163	-20.1125
1355.92738	-38.8125
1359.41078	-40.2125
1362.89183	-36.3125
1366.37053	-47.0125
1369.84688	-42.6125
1373.32088	-17.6125
1376.79254	24.9875
1380.26186	38.4875
1383.72883	92.9875
1387.19347	138.1875
1390.65578	123.8875
1394.11575	92.4875
1397.57339	43.0875
1401.0287	4.4875
1404.48168	-12.4125
1407.93234	-7.6125
1411.38068	-46.7125
1414.82669	-47.1125
1418.27039	-25.9125
1421.71177	-32.4125
1425.15083	-45.7125
1428.58758	-45.9125
1432.02203	-40.0125
1435.45416	-15.0125
1438.88399	-42.0125
1442.31151	-64.2125
1445.73673	-21.0125
1449.15965	-19.4125
1452.58027	-46.8125
1455.9986	-52.0125
1459.41463	-47.4125
1462.82837	-38.1125
1466.23982	-37.9125
1469.64898	-35.9125
1473.05586	-53.7125
1476.46045	-43.6125
1479.86276	-50.5125
1483.26279	-58.2125
1486.66054	-30.6125
1490.05602	-51.0125
1493.44922	-34.4125
1496.84016	-54.8125
1500.22882	-36.9125
1503.61521	-39.3125
1506.99934	-46.0125
1510.38121	-56.4125
1513.76081	-50.3125
1517.13816	-50.8125
1520.51324	-62.9125
1523.88607	-59.8125
1527.25665	-47.7125
1530.62498	-55.3125
1533.99105	-40.3125
1537.35488	-37.5125
1540.71647	-28.1125
1544.07581	-37.3125
1547.4329	-48.9125
1550.78776	-41.2125
1554.14038	-42.2125
1557.49077	-46.9125
1560.83892	-32.1125
1564.18484	-41.3125
1567.52853	-54.1125
1570.86999	-33.4125
1574.20922	-45.6125
1577.54624	-35.3125
1580.88103	-28.0125
1584.2136	-52.2125
1587.54395	-19.8125
1590.87208	-10.5125
1594.19801	-40.6125
1597.52172	-7.3125
1600.84321	26.7875
1604.16251	17.1875
1607.47959	-13.9125
1610.79447	9.1875
1614.10715	9.1875
1617.41763	34.1875
1620.7259	26.1875
1624.03199	52.2875
1627.33587	62.9875
1630.63757	72.2875
1633.93707	99.2875
1637.23439	121.6875
1640.52951	169.0875
1643.82246	189.2875
1647.11321	246.6875
1650.40179	269.4875
1653.68819	335.4875
1656.97241	374.3875
1660.25446	370.8875
1663.53433	369.3875
1666.81203	329.1875
1670.08756	284.3875
1673.36092	232.6875
1676.63211	169.8875
1679.90115	144.7875
1683.16801	141.0875
1686.43272	125.1875
1689.69527	196.7875
1692.95567	294.1875
1696.2139	498.8875
1699.46999	645.5875
1702.72392	664.1875
1705.97571	502.1875
1709.22535	270.3875
1712.47284	170.1875
1715.71819	94.0875
1718.96139	52.1875
1722.20246	31.2875
1725.44139	19.3875
1728.67818	34.7875
1731.91284	23.3875
1735.14537	26.4875
1738.37576	33.8875
1741.60403	55.2875
1744.83017	60.9875
1748.05418	106.8875
1751.27607	182.0875
1754.49584	267.7875
1757.71349	363.7875
1760.92903	424.4875
1764.14244	379.8875
1767.35375	384.2875
1770.56294	390.2875
1773.77002	330.7875
1776.97499	241.1875
1780.17785	125.7875
1783.37861	64.5875
1786.57727	52.8875
1789.77382	-24.7125
1792.96828	0.2875
1796.16064	5.6875
1799.3509	-18.6125
1802.53907	-7.7125
1805.72514	-28.1125
1808.90913	-32.3125
1812.09102	-22.9125
1815.27083	-25.4125
1818.44856	-31.4125
1821.6242	-28.2125
1824.79776	-35.9125
1827.96924	-37.3125
1831.13864	-44.9125
1834.30597	-26.1125
1837.47122	-38.1125
1840.6344	-36.6125
1843.7955	-54.9125
1846.95454	-59.4125
1850.11151	-32.7125
1853.26642	-65.0125
1856.41926	-55.7125
1859.57004	-53.8125
1862.71876	-59.2125
1865.86542	-49.9125
1869.01003	-55.7125
1872.15258	-72.6125
1875.29308	-44.9125
1878.43152	-40.1125
1881.56792	-49.3125
1884.70227	-62.5125
1887.83457	-53.3125
1890.96482	-69.4125
1894.09304	-55.8125
1897.21921	-54.8125
1900.34335	-47.6125
1903.46544	-64.8125
1906.58551	-45.8125
1909.70353	-50.0125
1912.81953	-48.8125
1915.93349	-57.6125
1919.04543	-54.4125
1922.15534	-65.6125
1925.26322	-58.1125
1928.36908	-62.9125
1931.47292	-45.2125
1934.57473	-24.8125
1937.67453	-40.4125
1940.77232	-51.6125
1943.86808	-44.8125
1946.96184	-34.0125
1950.05358	-47.6125
1953.14331	-48.4125
1956.23103	-31.5125
1959.31675	-54.4125
1962.40046	-85.0125
1965.48217	-49.1125
1968.56188	-45.9125
1971.63959	-50.0125
1974.7153	-39.8125
1977.78901	-41.8125
1980.86073	-45.1125
1983.93046	-60.5125
1986.99819	-115.1125
1990.06394	-83.3125
1993.1277	-47.3125
1996.18947	-52.0125
1999.24925	-70.6125
2002.30706	-47.1125
2005.36288	-39.4125
2008.41672	-45.1125
2011.46859	-62.1125
2014.51848	-60.0125
2017.56639	-63.0125
2020.61233	-57.2125
2023.6563	-42.0125
2026.6983	-72.3125
2029.73833	-50.7125
2032.7764	-35.2125
2035.8125	-73.6125
2038.84664	-63.5125
2041.87881	-67.7125
2044.90903	-46.6125
2047.93729	-50.4125
2050.96359	-68.4125
2053.98794	-47.9125
2057.01034	-41.7125
2060.03078	-63.2125
2063.04927	-68.4125
2066.06582	-56.9125
2069.08042	-65.4125
2072.09307	-51.5125
2075.10378	-44.5125
2078.11255	-52.2125
2081.11938	-53.5125
2084.12426	-55.7125
2087.12722	-62.5125
2090.12824	-63.9125
2093.12732	-58.2125
2096.12447	-47.7125
2099.11969	-54.4125
2102.11299	-61.0125
2105.10435	-38.5125
2108.09379	-52.4125
2111.08131	-63.7125
2114.0669	-52.2125
2117.05057	-59.8125
2120.03233	-80.4125
2123.01216	-62.0125
2125.99008	-60.8125
2128.96609	-60.3125
2131.94018	-42.6125
2134.91236	-58.1125
2137.88263	-62.5125
2140.851	-56.4125
2143.81746	-39.1125
2146.78201	-50.8125
2149.74466	-60.5125
2152.7054	-44.3125
2155.66425	-53.0125
2158.6212	-53.8125
2161.57625	-69.1125
2164.52941	-85.4125
2167.48067	-66.6125
2170.43004	-67.1125
2173.37752	-46.3125
2176.32311	-58.7125
2179.26681	-56.3125
2182.20863	-52.7125
2185.14856	-52.1125
2188.08661	-53.0125
2191.02278	-44.0125
2193.95707	-63.4125
2196.88948	-66.5125
2199.82001	-54.0125
2202.74867	-64.0125
2205.67545	-57.0125
2208.60037	-46.0125
2211.52341	-52.3125
2214.44458	-52.7125
2217.36388	-46.8125
2220.28132	-55.3125
2223.1969	-60.1125
2226.11061	-49.2125
2229.02246	-55.9125
2231.93245	-46.6125
2234.84058	-56.5125
2237.74686	-58.1125
2240.65128	-57.5125
2243.55385	-45.4125
2246.45456	-65.3125
2249.35343	-45.3125
2252.25044	-58.5125
2255.14561	-50.4125
2258.03893	-29.3125
2260.93041	0.6875
2263.82004	-31.5125
2266.70783	-36.3125
2269.59378	-51.9125
2272.4779	-64.4125
2275.36017	-41.7125
2278.24061	-54.0125
2281.11922	-75.5125
2283.996	-52.0125
2286.87094	-68.1125
2289.74405	-52.0125
2292.61534	-51.9125
2295.4848	-52.5125
2298.35243	-50.6125
2301.21824	-56.3125
2304.08223	-57.7125
2306.94439	-46.3125
2309.80474	-42.8125
2312.66327	-39.9125
2315.51999	-47.9125
2318.37489	-44.8125
2321.22797	-56.9125
2324.07925	-50.4125
2326.92871	-48.3125
2329.77637	-54.9125
2332.62222	-45.7125
2335.46626	-57.2125
2338.3085	-51.6125
2341.14893	-34.3125
2343.98756	-25.8125
2346.8244	-47.6125
2349.65943	-53.5125
2352.49267	-45.4125
2355.32411	-46.0125
2358.15376	-52.1125
2360.98161	-44.7125
2363.80768	-64.8125
2366.63195	-53.7125
2369.45444	-49.8125
2372.27514	-54.0125
2375.09405	-34.6125
2377.91118	-70.1125
2380.72652	-64.5125
2383.54009	-61.5125
2386.35187	-44.4125
2389.16188	-57.5125
2391.97011	-50.6125
2394.77657	-53.6125
2397.58125	-44.1125
2400.38416	-43.4125
2403.18529	-47.6125
2405.98466	-56.0125
2408.78226	-38.5125
2411.57809	-38.6125
2414.37216	-42.4125
2417.16446	-37.6125
2419.955	-57.9125
2422.74378	-38.8125
2425.5308	-59.2125
2428.31606	-52.6125
2431.09956	-43.4125
2433.88131	-57.5125
2436.6613	-44.0125
2439.43954	-53.3125
2442.21603	-55.6125
2444.99077	-65.1125
2447.76377	-52.1125
2450.53501	-61.8125
2453.30451	-67.3125
2456.07226	-48.6125
2458.83827	-58.4125
2461.60254	-91.6125
2464.36507	-50.9125
2467.12586	-64.1125
2469.88492	-51.6125
2472.64224	-51.3125
2475.39782	-36.8125
2478.15167	-18.9125
2480.90379	-47.1125
2483.65417	-38.9125
2486.40283	-40.2125
2489.14976	-43.9125
2491.89497	-55.4125
2494.63845	-15.4125
2497.3802	-21.6125
2500.12024	-42.1125
2502.85855	-47.2125
2505.59514	-38.7125
2508.33002	-42.7125
2511.06318	-61.1125
2513.79462	-44.5125
2516.52435	-72.0125
2519.25237	-81.8125
2521.97867	-63.4125
2524.70327	-54.9125
2527.42616	-52.8125
2530.14734	-39.0125
2532.86681	-55.1125
2535.58458	-51.7125
2538.30065	-58.6125
2541.01501	-38.7125
2543.72768	-55.3125
2546.43864	-49.8125
2549.14791	-51.0125
2551.85548	-61.8125
2554.56136	-60.7125
2557.26554	-53.2125
2559.96803	-55.8125
2562.66883	-52.7125
2565.36794	-62.5125
2568.06536	-80.7125
2570.7611	-48.6125
2573.45514	-54.9125
2576.14751	-54.1125
2578.83819	-57.7125
2581.52719	-60.1125
2584.21451	-51.8125
2586.90015	-68.2125
2589.58411	-70.8125
2592.2664	-51.6125
2594.94701	-48.5125
2597.62594	-43.5125
2600.30321	-98.8125
2602.9788	-71.1125
2605.65273	-72.7125
2608.32498	-67.1125
2610.99557	-47.7125
2613.66449	-79.8125
2616.33175	-61.0125
2618.99734	-57.3125
2621.66128	-49.7125
2624.32355	-54.9125
2626.98416	-63.6125
2629.64311	-60.9125
2632.30041	-59.2125
2634.95605	-71.7125
2637.61004	-81.2125
2640.26238	-94.9125
2642.91306	-90.8125
2645.56209	-67.6125
2648.20948	-70.7125
2650.85521	-89.3125
2653.4993	-67.2125
2656.14175	-76.3125
2658.78255	-84.0125
2661.42171	-114.0125
2664.05923	-81.1125
2666.6951	-77.4125
2669.32934	-75.5125
2671.96194	-60.7125
2674.59291	-71.2125
2677.22224	-63.6125
2679.84993	-68.5125
2682.476	-73.4125
2685.10043	-73.3125
2687.72324	-82.0125
2690.34441	-79.9125
2692.96396	-81.0125
2695.58188	-61.9125
2698.19818	-71.4125
2700.81285	-76.8125
2703.4259	14.0875
2706.03733	119.6875
2708.64714	20.7875
2711.25533	-7.5125
2713.86191	-22.6125
2716.46687	-43.0125
2719.07021	-53.5125
2721.67194	-69.8125
2724.27206	-55.8125
2726.87057	-74.1125
2729.46747	-83.4125
2732.06276	-74.1125
2734.65644	-79.1125
2737.24852	-73.7125
2739.83899	-91.7125
2742.42786	-69.7125
2745.01513	-55.2125
2747.60079	-72.6125
2750.18486	-80.5125
2752.76733	-68.0125
2755.3482	-73.5125
2757.92747	-65.5125
2760.50515	-73.8125
2763.08123	-73.2125
2765.65573	-65.5125
2768.22863	-71.1125
2770.79994	-71.3125
2773.36967	-70.1125
2775.9378	-72.3125
2778.50435	-68.9125
2781.06932	-67.7125
2783.6327	-76.4125
2786.1945	-52.5125
2788.75471	-65.1125
2791.31335	-62.6125
2793.87041	-56.4125
2796.42589	-71.6125
2798.97979	-79.1125
2801.53212	-66.5125
2804.08288	-51.3125
2806.63206	-62.1125
2809.17967	-73.7125
2811.72571	-54.0125
2814.27018	-57.9125
2816.81308	-60.7125
2819.35442	-91.3125
2821.89419	-62.9125
2824.43239	-76.4125
2826.96904	-44.6125
2829.50412	-67.3125
2832.03763	-60.2125
2834.56959	-55.5125
2837.1	-57.7125
2839.62884	-57.6125
2842.15613	-58.5125
2844.68186	-49.3125
2847.20604	-70.0125
2849.72867	-66.7125
2852.24974	-52.2125
2854.76927	-38.4125
2857.28724	-49.2125
2859.80367	-21.8125
2862.31855	-30.0125
2864.83189	-47.4125
2867.34368	-43.0125
2869.85393	-37.0125
2872.36264	-64.6125
2874.8698	-61.8125
2877.37543	-57.0125
2879.87952	-65.7125
2882.38207	-80.2125
2884.88308	-63.0125
2887.38256	-59.8125
2889.88051	-59.1125
2892.37692	-54.2125
2894.8718	-70.0125
2897.36515	-55.7125
2899.85698	-60.3125
2902.34727	-67.3125
2904.83604	-64.8125
2907.32328	-63.5125
2909.809	-67.9125
2912.29319	-78.8125
2914.77587	-77.9125
2917.25702	-67.2125
2919.73665	-63.5125
2922.21476	-61.8125
2924.69136	-52.5125
2927.16644	-66.9125
2929.64	-62.1125
2932.11205	-71.7125
2934.58258	-55.8125
2937.05161	-68.4125
2939.51912	-64.7125
2941.98513	-48.9125
2944.44962	-61.0125
2946.91261	-78.4125
2949.37409	-69.1125
2951.83407	-72.2125
2954.29254	-69.2125
2956.74951	-64.6125
2959.20498	-74.2125
2961.65895	-63.2125
2964.11142	-67.9125
2966.56239	-60.7125
2969.01186	-58.3125
2971.45984	-63.4125
2973.90632	-69.7125
2976.35131	-49.3125
2978.7948	-57.3125
2981.23681	-66.4125
2983.67732	-57.9125
2986.11635	-54.0125
2988.55388	-76.8125
2990.98993	-63.2125
2993.4245	-69.3125
2995.85758	-71.5125
2998.28917	-65.2125
3000.71928	-67.8125
3003.14791	-59.3125
3005.57506	-66.8125
3008.00073	-71.5125
3010.42493	-124.2125
3012.84764	-60.5125
3015.26888	-59.2125
3017.68865	-62.3125
3020.10694	-96.4125
3022.52376	-69.1125
3024.9391	-64.8125
3027.35298	-67.8125
3029.76539	-77.2125
3032.17632	-66.6125
3034.5858	-67.4125
3036.9938	-55.4125
3039.40034	-58.6125
3041.80542	-64.0125
3044.20903	-70.3125
3046.61118	-72.8125
3049.01187	-51.3125
3051.4111	-61.7125
3053.80888	-64.3125
3056.20519	-65.6125
3058.60005	-77.7125
3060.99345	-46.8125
3063.3854	-69.2125
3065.7759	-74.9125
3068.16494	-74.7125
3070.55254	-77.1125
3072.93868	-56.7125
3075.32338	-58.4125
3077.70662	-58.3125
3080.08842	-60.8125
3082.46878	-70.9125
3084.84769	-43.1125
3087.22515	-64.0125
3089.60118	-47.1125
3091.97576	-65.1125
3094.3489	-49.7125
3096.72061	-55.7125
3099.09087	-70.5125
3101.4597	-55.5125
3103.82709	-62.0125
3106.19305	-70.8125
3108.55757	-63.2125
3110.92066	-66.5125
3113.28232	-54.5125
3115.64255	-55.4125
3118.00134	-49.2125
3120.35871	-64.0125
3122.71466	-74.0125
3125.06917	-59.3125
3127.42226	-59.3125
3129.77393	-75.4125
3132.12417	-59.5125
3134.47299	-52.0125
3136.82039	-67.9125
3139.16636	-91.1125
3141.51092	-60.6125
3143.85406	-56.6125
3146.19579	-72.9125
3148.53609	-70.9125
3150.87499	-63.7125
3153.21246	-67.9125
3155.54853	-62.2125
3157.88318	-60.4125
3160.21642	-60.3125
3162.54826	-66.0125
3164.87868	-56.6125
3167.2077	-90.5125
3169.5353	-65.4125
3171.86151	-52.6125
3174.18631	-65.1125
3176.5097	-65.9125
3178.83169	-55.8125
3181.15228	-52.5125
3183.47147	-68.5125
3185.78926	-79.3125
3188.10565	-59.6125
3190.42065	-76.6125
3192.73424	-62.0125
3195.04645	-68.2125
3197.35725	-76.4125
3199.66667	-58.4125
3201.97469	-66.6125
3204.28132	-73.5125
3206.58656	-62.2125
3208.8904	-55.4125
3211.19287	-67.9125
3213.49394	-76.9125
3215.79363	-79.0125
3218.09193	-61.5125
3220.38884	-31.3125
3222.68438	-7.9125
3224.97853	-56.4125
3227.2713	-44.4125
3229.56269	-60.5125
3231.8527	-57.0125
3234.14133	-65.9125
3236.42858	-62.5125
3238.71446	-82.1125
3240.99896	-59.5125
3243.28209	-77.1125
3245.56384	-62.9125
3247.84423	-72.9125
3250.12324	-59.9125
3252.40088	-61.6125
3254.67715	-71.6125
3256.95205	-77.9125
3259.22558	-61.5125
3261.49775	-61.1125
3263.76855	-68.2125
3266.03799	-61.7125
3268.30606	-63.4125
3270.57277	-57.8125
3272.83812	-73.3125
3275.10211	-65.1125
3277.36474	-47.1125
3279.62601	-50.8125
3281.88593	-69.2125
3284.14448	-84.7125
3286.40168	-62.3125
3288.65753	-72.8125
3290.91202	-71.7125
3293.16516	-82.5125
3295.41695	-57.8125
3297.66738	-51.4125
3299.91647	-67.3125
3302.16421	-51.0125
3304.4106	-80.1125
3306.65564	-46.3125
3308.89933	-64.1125
3311.14169	-40.3125
3313.38269	-16.9125
3315.62236	-38.5125
3317.86068	-45.9125
3320.09766	-37.2125
3322.3333	-54.8125
3324.5676	-20.0125
3326.80056	18.0875
3329.03219	-8.1125
3331.26248	-1.2125
3333.49143	0.0875
3335.71905	1.4875
