Data from AgNPs_UA_5uM_CRN_500uM_SU_RamanShift__97__11-45-33-159.txt Node

Date: Thu Aug 04 11:45:33 BST 2022
User: TCL
Spectrometer: QEP01345
Trigger mode: 4
Integration Time (sec): 1.000000E0
Scans to average: 10
Electric dark correction enabled: true
Nonlinearity correction enabled: false
Boxcar width: 0
XAxis mode: Raman Shifts
Number of Pixels in Spectrum: 1044
>>>>>Begin Spectral Data<<<<<
46.04893	0.4
50.45542	0.4
54.85868	0.4
59.25871	-0.5
63.6555	-67.1
68.04907	-47.7
72.43941	-78.3
76.82654	-64.3
81.21044	-65.4
85.59113	-57.4
89.96862	-83.6
94.34289	-65.4
98.71396	-86.8
103.08183	-66.3
107.4465	-59.3
111.80798	-66.8
116.16626	-56.6
120.52136	-86.8
124.87327	-64
129.222	-78.1
133.56755	-65.3
137.90993	-81.2
142.24913	-71.2
146.58517	-67.4
150.91804	-70.6
155.24774	-66.1
159.57429	-54.2
163.89768	-66.3
168.21792	-44.8
172.53501	-56.8
176.84895	-27.1
181.15975	34.8
185.46741	83.6
189.77193	124.7
194.07331	243.9
198.37157	340.4
202.6667	422.4
206.9587	533.2
211.24758	633.8
215.53334	731.7
219.81599	830.2
224.09553	955.4
228.37195	1086.6
232.64527	1206.5
236.91549	1382.4
241.18261	1512.8
245.44663	1648
249.70755	1768.7
253.96539	1871.8
258.22014	1985.2
262.4718	2035.4
266.72039	2094.4
270.96589	2114.1
275.20832	2105.9
279.44768	2095.2
283.68397	2053.3
287.91719	2013
292.14735	1998.1
296.37445	2004.6
300.59849	2021.8
304.81948	2032.8
309.03742	2071.1
313.25231	2082.6
317.46415	2115.7
321.67296	2051.8
325.87872	2028.3
330.08145	2024.7
334.28114	2025.4
338.47781	2056
342.67145	2090.7
346.86207	2121.5
351.04966	2196.2
355.23424	2243.5
359.4158	2315.2
363.59435	2318.4
367.76989	2336.3
371.94243	2340.1
376.11196	2341.1
380.27849	2359.1
384.44203	2365.4
388.60257	2385.1
392.76012	2391.9
396.91468	2451.4
401.06626	2489
405.21485	2492.4
409.36047	2499.1
413.50311	2487.3
417.64277	2492.4
421.77947	2459.9
425.9132	2480.4
430.04396	2486.4
434.17176	2520.6
438.2966	2551.4
442.41849	2562.6
446.53742	2604.6
450.6534	2618.1
454.76644	2647.8
458.87653	2672.5
462.98368	2676
467.08789	2664.8
471.18916	2680.4
475.2875	2695.5
479.38291	2719.1
483.4754	2707
487.56496	2721.8
491.6516	2712.8
495.73531	2730.7
499.81612	2733.5
503.89401	2780.9
507.96899	2764.8
512.04106	2791.7
516.11023	2808.8
520.1765	2833.7
524.23987	2845
528.30034	2869.4
532.35792	2838.2
536.41261	2872.6
540.46441	2874.4
544.51333	2874
548.55936	2888.3
552.60252	2927.8
556.64279	2932.7
560.6802	2975.3
564.71473	2980.8
568.7464	3022.5
572.7752	3027.8
576.80114	3001.8
580.82422	2983
584.84444	2972.1
588.86181	2989
592.87633	3002.6
596.888	3027.5
600.89682	3067.9
604.9028	3199.5
608.90594	3404.3
612.90624	3665.2
616.90371	3569.3
620.89834	3274
624.89015	3176.1
628.87913	3148.9
632.86528	3184
636.84862	3229.7
640.82913	3217
644.80683	3182.4
648.78172	3193
652.75379	3205.8
656.72306	3243.1
660.68952	3288.3
664.65319	3274.8
668.61405	3261.6
672.57211	3263.2
676.52738	3309.7
680.47986	3297.6
684.42955	3301.8
688.37646	3320.1
692.32058	3315
696.26192	3342.7
700.20048	3358.9
704.13626	3378.9
708.06928	3362.4
711.99952	3397.4
715.927	3384.5
719.85171	3395.6
723.77365	3435.5
727.69284	3423
731.60928	3436.8
735.52295	3444.7
739.43388	3461.1
743.34206	3465.8
747.24749	3501
751.15017	3511.7
755.05012	3501
758.94733	3567.3
762.8418	3637.1
766.73354	3772
770.62254	3867.4
774.50882	3860.2
778.39237	3811.9
782.27321	3752
786.15132	3666.7
790.02671	3640.2
793.89938	3557.9
797.76935	3585.7
801.6366	3570.8
805.50115	3582.9
809.36299	3599.1
813.22213	3626.6
817.07857	3619.1
820.93231	3622.7
824.78336	3637.1
828.63172	3650.9
832.47738	3646.4
836.32036	3681.3
840.16066	3678.7
843.99827	3688.2
847.8332	3693.7
851.66546	3685.4
855.49504	3687.2
859.32195	3730.1
863.1462	3723
866.96777	3734.4
870.78668	3721.8
874.60293	3750.6
878.41652	3762.3
882.22745	3794.4
886.03573	3782.4
889.84136	3783.8
893.64433	3811.5
897.44466	3808.6
901.24235	3811.4
905.0374	3861.5
908.8298	3831.4
912.61957	3823.9
916.40671	3775.6
920.19121	3816.9
923.97308	3851.3
927.75233	3826.7
931.52895	3824.9
935.30295	3865.6
939.07433	3842.1
942.84309	3811.6
946.60924	3841.3
950.37278	3827
954.13371	3840.8
957.89203	3828.9
961.64774	3849.5
965.40086	3844.1
969.15137	3817.5
972.89929	3855.1
976.64461	3836.6
980.38733	3861.7
984.12747	3852.4
987.86502	3869.4
991.59999	3860
995.33237	3903.2
999.06217	3914.9
1002.78939	3927.4
1006.51404	3924.2
1010.23611	3955.7
1013.95561	3975.1
1017.67255	3965.5
1021.38692	3996.7
1025.09872	3980.7
1028.80796	3940.4
1032.51465	3975.2
1036.21877	3969.6
1039.92035	3995.2
1043.61937	4000.2
1047.31584	4016.2
1051.00976	4059.7
1054.70114	4046.7
1058.38998	4083
1062.07627	4063.1
1065.76003	4071.2
1069.44126	4093.1
1073.11995	4099.3
1076.79611	4132.3
1080.46974	4148.8
1084.14085	4174.9
1087.80943	4184.3
1091.47549	4185.9
1095.13903	4187.4
1098.80005	4198
1102.45857	4152.8
1106.11456	4173.5
1109.76805	4119
1113.41903	4172.5
1117.06751	4184.8
1120.71348	4188.8
1124.35696	4235.1
1127.99793	4280.1
1131.63641	4276
1135.2724	4244.3
1138.90589	4217.7
1142.5369	4150.6
1146.16542	4166.4
1149.79145	4141.1
1153.415	4133.5
1157.03607	4144.9
1160.65467	4147.2
1164.27079	4186.2
1167.88443	4196.9
1171.49561	4258.9
1175.10432	4316
1178.71056	4395.5
1182.31434	4505.7
1185.91565	4518.2
1189.51451	4509.5
1193.11091	4492.9
1196.70485	4453.4
1200.29634	4437.7
1203.88538	4411.9
1207.47197	4363.2
1211.05612	4325.5
1214.63782	4288.8
1218.21708	4289.6
1221.79391	4295.9
1225.36829	4252.4
1228.94024	4264.2
1232.50976	4276.4
1236.07685	4296.7
1239.6415	4305
1243.20374	4306.2
1246.76355	4333.6
1250.32093	4364.3
1253.8759	4354.3
1257.42845	4394.8
1260.97859	4410.7
1264.52631	4445.3
1268.07163	4458.9
1271.61453	4471.5
1275.15503	4454.1
1278.69312	4452.7
1282.22882	4486.5
1285.76211	4495.3
1289.29301	4507.1
1292.82151	4547.1
1296.34761	4549.3
1299.87133	4597.2
1303.39266	4661.7
1306.9116	4771.9
1310.42815	4911.9
1313.94233	4974.1
1317.45412	4906.1
1320.96354	4805.5
1324.47058	4682.1
1327.97525	4588.4
1331.47754	4549.2
1334.97747	4529.9
1338.47502	4519
1341.97022	4543.2
1345.46305	4615.9
1348.95352	4715.7
1352.44163	4836.8
1355.92738	4927.6
1359.41078	5080.8
1362.89183	5229.2
1366.37053	5187.4
1369.84688	4898.9
1373.32088	4676.3
1376.79254	4542.5
1380.26186	4450
1383.72883	4393.7
1387.19347	4330.4
1390.65578	4282.2
1394.11575	4257
1397.57339	4242.7
1401.0287	4233.4
1404.48168	4220
1407.93234	4250.6
1411.38068	4222.7
1414.82669	4236.5
1418.27039	4247.1
1421.71177	4251.8
1425.15083	4240.7
1428.58758	4220.8
1432.02203	4223.6
1435.45416	4254
1438.88399	4226.5
1442.31151	4182.9
1445.73673	4206.9
1449.15965	4184.4
1452.58027	4198.2
1455.9986	4204.4
1459.41463	4203.7
1462.82837	4227.2
1466.23982	4240.4
1469.64898	4266.8
1473.05586	4258.2
1476.46045	4273
1479.86276	4297
1483.26279	4300.3
1486.66054	4352.8
1490.05602	4362.9
1493.44922	4427.2
1496.84016	4498.8
1500.22882	4653.6
1503.61521	4797.8
1506.99934	4978.1
1510.38121	5145.8
1513.76081	5196.7
1517.13816	5077.8
1520.51324	4864.7
1523.88607	4684.1
1527.25665	4566.1
1530.62498	4496.4
1533.99105	4478.9
1537.35488	4464.3
1540.71647	4472.7
1544.07581	4487.6
1547.4329	4468.7
1550.78776	4473.5
1554.14038	4481.8
1557.49077	4476.8
1560.83892	4519.1
1564.18484	4545.7
1567.52853	4572.8
1570.86999	4618.2
1574.20922	4611.1
1577.54624	4609.6
1580.88103	4561.1
1584.2136	4466.7
1587.54395	4465.5
1590.87208	4481.5
1594.19801	4460.3
1597.52172	4514.7
1600.84321	4542.8
1604.16251	4512.8
1607.47959	4445.2
1610.79447	4467.5
1614.10715	4434.7
1617.41763	4417.1
1620.7259	4389.6
1624.03199	4385.7
1627.33587	4342.7
1630.63757	4337.5
1633.93707	4381.1
1637.23439	4424
1640.52951	4500.7
1643.82246	4594.1
1647.11321	4716
1650.40179	4782.7
1653.68819	4746.2
1656.97241	4624.6
1660.25446	4495.1
1663.53433	4376.6
1666.81203	4316.1
1670.08756	4298.8
1673.36092	4292.7
1676.63211	4255.1
1679.90115	4254.8
1683.16801	4243.3
1686.43272	4208.1
1689.69527	4218.8
1692.95567	4176.4
1696.2139	4193.5
1699.46999	4156
1702.72392	4179
1705.97571	4219.6
1709.22535	4191.3
1712.47284	4227
1715.71819	4244.1
1718.96139	4233.5
1722.20246	4243.9
1725.44139	4240.4
1728.67818	4258.9
1731.91284	4220.7
1735.14537	4244.1
1738.37576	4225.1
1741.60403	4236.1
1744.83017	4190.4
1748.05418	4216.1
1751.27607	4203.2
1754.49584	4206.2
1757.71349	4160.9
1760.92903	4175.8
1764.14244	4142.3
1767.35375	4167.7
1770.56294	4156.3
1773.77002	4172.6
1776.97499	4188
1780.17785	4178.7
1783.37861	4185.6
1786.57727	4198.6
1789.77382	4157.3
1792.96828	4196.7
1796.16064	4191.9
1799.3509	4178.4
1802.53907	4200.8
1805.72514	4167.7
1808.90913	4160.7
1812.09102	4162.5
1815.27083	4159.8
1818.44856	4162.1
1821.6242	4160.6
1824.79776	4149.8
1827.96924	4136.7
1831.13864	4119.9
1834.30597	4135.8
1837.47122	4141.6
1840.6344	4134
1843.7955	4113.2
1846.95454	4115.2
1850.11151	4151.2
1853.26642	4102.4
1856.41926	4119.9
1859.57004	4132.3
1862.71876	4106
1865.86542	4124.4
1869.01003	4130.8
1872.15258	4095.7
1875.29308	4124.8
1878.43152	4125.1
1881.56792	4091.5
1884.70227	4082.7
1887.83457	4097.3
1890.96482	4056.3
1894.09304	4085.1
1897.21921	4071.8
1900.34335	4083
1903.46544	4066
1906.58551	4089.1
1909.70353	4072.6
1912.81953	4075.2
1915.93349	4063
1919.04543	4062
1922.15534	4051.5
1925.26322	4033.7
1928.36908	4039.8
1931.47292	4049.5
1934.57473	4062.8
1937.67453	4036.8
1940.77232	4009.9
1943.86808	4006.5
1946.96184	4011.9
1950.05358	3992.8
1953.14331	3977
1956.23103	3975.3
1959.31675	3948
1962.40046	3900.8
1965.48217	3937.3
1968.56188	3936.8
1971.63959	3919.7
1974.7153	3920
1977.78901	3916.6
1980.86073	3903.1
1983.93046	3871.2
1986.99819	3791.8
1990.06394	3841.5
1993.1277	3855.8
1996.18947	3826.9
1999.24925	3820.8
2002.30706	3808.4
2005.36288	3810.5
2008.41672	3810.2
2011.46859	3780
2014.51848	3781.8
2017.56639	3757.1
2020.61233	3762
2023.6563	3756.7
2026.6983	3713.5
2029.73833	3716.1
2032.7764	3732.2
2035.8125	3686.5
2038.84664	3697.5
2041.87881	3688.3
2044.90903	3704.5
2047.93729	3684.5
2050.96359	3660.3
2053.98794	3671.5
2057.01034	3685.1
2060.03078	3662.6
2063.04927	3661
2066.06582	3668.1
2069.08042	3654.3
2072.09307	3671.2
2075.10378	3666.8
2078.11255	3650.2
2081.11938	3657.6
2084.12426	3674.5
2087.12722	3665.9
2090.12824	3661.8
2093.12732	3661
2096.12447	3665.4
2099.11969	3648.7
2102.11299	3664.7
2105.10435	3680.5
2108.09379	3669.8
2111.08131	3659.1
2114.0669	3660.5
2117.05057	3654
2120.03233	3660.4
2123.01216	3687.5
2125.99008	3669.5
2128.96609	3675.2
2131.94018	3696.2
2134.91236	3684.2
2137.88263	3682.2
2140.851	3679.8
2143.81746	3713.2
2146.78201	3708.3
2149.74466	3694
2152.7054	3715.3
2155.66425	3710.7
2158.6212	3704.8
2161.57625	3683.3
2164.52941	3669
2167.48067	3678.8
2170.43004	3691.2
2173.37752	3696.6
2176.32311	3688.5
2179.26681	3669.7
2182.20863	3698
2185.14856	3697.1
2188.08661	3684.9
2191.02278	3695
2193.95707	3675.8
2196.88948	3663.6
2199.82001	3693.7
2202.74867	3674.1
2205.67545	3679.2
2208.60037	3694.8
2211.52341	3670.4
2214.44458	3664.7
2217.36388	3666.5
2220.28132	3647.5
2223.1969	3617.4
2226.11061	3613.6
2229.02246	3629.7
2231.93245	3623.1
2234.84058	3618.7
2237.74686	3606
2240.65128	3598.4
2243.55385	3604.1
2246.45456	3574.2
2249.35343	3602.3
2252.25044	3584.7
2255.14561	3575.8
2258.03893	3570.1
2260.93041	3565.4
2263.82004	3567.1
2266.70783	3542.5
2269.59378	3540.6
2272.4779	3519.9
2275.36017	3538.6
2278.24061	3507.6
2281.11922	3488.5
2283.996	3501
2286.87094	3475.5
2289.74405	3491.7
2292.61534	3489.4
2295.4848	3497.2
2298.35243	3482
2301.21824	3470.3
2304.08223	3498.2
2306.94439	3483.4
2309.80474	3482.4
2312.66327	3482.2
2315.51999	3453.7
2318.37489	3456.1
2321.22797	3432.3
2324.07925	3441.3
2326.92871	3434.8
2329.77637	3415.3
2332.62222	3416.4
2335.46626	3396.5
2338.3085	3387.7
2341.14893	3420.8
2343.98756	3410.5
2346.8244	3379.2
2349.65943	3380
2352.49267	3373.9
2355.32411	3383.2
2358.15376	3366.2
2360.98161	3370.2
2363.80768	3355.1
2366.63195	3360.9
2369.45444	3360.6
2372.27514	3355.6
2375.09405	3377.7
2377.91118	3321.5
2380.72652	3339.8
2383.54009	3342.1
2386.35187	3343.4
2389.16188	3327.8
2391.97011	3325.6
2394.77657	3314.5
2397.58125	3320.4
2400.38416	3300.1
2403.18529	3307.4
2405.98466	3295.7
2408.78226	3288.5
2411.57809	3276.5
2414.37216	3268.2
2417.16446	3280.7
2419.955	3254.7
2422.74378	3266.9
2425.5308	3234.9
2428.31606	3250.7
2431.09956	3258.6
2433.88131	3231.1
2436.6613	3249.7
2439.43954	3230.9
2442.21603	3224.9
2444.99077	3216
2447.76377	3214.8
2450.53501	3209
2453.30451	3206.8
2456.07226	3214.6
2458.83827	3191.9
2461.60254	3143.2
2464.36507	3184.9
2467.12586	3170.8
2469.88492	3185
2472.64224	3182.5
2475.39782	3159
2478.15167	3154.1
2480.90379	3151.2
2483.65417	3163
2486.40283	3161.7
2489.14976	3170.7
2491.89497	3150.4
2494.63845	3144
2497.3802	3140.4
2500.12024	3138.3
2502.85855	3131.1
2505.59514	3128
2508.33002	3127.1
2511.06318	3107.3
2513.79462	3119.9
2516.52435	3088.8
2519.25237	3077.4
2521.97867	3084.5
2524.70327	3091.8
2527.42616	3092.6
2530.14734	3106.3
2532.86681	3088.1
2535.58458	3085
2538.30065	3071.2
2541.01501	3071.9
2543.72768	3064.6
2546.43864	3070.9
2549.14791	3060.6
2551.85548	3032.3
2554.56136	3021.8
2557.26554	3028.4
2559.96803	3022.8
2562.66883	3016.1
2565.36794	2991.1
2568.06536	2977.2
2570.7611	2993.5
2573.45514	2978.2
2576.14751	2975.5
2578.83819	2967
2581.52719	2960.4
2584.21451	2954.5
2586.90015	2952.9
2589.58411	2929.2
2592.2664	2937.1
2594.94701	2953.6
2597.62594	2937.2
2600.30321	2883
2602.9788	2903.1
2605.65273	2891.5
2608.32498	2890.7
2610.99557	2912.1
2613.66449	2871.6
2616.33175	2897.5
2618.99734	2892.7
2621.66128	2887.3
2624.32355	2865.8
2626.98416	2850.5
2629.64311	2839.8
2632.30041	2846.3
2634.95605	2834.7
2637.61004	2828.1
2640.26238	2805.3
2642.91306	2803.9
2645.56209	2843.3
2648.20948	2818.8
2650.85521	2803.6
2653.4993	2840.7
2656.14175	2813.5
2658.78255	2806.2
2661.42171	2770.3
2664.05923	2816.3
2666.6951	2811.6
2669.32934	2811.7
2671.96194	2806.8
2674.59291	2798.8
2677.22224	2803.1
2679.84993	2798.5
2682.476	2803.4
2685.10043	2787.4
2687.72324	2773.1
2690.34441	2774
2692.96396	2772.2
2695.58188	2794.9
2698.19818	2801.6
2700.81285	2781.1
2703.4259	2768.9
2706.03733	2738.1
2708.64714	2751.4
2711.25533	2765.3
2713.86191	2780.9
2716.46687	2773.7
2719.07021	2757
2721.67194	2753.2
2724.27206	2775.1
2726.87057	2745.7
2729.46747	2748.7
2732.06276	2757.5
2734.65644	2734.8
2737.24852	2757
2739.83899	2726.2
2742.42786	2737.7
2745.01513	2765.9
2747.60079	2729.3
2750.18486	2727
2752.76733	2714.1
2755.3482	2708.7
2757.92747	2725.5
2760.50515	2702.7
2763.08123	2685.4
2765.65573	2703.4
2768.22863	2687.3
2770.79994	2681.8
2773.36967	2672.7
2775.9378	2675
2778.50435	2669.9
2781.06932	2669
2783.6327	2648.6
2786.1945	2658.3
2788.75471	2647.3
2791.31335	2651
2793.87041	2651.4
2796.42589	2617.7
2798.97979	2604.7
2801.53212	2604.5
2804.08288	2622.2
2806.63206	2606.9
2809.17967	2575.7
2811.72571	2592
2814.27018	2580.5
2816.81308	2569.8
2819.35442	2536.3
2821.89419	2568.7
2824.43239	2537
2826.96904	2565.2
2829.50412	2541.6
2832.03763	2535.1
2834.56959	2546.2
2837.1	2522.7
2839.62884	2521.3
2842.15613	2542.2
2844.68186	2532.8
2847.20604	2512.4
2849.72867	2515.9
2852.24974	2507
2854.76927	2483.5
2857.28724	2432.9
2859.80367	2498.2
2862.31855	2490.6
2864.83189	2482.9
2867.34368	2479.1
2869.85393	2489.3
2872.36264	2453.5
2874.8698	2457
2877.37543	2468.8
2879.87952	2453.6
2882.38207	2451.4
2884.88308	2457.7
2887.38256	2453.2
2889.88051	2451.6
2892.37692	2455.5
2894.8718	2441.6
2897.36515	2452.7
2899.85698	2451.2
2902.34727	2439
2904.83604	2433.2
2907.32328	2447
2909.809	2435.6
2912.29319	2420.5
2914.77587	2428.7
2917.25702	2446.2
2919.73665	2444.4
2922.21476	2446.9
2924.69136	2448.5
2927.16644	2431.5
2929.64	2434
2932.11205	2413.2
2934.58258	2424.9
2937.05161	2424.2
2939.51912	2415.6
2941.98513	2433.4
2944.44962	2428.9
2946.91261	2389.1
2949.37409	2404.9
2951.83407	2403.5
2954.29254	2409.1
2956.74951	2408.2
2959.20498	2393.3
2961.65895	2402.8
2964.11142	2384.8
2966.56239	2388
2969.01186	2407.1
2971.45984	2397.8
2973.90632	2387.8
2976.35131	2393.2
2978.7948	2383
2981.23681	2376.2
2983.67732	2384.8
2986.11635	2377.5
2988.55388	2347.6
2990.98993	2351.5
2993.4245	2340.5
2995.85758	2339.9
2998.28917	2336.7
3000.71928	2326.3
3003.14791	2326.8
3005.57506	2321.9
3008.00073	2302.1
3010.42493	2258.9
3012.84764	2305.9
3015.26888	2315.4
3017.68865	2311.7
3020.10694	2269.4
3022.52376	2282.5
3024.9391	2284.6
3027.35298	2274
3029.76539	2268.1
3032.17632	2279.2
3034.5858	2269.3
3036.9938	2281.6
3039.40034	2267.6
3041.80542	2259.2
3044.20903	2247.4
3046.61118	2246.1
3049.01187	2253.5
3051.4111	2248.2
3053.80888	2234
3056.20519	2223.1
3058.60005	2216.1
3060.99345	2230.5
3063.3854	2200.4
3065.7759	2194.9
3068.16494	2184.5
3070.55254	2192.7
3072.93868	2198.8
3075.32338	2185.2
3077.70662	2182.3
3080.08842	2181.7
3082.46878	2168.5
3084.84769	2195.2
3087.22515	2170.7
3089.60118	2186.7
3091.97576	2171
3094.3489	2169.9
3096.72061	2179.1
3099.09087	2172.6
3101.4597	2181.9
3103.82709	2171.9
3106.19305	2145.2
3108.55757	2159.5
3110.92066	2153.8
3113.28232	2166
3115.64255	2162
3118.00134	2156.3
3120.35871	2130.5
3122.71466	2118
3125.06917	2136.1
3127.42226	2122.6
3129.77393	2103.4
3132.12417	2119.4
3134.47299	2123.3
3136.82039	2104.6
3139.16636	2086.7
3141.51092	2105.7
3143.85406	2108.6
3146.19579	2098.2
3148.53609	2090.4
3150.87499	2103.7
3153.21246	2088.1
3155.54853	2112.4
3157.88318	2103.7
3160.21642	2107.7
3162.54826	2101.3
3164.87868	2111.4
3167.2077	2076.1
3169.5353	2093.2
3171.86151	2105.6
3174.18631	2095.9
3176.5097	2083.3
3178.83169	2089.3
3181.15228	2086.6
3183.47147	2067.5
3185.78926	2054.3
3188.10565	2058.9
3190.42065	2050.5
3192.73424	2066.7
3195.04645	2049
3197.35725	2044.6
3199.66667	2047.2
3201.97469	2050.8
3204.28132	2042.6
3206.58656	2057
3208.8904	2061.4
3211.19287	2045.2
3213.49394	2039.9
3215.79363	2024.6
3218.09193	2049
3220.38884	2031.9
3222.68438	2033
3224.97853	2016.1
3227.2713	2044
3229.56269	2025.3
3231.8527	2022.4
3234.14133	2014.2
3236.42858	2012.1
3238.71446	1988.7
3240.99896	2010.7
3243.28209	1991.3
3245.56384	1998.3
3247.84423	1988.7
3250.12324	1999.5
3252.40088	2004.4
3254.67715	1980.8
3256.95205	1979.5
3259.22558	1984.5
3261.49775	1997.5
3263.76855	1991.2
3266.03799	1986.9
3268.30606	1989
3270.57277	1980.5
3272.83812	1965.9
3275.10211	1969.2
3277.36474	1974.8
3279.62601	1971.7
3281.88593	1947.3
3284.14448	1926.3
3286.40168	1946.5
3288.65753	1939.7
3290.91202	1940.3
3293.16516	1918.9
3295.41695	1932.6
3297.66738	1934.4
3299.91647	1918.1
3302.16421	1916.8
3304.4106	1869.6
3306.65564	1883.3
3308.89933	1862.1
3311.14169	1855.6
3313.38269	1851.7
3315.62236	1820.9
3317.86068	1806.6
3320.09766	1802.8
3322.3333	1775.7
3324.5676	1765.8
3326.80056	1726.7
3329.03219	1731.2
3331.26248	-0.3
3333.49143	-1.4
3335.71905	0
