Data from AgNPs_UA_50uM_CRN_500uM_SU_RamanShift__80__14-09-10-329.txt Node

Date: Thu Aug 04 14:09:10 BST 2022
User: TCL
Spectrometer: QEP01345
Trigger mode: 4
Integration Time (sec): 1.000000E0
Scans to average: 10
Electric dark correction enabled: true
Nonlinearity correction enabled: false
Boxcar width: 0
XAxis mode: Raman Shifts
Number of Pixels in Spectrum: 1044
>>>>>Begin Spectral Data<<<<<
46.04893	0.6
50.45542	0
54.85868	0
59.25871	-1
63.6555	16
68.04907	14.5
72.43941	16.5
76.82654	16.2
81.21044	17.1
85.59113	19.1
89.96862	18.9
94.34289	18.1
98.71396	20.5
103.08183	18.4
107.4465	20.6
111.80798	19
116.16626	22
120.52136	23.5
124.87327	24.8
129.222	24.4
133.56755	28.3
137.90993	28.6
142.24913	31.3
146.58517	35.1
150.91804	41.9
155.24774	50.4
159.57429	60.2
163.89768	81.3
168.21792	106.8
172.53501	143.5
176.84895	204.1
181.15975	285.8
185.46741	403.9
189.77193	556.4
194.07331	748.9
198.37157	957.5
202.6667	1182.5
206.9587	1415.6
211.24758	1634.2
215.53334	1854.9
219.81599	2108
224.09553	2370.4
228.37195	2672.5
232.64527	2989.5
236.91549	3319.4
241.18261	3598.8
245.44663	3862
249.70755	4081.6
253.96539	4277.5
258.22014	4445.2
262.4718	4606
266.72039	4714.6
270.96589	4767.5
275.20832	4762.3
279.44768	4679.2
283.68397	4635.5
287.91719	4556
292.14735	4555
296.37445	4624.7
300.59849	4731.1
304.81948	4866.2
309.03742	5007.1
313.25231	5057.6
317.46415	4975.4
321.67296	4823.1
325.87872	4661.1
330.08145	4590.9
334.28114	4631.6
338.47781	4675.5
342.67145	4787.8
346.86207	4908.4
351.04966	5089.8
355.23424	5267.4
359.4158	5422.4
363.59435	5507.1
367.76989	5560
371.94243	5598.9
376.11196	5602.9
380.27849	5622.7
384.44203	5655.3
388.60257	5652.2
392.76012	5693.6
396.91468	5767
401.06626	5858.6
405.21485	5937.8
409.36047	5893.7
413.50311	5727.2
417.64277	5562.8
421.77947	5468.2
425.9132	5458.9
430.04396	5521.1
434.17176	5652.1
438.2966	5811.6
442.41849	6067.3
446.53742	6346.5
450.6534	6614.4
454.76644	6781.8
458.87653	6767.7
462.98368	6604.8
467.08789	6392.5
471.18916	6122.4
475.2875	5876.7
479.38291	5699.2
483.4754	5561.5
487.56496	5497.6
491.6516	5421.9
495.73531	5388.2
499.81612	5383.9
503.89401	5416.2
507.96899	5446.6
512.04106	5469.6
516.11023	5541.6
520.1765	5613.8
524.23987	5678.7
528.30034	5678.2
532.35792	5652.6
536.41261	5570.1
540.46441	5469.2
544.51333	5461.7
548.55936	5498.4
552.60252	5597.2
556.64279	5669.3
560.6802	5678.9
564.71473	5688.6
568.7464	5710.7
572.7752	5730.4
576.80114	5665.9
580.82422	5662.9
584.84444	5740.6
588.86181	5984.7
592.87633	6248.1
596.888	6436.4
600.89682	6597.4
604.9028	7206.7
608.90594	8469.4
612.90624	9575.6
616.90371	8719.7
620.89834	6922.3
624.89015	6300
628.87913	6229.4
632.86528	6118.3
636.84862	5970.2
640.82913	5769.9
644.80683	5550.7
648.78172	5449.7
652.75379	5491.7
656.72306	5689.2
660.68952	5863.2
664.65319	5823.8
668.61405	5703.2
672.57211	5673.6
676.52738	5651
680.47986	5581.5
684.42955	5530.2
688.37646	5523.4
692.32058	5582.6
696.26192	5689.4
700.20048	5783.8
704.13626	5780.4
708.06928	5691.3
711.99952	5633.9
715.927	5654.6
719.85171	5682.2
723.77365	5674.3
727.69284	5598.5
731.60928	5575.3
735.52295	5597.7
739.43388	5653.9
743.34206	5699.1
747.24749	5735.7
751.15017	5767.5
755.05012	5854.7
758.94733	6058.2
762.8418	6521.5
766.73354	7192.2
770.62254	7760.3
774.50882	7988.1
778.39237	7639.2
782.27321	6951.8
786.15132	6321.5
790.02671	5957.3
793.89938	5786.5
797.76935	5727.4
801.6366	5703
805.50115	5691.6
809.36299	5653.8
813.22213	5615.6
817.07857	5597.8
820.93231	5618.5
824.78336	5611.4
828.63172	5641.5
832.47738	5657.4
836.32036	5668.3
840.16066	5706.7
843.99827	5730.8
847.8332	5680.7
851.66546	5671.6
855.49504	5668
859.32195	5646
863.1462	5628
866.96777	5604
870.78668	5602.2
874.60293	5607.6
878.41652	5624.5
882.22745	5666
886.03573	5696.3
889.84136	5670
893.64433	5653.9
897.44466	5626.5
901.24235	5622.6
905.0374	5605.9
908.8298	5603.6
912.61957	5590.7
916.40671	5642.2
920.19121	5693.5
923.97308	5798.3
927.75233	5877.8
931.52895	5902
935.30295	5818.9
939.07433	5692
942.84309	5605.2
946.60924	5582.3
950.37278	5566.4
954.13371	5506.6
957.89203	5488
961.64774	5453.6
965.40086	5425.6
969.15137	5414.5
972.89929	5399.8
976.64461	5412.8
980.38733	5444.6
984.12747	5471.2
987.86502	5525.8
991.59999	5609.6
995.33237	5790
999.06217	6097.8
1002.78939	6345.2
1006.51404	6447
1010.23611	6486.3
1013.95561	6595.1
1017.67255	6679.8
1021.38692	6634.3
1025.09872	6591.5
1028.80796	6712.6
1032.51465	6927.6
1036.21877	7083.6
1039.92035	7018.6
1043.61937	6865.4
1047.31584	6601.3
1051.00976	6376
1054.70114	6270.4
1058.38998	6242.3
1062.07627	6244.6
1065.76003	6230.2
1069.44126	6261.6
1073.11995	6311
1076.79611	6358.2
1080.46974	6451.2
1084.14085	6541
1087.80943	6607.8
1091.47549	6586
1095.13903	6462.8
1098.80005	6326.3
1102.45857	6236.5
1106.11456	6240
1109.76805	6295.3
1113.41903	6397.1
1117.06751	6531.1
1120.71348	6664.2
1124.35696	6856.1
1127.99793	6932.6
1131.63641	6847.6
1135.2724	6670.2
1138.90589	6521.9
1142.5369	6395.2
1146.16542	6302.3
1149.79145	6270.3
1153.415	6266.6
1157.03607	6308.6
1160.65467	6413.6
1164.27079	6606.6
1167.88443	6898
1171.49561	7317.2
1175.10432	8004.5
1178.71056	8892.6
1182.31434	9730.7
1185.91565	10223.2
1189.51451	10220.2
1193.11091	9793.3
1196.70485	9119.8
1200.29634	8527.6
1203.88538	8044.9
1207.47197	7611.9
1211.05612	7328.6
1214.63782	7195.1
1218.21708	7208.2
1221.79391	7291
1225.36829	7329
1228.94024	7335.4
1232.50976	7272.8
1236.07685	7237.7
1239.6415	7281.4
1243.20374	7318.9
1246.76355	7341.3
1250.32093	7441.3
1253.8759	7635.1
1257.42845	7912.9
1260.97859	8182.6
1264.52631	8396.9
1268.07163	8566.6
1271.61453	8715.5
1275.15503	8845.6
1278.69312	9047.7
1282.22882	9269
1285.76211	9539.8
1289.29301	9763
1292.82151	9979.4
1296.34761	10250.1
1299.87133	10671.7
1303.39266	11342.9
1306.9116	12265.3
1310.42815	13203.9
1313.94233	13577.2
1317.45412	13278.3
1320.96354	12579.3
1324.47058	11884.9
1327.97525	11449
1331.47754	11364
1334.97747	11525.6
1338.47502	11759.9
1341.97022	11973.8
1345.46305	12196.9
1348.95352	12530.8
1352.44163	13033
1355.92738	13812.8
1359.41078	14741.9
1362.89183	15216.5
1366.37053	14381.1
1369.84688	12666.8
1373.32088	11098
1376.79254	10123.6
1380.26186	9670.5
1383.72883	9401
1387.19347	9115.7
1390.65578	8755.9
1394.11575	8471.7
1397.57339	8326.1
1401.0287	8400
1404.48168	8586
1407.93234	8831.2
1411.38068	9096.7
1414.82669	9187.1
1418.27039	9002.2
1421.71177	8831.8
1425.15083	8741.3
1428.58758	8832.1
1432.02203	9064.6
1435.45416	9231.5
1438.88399	9262.4
1442.31151	9154.3
1445.73673	9127.6
1449.15965	9032.4
1452.58027	8868
1455.9986	8658.7
1459.41463	8586
1462.82837	8685.4
1466.23982	8909.5
1469.64898	9138.3
1473.05586	9339.5
1476.46045	9510.4
1479.86276	9627.5
1483.26279	9718.1
1486.66054	9783.5
1490.05602	9904.3
1493.44922	10138.3
1496.84016	10455.7
1500.22882	10976.6
1503.61521	11690.1
1506.99934	12322.8
1510.38121	12649.4
1513.76081	12386.6
1517.13816	11589.2
1520.51324	10705.8
1523.88607	10063
1527.25665	9748.3
1530.62498	9627.5
1533.99105	9619.1
1537.35488	9658.9
1540.71647	9641.5
1544.07581	9556.6
1547.4329	9389.9
1550.78776	9123.4
1554.14038	8892.9
1557.49077	8733
1560.83892	8663.9
1564.18484	8673.7
1567.52853	8776.2
1570.86999	8843.4
1574.20922	8852.4
1577.54624	8734.7
1580.88103	8459.1
1584.2136	8251.5
1587.54395	8298
1590.87208	8742.4
1594.19801	9599.2
1597.52172	10603.1
1600.84321	11267.8
1604.16251	11182.8
1607.47959	10452.6
1610.79447	9459.4
1614.10715	8516.2
1617.41763	7819.8
1620.7259	7408.7
1624.03199	7216.1
1627.33587	7234.8
1630.63757	7458.4
1633.93707	7945.5
1637.23439	8660
1640.52951	9578.2
1643.82246	10567.6
1647.11321	11203.9
1650.40179	11051.1
1653.68819	10031.9
1656.97241	8680.9
1660.25446	7538
1663.53433	6817.7
1666.81203	6359.3
1670.08756	6084.7
1673.36092	5881.4
1676.63211	5778.1
1679.90115	5691.3
1683.16801	5613.6
1686.43272	5563.1
1689.69527	5538.8
1692.95567	5511.2
1696.2139	5495.6
1699.46999	5494.5
1702.72392	5470.9
1705.97571	5480.8
1709.22535	5471.1
1712.47284	5465.8
1715.71819	5472.5
1718.96139	5462.3
1722.20246	5435.6
1725.44139	5419.8
1728.67818	5381.3
1731.91284	5350.6
1735.14537	5351.8
1738.37576	5315
1741.60403	5296
1744.83017	5281.9
1748.05418	5277.4
1751.27607	5250.7
1754.49584	5238.3
1757.71349	5227.2
1760.92903	5255.3
1764.14244	5230.2
1767.35375	5229
1770.56294	5220.7
1773.77002	5220.8
1776.97499	5206.8
1780.17785	5199
1783.37861	5174.4
1786.57727	5176.3
1789.77382	5185.8
1792.96828	5160
1796.16064	5156.5
1799.3509	5148.4
1802.53907	5149.1
1805.72514	5152.7
1808.90913	5124.6
1812.09102	5128.5
1815.27083	5111.2
1818.44856	5090.7
1821.6242	5088.9
1824.79776	5095.8
1827.96924	5063.5
1831.13864	5043.7
1834.30597	5041
1837.47122	5019.9
1840.6344	5024.3
1843.7955	5042.3
1846.95454	5038.5
1850.11151	5067.6
1853.26642	5034.5
1856.41926	5043.9
1859.57004	5043.6
1862.71876	5046.4
1865.86542	5031.7
1869.01003	5034.1
1872.15258	5026.7
1875.29308	5035.7
1878.43152	5054.9
1881.56792	5037.8
1884.70227	5015.7
1887.83457	5037.9
1890.96482	5013.6
1894.09304	5005.9
1897.21921	5013.3
1900.34335	5000.8
1903.46544	4999.4
1906.58551	4985.6
1909.70353	4975.1
1912.81953	4991.5
1915.93349	4977.4
1919.04543	4977.9
1922.15534	4959.5
1925.26322	4960.4
1928.36908	4958.9
1931.47292	4958.8
1934.57473	4959.5
1937.67453	4947.3
1940.77232	4922.3
1943.86808	4907.3
1946.96184	4912.4
1950.05358	4877.3
1953.14331	4883.2
1956.23103	4866.7
1959.31675	4845.3
1962.40046	4824.6
1965.48217	4829
1968.56188	4807.5
1971.63959	4792.4
1974.7153	4769.7
1977.78901	4781.2
1980.86073	4745.5
1983.93046	4733.3
1986.99819	4732.3
1990.06394	4712.9
1993.1277	4704.2
1996.18947	4674.8
1999.24925	4674.1
2002.30706	4659.4
2005.36288	4646.2
2008.41672	4610.8
2011.46859	4619
2014.51848	4593
2017.56639	4599.5
2020.61233	4571.6
2023.6563	4557.8
2026.6983	4569.2
2029.73833	4545.4
2032.7764	4535.3
2035.8125	4535.4
2038.84664	4536.8
2041.87881	4519.4
2044.90903	4491.9
2047.93729	4490.9
2050.96359	4505.1
2053.98794	4487.9
2057.01034	4502.3
2060.03078	4483.6
2063.04927	4480.3
2066.06582	4497.2
2069.08042	4476.3
2072.09307	4460.3
2075.10378	4448.1
2078.11255	4456.7
2081.11938	4457.8
2084.12426	4449.3
2087.12722	4459.3
2090.12824	4452.7
2093.12732	4453.2
2096.12447	4457.6
2099.11969	4446.3
2102.11299	4450.1
2105.10435	4444.5
2108.09379	4451.8
2111.08131	4438.4
2114.0669	4438.8
2117.05057	4430
2120.03233	4452.1
2123.01216	4459.9
2125.99008	4454.4
2128.96609	4452.4
2131.94018	4456.4
2134.91236	4438.7
2137.88263	4440.6
2140.851	4458.3
2143.81746	4462.4
2146.78201	4458.6
2149.74466	4464.3
2152.7054	4447.4
2155.66425	4454.8
2158.6212	4465.9
2161.57625	4461.8
2164.52941	4448.9
2167.48067	4457.2
2170.43004	4444.5
2173.37752	4431.3
2176.32311	4451.5
2179.26681	4436.6
2182.20863	4439.6
2185.14856	4452
2188.08661	4450.3
2191.02278	4453.5
2193.95707	4458.5
2196.88948	4457
2199.82001	4438.5
2202.74867	4445.5
2205.67545	4442
2208.60037	4445.3
2211.52341	4454
2214.44458	4439.4
2217.36388	4444.3
2220.28132	4427.4
2223.1969	4404.7
2226.11061	4386.3
2229.02246	4378.8
2231.93245	4393.6
2234.84058	4383.7
2237.74686	4372.2
2240.65128	4359.8
2243.55385	4357.4
2246.45456	4344.7
2249.35343	4355.2
2252.25044	4339
2255.14561	4344.7
2258.03893	4330.7
2260.93041	4326.9
2263.82004	4334
2266.70783	4330.5
2269.59378	4286.6
2272.4779	4278.9
2275.36017	4269.4
2278.24061	4252.6
2281.11922	4238.8
2283.996	4240.1
2286.87094	4236.4
2289.74405	4227.1
2292.61534	4227.7
2295.4848	4223.1
2298.35243	4220.9
2301.21824	4226.6
2304.08223	4221.5
2306.94439	4233.3
2309.80474	4236.3
2312.66327	4227.2
2315.51999	4237.7
2318.37489	4236.6
2321.22797	4240.4
2324.07925	4227.5
2326.92871	4223
2329.77637	4225.5
2332.62222	4222.5
2335.46626	4203.9
2338.3085	4212.3
2341.14893	4223.1
2343.98756	4229.6
2346.8244	4226.2
2349.65943	4231.4
2352.49267	4230.6
2355.32411	4224.9
2358.15376	4218.7
2360.98161	4222.4
2363.80768	4216.5
2366.63195	4204.8
2369.45444	4192.6
2372.27514	4180.7
2375.09405	4182.3
2377.91118	4158.2
2380.72652	4148.9
2383.54009	4140.6
2386.35187	4129
2389.16188	4127
2391.97011	4119.7
2394.77657	4117.9
2397.58125	4106.6
2400.38416	4101.1
2403.18529	4086.6
2405.98466	4086.5
2408.78226	4078.3
2411.57809	4062.5
2414.37216	4053.2
2417.16446	4037.2
2419.955	4040.5
2422.74378	4039.9
2425.5308	4042.8
2428.31606	4027.5
2431.09956	4032.6
2433.88131	4016.5
2436.6613	4027.2
2439.43954	4025.1
2442.21603	4014.9
2444.99077	4023.6
2447.76377	4008.1
2450.53501	4001.4
2453.30451	3995.8
2456.07226	4002.2
2458.83827	4007.3
2461.60254	4004
2464.36507	4003.6
2467.12586	3993.1
2469.88492	3989.7
2472.64224	3982.1
2475.39782	3986.1
2478.15167	4000.2
2480.90379	3993.2
2483.65417	4008.9
2486.40283	4007.4
2489.14976	4024
2491.89497	4017
2494.63845	4012.1
2497.3802	4024.4
2500.12024	4013.7
2502.85855	4006.5
2505.59514	3990.8
2508.33002	3999.6
2511.06318	3991
2513.79462	3972.1
2516.52435	3973.2
2519.25237	3979.5
2521.97867	3958.2
2524.70327	3968.6
2527.42616	3954.7
2530.14734	3959.7
2532.86681	3965.5
2535.58458	3960.9
2538.30065	3965
2541.01501	3964.4
2543.72768	3949.1
2546.43864	3947.8
2549.14791	3943.6
2551.85548	3947.1
2554.56136	3947.8
2557.26554	3932.7
2559.96803	3929.6
2562.66883	3937.8
2565.36794	3919
2568.06536	3917.2
2570.7611	3905.1
2573.45514	3908
2576.14751	3900.5
2578.83819	3883.5
2581.52719	3898
2584.21451	3893.9
2586.90015	3892.4
2589.58411	3898.7
2592.2664	3903.8
2594.94701	3891.6
2597.62594	3889.2
2600.30321	3883.7
2602.9788	3876.7
2605.65273	3883.4
2608.32498	3886.8
2610.99557	3876
2613.66449	3901.9
2616.33175	3884.3
2618.99734	3898.5
2621.66128	3883.5
2624.32355	3888.4
2626.98416	3876.2
2629.64311	3890.8
2632.30041	3880.1
2634.95605	3883.3
2637.61004	3882.5
2640.26238	3869.1
2642.91306	3871.2
2645.56209	3870.3
2648.20948	3866.9
2650.85521	3843.7
2653.4993	3850.4
2656.14175	3844.6
2658.78255	3832.8
2661.42171	3859.1
2664.05923	3849.2
2666.6951	3861
2669.32934	3851
2671.96194	3847.7
2674.59291	3847.5
2677.22224	3856.5
2679.84993	3866.2
2682.476	3848.4
2685.10043	3854.8
2687.72324	3835
2690.34441	3838.8
2692.96396	3833.7
2695.58188	3833.3
2698.19818	3814.5
2700.81285	3838.1
2703.4259	3828.9
2706.03733	3831.5
2708.64714	3820.4
2711.25533	3816
2713.86191	3814.9
2716.46687	3817.2
2719.07021	3811.9
2721.67194	3829.8
2724.27206	3829
2726.87057	3827.2
2729.46747	3823.5
2732.06276	3835.5
2734.65644	3835.4
2737.24852	3815.9
2739.83899	3823.8
2742.42786	3824
2745.01513	3807.8
2747.60079	3824.4
2750.18486	3823
2752.76733	3803.6
2755.3482	3797
2757.92747	3804.2
2760.50515	3799.9
2763.08123	3799.1
2765.65573	3779.9
2768.22863	3784.4
2770.79994	3792.9
2773.36967	3804.7
2775.9378	3792.6
2778.50435	3793.2
2781.06932	3794.5
2783.6327	3792.8
2786.1945	3796.6
2788.75471	3783.7
2791.31335	3773.4
2793.87041	3767.2
2796.42589	3772.2
2798.97979	3761.5
2801.53212	3756.3
2804.08288	3745.9
2806.63206	3755
2809.17967	3726.8
2811.72571	3719.5
2814.27018	3719.9
2816.81308	3713.3
2819.35442	3699.3
2821.89419	3696.7
2824.43239	3686.5
2826.96904	3676.6
2829.50412	3679.2
2832.03763	3694.4
2834.56959	3694.4
2837.1	3671.4
2839.62884	3685.3
2842.15613	3680
2844.68186	3678.8
2847.20604	3658.6
2849.72867	3667.8
2852.24974	3652.9
2854.76927	3663.2
2857.28724	3643.6
2859.80367	3637.3
2862.31855	3626.5
2864.83189	3640.1
2867.34368	3633.9
2869.85393	3623.9
2872.36264	3618.9
2874.8698	3625.6
2877.37543	3626.4
2879.87952	3606.6
2882.38207	3610
2884.88308	3599.4
2887.38256	3598.5
2889.88051	3608.8
2892.37692	3598.5
2894.8718	3600.6
2897.36515	3582.7
2899.85698	3587.3
2902.34727	3589
2904.83604	3596.8
2907.32328	3608.6
2909.809	3614.3
2912.29319	3609.9
2914.77587	3610
2917.25702	3612.5
2919.73665	3605.6
2922.21476	3614.8
2924.69136	3597.6
2927.16644	3600.9
2929.64	3597
2932.11205	3587.4
2934.58258	3581.9
2937.05161	3576.9
2939.51912	3578.8
2941.98513	3581.7
2944.44962	3574.7
2946.91261	3557.4
2949.37409	3561.4
2951.83407	3576.2
2954.29254	3564.8
2956.74951	3548.1
2959.20498	3566.3
2961.65895	3532.4
2964.11142	3531.1
2966.56239	3533.6
2969.01186	3518.8
2971.45984	3526.1
2973.90632	3530.2
2976.35131	3511.2
2978.7948	3512.8
2981.23681	3499.4
2983.67732	3495.8
2986.11635	3468.7
2988.55388	3460.7
2990.98993	3451.6
2993.4245	3441.4
2995.85758	3446.3
2998.28917	3434.8
3000.71928	3438.1
3003.14791	3418.1
3005.57506	3407.9
3008.00073	3391.2
3010.42493	3383.1
3012.84764	3396.7
3015.26888	3378.7
3017.68865	3365.3
3020.10694	3369
3022.52376	3354.3
3024.9391	3334.2
3027.35298	3330.8
3029.76539	3327.1
3032.17632	3324.2
3034.5858	3323.3
3036.9938	3314.1
3039.40034	3306
3041.80542	3313.5
3044.20903	3301.6
3046.61118	3308.1
3049.01187	3284.9
3051.4111	3284.8
3053.80888	3268.3
3056.20519	3261.7
3058.60005	3261.9
3060.99345	3255.2
3063.3854	3250.5
3065.7759	3216.4
3068.16494	3220.4
3070.55254	3221
3072.93868	3197.7
3075.32338	3177.8
3077.70662	3166.7
3080.08842	3176.5
3082.46878	3155.9
3084.84769	3149.6
3087.22515	3146.6
3089.60118	3157.1
3091.97576	3138.4
3094.3489	3137.5
3096.72061	3145.4
3099.09087	3138
3101.4597	3138
3103.82709	3133.4
3106.19305	3118.5
3108.55757	3118.2
3110.92066	3099.3
3113.28232	3114.2
3115.64255	3102
3118.00134	3091.8
3120.35871	3092.1
3122.71466	3090.6
3125.06917	3063
3127.42226	3068.4
3129.77393	3062.5
3132.12417	3063.4
3134.47299	3063.8
3136.82039	3054.3
3139.16636	3054.4
3141.51092	3039.9
3143.85406	3046.1
3146.19579	3029.8
3148.53609	3040.5
3150.87499	3044.1
3153.21246	3034
3155.54853	3051.7
3157.88318	3043.4
3160.21642	3037.4
3162.54826	3028.4
3164.87868	3031.6
3167.2077	3001.1
3169.5353	3012.2
3171.86151	3012
3174.18631	3013.8
3176.5097	3011
3178.83169	3003.9
3181.15228	2996.7
3183.47147	2992.3
3185.78926	2985.1
3188.10565	2962.8
3190.42065	2973.7
3192.73424	2975.9
3195.04645	2974.5
3197.35725	2954.6
3199.66667	2961.6
3201.97469	2960
3204.28132	2965.6
3206.58656	2963.2
3208.8904	2957.7
3211.19287	2971.2
3213.49394	2970.9
3215.79363	2966.8
3218.09193	2951.2
3220.38884	2946.2
3222.68438	2969.6
3224.97853	2942.9
3227.2713	2950.1
3229.56269	2928.2
3231.8527	2936.1
3234.14133	2933.2
3236.42858	2930.1
3238.71446	2919.8
3240.99896	2914.5
3243.28209	2920.8
3245.56384	2919.1
3247.84423	2927
3250.12324	2907.1
3252.40088	2907.3
3254.67715	2884.7
3256.95205	2897.7
3259.22558	2874.6
3261.49775	2876.9
3263.76855	2885.4
3266.03799	2894.3
3268.30606	2864.1
3270.57277	2878.3
3272.83812	2852.8
3275.10211	2856.8
3277.36474	2846.4
3279.62601	2857.2
3281.88593	2848.8
3284.14448	2845.6
3286.40168	2838.2
3288.65753	2845.6
3290.91202	2840
3293.16516	2831.9
3295.41695	2842.2
3297.66738	2801.7
3299.91647	2800.8
3302.16421	2768.1
3304.4106	2752.1
3306.65564	2750
3308.89933	2736.2
3311.14169	2703.1
3313.38269	2688.1
3315.62236	2661.6
3317.86068	2652.2
3320.09766	2623.6
3322.3333	2607
3324.5676	2587.2
3326.80056	2548.3
3329.03219	2522.1
3331.26248	0.5
3333.49143	1
3335.71905	-1.6
