Data from AgNPs_UA_50uM_CRN_500uM_SU_RamanShift__9__13-57-20-315.txt Node

Date: Thu Aug 04 13:57:20 BST 2022
User: TCL
Spectrometer: QEP01345
Trigger mode: 4
Integration Time (sec): 1.000000E0
Scans to average: 10
Electric dark correction enabled: true
Nonlinearity correction enabled: false
Boxcar width: 0
XAxis mode: Raman Shifts
Number of Pixels in Spectrum: 1044
>>>>>Begin Spectral Data<<<<<
46.04893	1.2
50.45542	-0.5
54.85868	0.4
59.25871	-0.9
63.6555	15.7
68.04907	13.6
72.43941	13.5
76.82654	15.1
81.21044	16.3
85.59113	17.8
89.96862	16.6
94.34289	19
98.71396	18.1
103.08183	18.8
107.4465	18.8
111.80798	18.9
116.16626	20.1
120.52136	21.6
124.87327	24.6
129.222	26.3
133.56755	27.3
137.90993	30.9
142.24913	32.1
146.58517	37.6
150.91804	42.4
155.24774	51
159.57429	66.9
163.89768	87.2
168.21792	116.2
172.53501	162.6
176.84895	226.6
181.15975	325.5
185.46741	459.1
189.77193	633.2
194.07331	850.7
198.37157	1106.3
202.6667	1379.2
206.9587	1641.1
211.24758	1910.6
215.53334	2203.1
219.81599	2502.3
224.09553	2858.5
228.37195	3220.1
232.64527	3626.2
236.91549	4021.3
241.18261	4357.3
245.44663	4587.3
249.70755	4748.6
253.96539	4884.3
258.22014	5003.8
262.4718	5131.5
266.72039	5214.9
270.96589	5220.3
275.20832	5158.5
279.44768	5078.8
283.68397	4991.3
287.91719	4941.1
292.14735	4964.7
296.37445	5087.5
300.59849	5331.7
304.81948	5629.9
309.03742	5939
313.25231	6136.3
317.46415	6063.1
321.67296	5755.2
325.87872	5392.2
330.08145	5187.5
334.28114	5166.3
338.47781	5235.3
342.67145	5354.6
346.86207	5568.7
351.04966	5836.4
355.23424	6133.6
359.4158	6316.6
363.59435	6384.9
367.76989	6349.7
371.94243	6270.6
376.11196	6176.9
380.27849	6095.6
384.44203	6063.8
388.60257	6044.2
392.76012	6086.1
396.91468	6186.2
401.06626	6272.8
405.21485	6309.3
409.36047	6157.6
413.50311	5878.7
417.64277	5594.9
421.77947	5424
425.9132	5373.4
430.04396	5386.2
434.17176	5411.6
438.2966	5494.2
442.41849	5603.8
446.53742	5735
450.6534	5825
454.76644	5891.9
458.87653	5880.7
462.98368	5847
467.08789	5790.8
471.18916	5686.9
475.2875	5549.2
479.38291	5452.5
483.4754	5355
487.56496	5311.9
491.6516	5285.4
495.73531	5279.6
499.81612	5288.8
503.89401	5334.5
507.96899	5379.5
512.04106	5445.9
516.11023	5530.7
520.1765	5610.1
524.23987	5639.7
528.30034	5622.8
532.35792	5587.3
536.41261	5524.6
540.46441	5411.8
544.51333	5379.6
548.55936	5426.2
552.60252	5523.5
556.64279	5645.7
560.6802	5687
564.71473	5816.2
568.7464	5976.2
572.7752	5951.4
576.80114	5717.8
580.82422	5538.3
584.84444	5470.1
588.86181	5451
592.87633	5479.7
596.888	5586.3
600.89682	5909.1
604.9028	6774
608.90594	8680.8
612.90624	10721.9
616.90371	9805.5
620.89834	7042.9
624.89015	5852.2
628.87913	5705.3
632.86528	5861.5
636.84862	5958.7
640.82913	5809.7
644.80683	5527.7
648.78172	5381.7
652.75379	5401.8
656.72306	5617.8
660.68952	5831.6
664.65319	5744.8
668.61405	5516.7
672.57211	5451.8
676.52738	5425
680.47986	5388.1
684.42955	5293.8
688.37646	5250.7
692.32058	5285.1
696.26192	5369.4
700.20048	5452.3
704.13626	5489.5
708.06928	5447.1
711.99952	5385.8
715.927	5370.6
719.85171	5434.9
723.77365	5445.6
727.69284	5420.6
731.60928	5365.1
735.52295	5351.5
739.43388	5364.5
743.34206	5382.2
747.24749	5397.9
751.15017	5399.1
755.05012	5488.3
758.94733	5789.4
762.8418	6548.6
766.73354	7689.2
770.62254	8540.4
774.50882	8636.2
778.39237	8066.2
782.27321	7187.6
786.15132	6310.2
790.02671	5762.5
793.89938	5495.1
797.76935	5388.5
801.6366	5325.3
805.50115	5291.6
809.36299	5270.8
813.22213	5244.9
817.07857	5235.6
820.93231	5250.5
824.78336	5251.1
828.63172	5305.2
832.47738	5317.3
836.32036	5276.8
840.16066	5254.7
843.99827	5234.3
847.8332	5223.7
851.66546	5221.9
855.49504	5242.5
859.32195	5257.2
863.1462	5250.3
866.96777	5231.5
870.78668	5238.9
874.60293	5235.8
878.41652	5274.7
882.22745	5331.4
886.03573	5347.9
889.84136	5333.9
893.64433	5344.8
897.44466	5302.2
901.24235	5282.9
905.0374	5283.3
908.8298	5251.3
912.61957	5230.9
916.40671	5227.8
920.19121	5268.8
923.97308	5335.2
927.75233	5402.5
931.52895	5447.6
935.30295	5368.5
939.07433	5236
942.84309	5139.9
946.60924	5096.9
950.37278	5102.6
954.13371	5089.5
957.89203	5087.8
961.64774	5082.7
965.40086	5065.5
969.15137	5058.8
972.89929	5040.9
976.64461	5038.2
980.38733	5037
984.12747	5069.3
987.86502	5092.3
991.59999	5114.3
995.33237	5181.9
999.06217	5251.9
1002.78939	5362.3
1006.51404	5515
1010.23611	5614.9
1013.95561	5671
1017.67255	5663.4
1021.38692	5601.2
1025.09872	5511.9
1028.80796	5420.4
1032.51465	5412
1036.21877	5432.7
1039.92035	5474.1
1043.61937	5503.9
1047.31584	5531.5
1051.00976	5515.2
1054.70114	5513.7
1058.38998	5484.6
1062.07627	5497.9
1065.76003	5569.2
1069.44126	5644.2
1073.11995	5761.1
1076.79611	5886.1
1080.46974	6033.2
1084.14085	6149
1087.80943	6241.1
1091.47549	6276.7
1095.13903	6223.8
1098.80005	6100.3
1102.45857	5993.1
1106.11456	5888.1
1109.76805	5862.2
1113.41903	5920.8
1117.06751	6044
1120.71348	6255.4
1124.35696	6566.5
1127.99793	6769.9
1131.63641	6624.5
1135.2724	6308.2
1138.90589	6071.2
1142.5369	5969.6
1146.16542	5922.5
1149.79145	5880.7
1153.415	5798.1
1157.03607	5750.2
1160.65467	5779.7
1164.27079	5925.7
1167.88443	6149.7
1171.49561	6484
1175.10432	7072.1
1178.71056	7839.3
1182.31434	8507.2
1185.91565	8665
1189.51451	8496.7
1193.11091	8228
1196.70485	7898.6
1200.29634	7688.4
1203.88538	7474.9
1207.47197	7126.8
1211.05612	6800.8
1214.63782	6599.8
1218.21708	6396.4
1221.79391	6257.1
1225.36829	6184.6
1228.94024	6149.8
1232.50976	6127.4
1236.07685	6128
1239.6415	6148.9
1243.20374	6184.8
1246.76355	6213.9
1250.32093	6311.2
1253.8759	6473.8
1257.42845	6695
1260.97859	6932.8
1264.52631	7126.9
1268.07163	7276.3
1271.61453	7344.2
1275.15503	7362.6
1278.69312	7367.3
1282.22882	7406.1
1285.76211	7529
1289.29301	7749.4
1292.82151	7958.4
1296.34761	8150.6
1299.87133	8515.1
1303.39266	9115.1
1306.9116	10028.7
1310.42815	10985.9
1313.94233	11270.7
1317.45412	10680.7
1320.96354	9796.1
1324.47058	8977
1327.97525	8290.7
1331.47754	7942.2
1334.97747	7829.4
1338.47502	7975.3
1341.97022	8342.2
1345.46305	8936.3
1348.95352	9765.1
1352.44163	10741.4
1355.92738	11835.3
1359.41078	13296.8
1362.89183	14485.6
1366.37053	13770.2
1369.84688	11462.2
1373.32088	9364.9
1376.79254	8162.3
1380.26186	7620.8
1383.72883	7286.1
1387.19347	6991.2
1390.65578	6741.6
1394.11575	6540.6
1397.57339	6371
1401.0287	6274.2
1404.48168	6217.1
1407.93234	6225.2
1411.38068	6303.3
1414.82669	6384.4
1418.27039	6438.2
1421.71177	6410.5
1425.15083	6352.5
1428.58758	6300.2
1432.02203	6370.4
1435.45416	6442.2
1438.88399	6495.1
1442.31151	6488.8
1445.73673	6559.8
1449.15965	6579.9
1452.58027	6537.6
1455.9986	6472.1
1459.41463	6438.7
1462.82837	6515.6
1466.23982	6639.9
1469.64898	6810.1
1473.05586	6919.9
1476.46045	6991.9
1479.86276	7024.5
1483.26279	7145.2
1486.66054	7320.8
1490.05602	7600.3
1493.44922	8058.7
1496.84016	8771.5
1500.22882	9862.1
1503.61521	11260.7
1506.99934	12724.9
1510.38121	13647.3
1513.76081	13476.3
1517.13816	12198.9
1520.51324	10534.2
1523.88607	9155.4
1527.25665	8348.1
1530.62498	7910.1
1533.99105	7725.7
1537.35488	7586.4
1540.71647	7511.6
1544.07581	7448.4
1547.4329	7348.3
1550.78776	7290.5
1554.14038	7227.1
1557.49077	7206.6
1560.83892	7301
1564.18484	7530.9
1567.52853	7854.6
1570.86999	8093.7
1574.20922	8154
1577.54624	8001.8
1580.88103	7536.1
1584.2136	7011
1587.54395	6700.9
1590.87208	6682.1
1594.19801	6901.6
1597.52172	7223.6
1600.84321	7379.9
1604.16251	7308
1607.47959	7142.4
1610.79447	6908.4
1614.10715	6560.5
1617.41763	6174.4
1620.7259	5934.1
1624.03199	5791.9
1627.33587	5762.2
1630.63757	5850.6
1633.93707	6069.1
1637.23439	6486.9
1640.52951	7125.4
1643.82246	8092.7
1647.11321	9133.7
1650.40179	9732.1
1653.68819	9352
1656.97241	8161.3
1660.25446	6916
1663.53433	6051.6
1666.81203	5537.1
1670.08756	5257
1673.36092	5057.3
1676.63211	4940.7
1679.90115	4868.4
1683.16801	4793.7
1686.43272	4746.6
1689.69527	4721.3
1692.95567	4705.9
1696.2139	4683
1699.46999	4655.4
1702.72392	4658.7
1705.97571	4657.9
1709.22535	4644.9
1712.47284	4646.2
1715.71819	4655.7
1718.96139	4652.1
1722.20246	4631.5
1725.44139	4598.3
1728.67818	4574.3
1731.91284	4539.7
1735.14537	4523.1
1738.37576	4498.4
1741.60403	4475.2
1744.83017	4469.1
1748.05418	4475.5
1751.27607	4452.5
1754.49584	4439.6
1757.71349	4422.5
1760.92903	4430.6
1764.14244	4419.6
1767.35375	4400.8
1770.56294	4393.4
1773.77002	4383.8
1776.97499	4361.5
1780.17785	4345.3
1783.37861	4331.9
1786.57727	4329.6
1789.77382	4336.6
1792.96828	4311
1796.16064	4304.1
1799.3509	4288
1802.53907	4277.5
1805.72514	4264.6
1808.90913	4254.9
1812.09102	4266.5
1815.27083	4241.4
1818.44856	4230.1
1821.6242	4227.4
1824.79776	4220.7
1827.96924	4205.4
1831.13864	4189
1834.30597	4183.8
1837.47122	4166.2
1840.6344	4166.1
1843.7955	4153.1
1846.95454	4176.2
1850.11151	4172
1853.26642	4164.3
1856.41926	4165.7
1859.57004	4163.8
1862.71876	4155
1865.86542	4156.4
1869.01003	4150.6
1872.15258	4153.1
1875.29308	4152.1
1878.43152	4133.6
1881.56792	4140.9
1884.70227	4122.3
1887.83457	4113.2
1890.96482	4099.9
1894.09304	4102.3
1897.21921	4095.4
1900.34335	4082.9
1903.46544	4074.7
1906.58551	4069.6
1909.70353	4058.8
1912.81953	4062.5
1915.93349	4054.3
1919.04543	4058.6
1922.15534	4046.1
1925.26322	4037.1
1928.36908	4036.9
1931.47292	4029
1934.57473	4008.7
1937.67453	4003.8
1940.77232	3982.6
1943.86808	3969.2
1946.96184	3973.2
1950.05358	3946.4
1953.14331	3939.5
1956.23103	3925.5
1959.31675	3925.2
1962.40046	3907.2
1965.48217	3904.8
1968.56188	3893.1
1971.63959	3882.4
1974.7153	3888.1
1977.78901	3857.7
1980.86073	3855
1983.93046	3829.6
1986.99819	3820.7
1990.06394	3808.3
1993.1277	3788.8
1996.18947	3777.6
1999.24925	3770.9
2002.30706	3752.3
2005.36288	3731.5
2008.41672	3717.8
2011.46859	3719.9
2014.51848	3721.3
2017.56639	3693
2020.61233	3690.1
2023.6563	3685.8
2026.6983	3659.5
2029.73833	3633.3
2032.7764	3626.4
2035.8125	3624.7
2038.84664	3616.1
2041.87881	3629.5
2044.90903	3596.6
2047.93729	3611.2
2050.96359	3601.6
2053.98794	3594.9
2057.01034	3573.8
2060.03078	3587.4
2063.04927	3579.4
2066.06582	3576.3
2069.08042	3574.9
2072.09307	3562.5
2075.10378	3559.3
2078.11255	3558.2
2081.11938	3561.8
2084.12426	3563.2
2087.12722	3562.9
2090.12824	3564.9
2093.12732	3559.2
2096.12447	3553.1
2099.11969	3557.6
2102.11299	3563.2
2105.10435	3551.5
2108.09379	3568.2
2111.08131	3554.1
2114.0669	3563.4
2117.05057	3563.8
2120.03233	3559.8
2123.01216	3571.6
2125.99008	3575.6
2128.96609	3581
2131.94018	3570.2
2134.91236	3568.8
2137.88263	3579
2140.851	3573.1
2143.81746	3579.7
2146.78201	3572.4
2149.74466	3569.1
2152.7054	3568.1
2155.66425	3565.2
2158.6212	3579.6
2161.57625	3545.6
2164.52941	3561.3
2167.48067	3551.8
2170.43004	3563
2173.37752	3549.3
2176.32311	3543.1
2179.26681	3566.1
2182.20863	3554.9
2185.14856	3549.9
2188.08661	3551.8
2191.02278	3551.6
2193.95707	3538.9
2196.88948	3537.1
2199.82001	3538.5
2202.74867	3532.7
2205.67545	3542
2208.60037	3510.5
2211.52341	3520.7
2214.44458	3501.9
2217.36388	3511.5
2220.28132	3499.2
2223.1969	3480.1
2226.11061	3471.3
2229.02246	3464.4
2231.93245	3462.4
2234.84058	3457.8
2237.74686	3467.1
2240.65128	3467
2243.55385	3450.1
2246.45456	3450
2249.35343	3444.9
2252.25044	3428.8
2255.14561	3434.7
2258.03893	3450.1
2260.93041	3433.7
2263.82004	3421.7
2266.70783	3435.3
2269.59378	3415.9
2272.4779	3401.8
2275.36017	3391
2278.24061	3381
2281.11922	3366.4
2283.996	3360.3
2286.87094	3353.1
2289.74405	3359.8
2292.61534	3353
2295.4848	3352.3
2298.35243	3359.2
2301.21824	3351
2304.08223	3353.9
2306.94439	3343
2309.80474	3349.8
2312.66327	3354.8
2315.51999	3342.2
2318.37489	3333.3
2321.22797	3327.1
2324.07925	3316.3
2326.92871	3310.4
2329.77637	3310.8
2332.62222	3298.7
2335.46626	3294.4
2338.3085	3280.6
2341.14893	3300
2343.98756	3287.1
2346.8244	3279
2349.65943	3272.4
2352.49267	3281.3
2355.32411	3294.3
2358.15376	3281.8
2360.98161	3295.1
2363.80768	3295
2366.63195	3299.6
2369.45444	3280.7
2372.27514	3279.7
2375.09405	3293.2
2377.91118	3276.6
2380.72652	3263.4
2383.54009	3270.3
2386.35187	3254.3
2389.16188	3240.1
2391.97011	3239.2
2394.77657	3228.8
2397.58125	3195.8
2400.38416	3192.5
2403.18529	3201.9
2405.98466	3192.3
2408.78226	3195.8
2411.57809	3186.8
2414.37216	3180.8
2417.16446	3169.7
2419.955	3182.7
2422.74378	3176.8
2425.5308	3175.5
2428.31606	3174.4
2431.09956	3167.5
2433.88131	3169
2436.6613	3172
2439.43954	3170.4
2442.21603	3173
2444.99077	3165.7
2447.76377	3161.2
2450.53501	3159.7
2453.30451	3147.7
2456.07226	3153
2458.83827	3154.1
2461.60254	3161.6
2464.36507	3145.2
2467.12586	3147.5
2469.88492	3152.8
2472.64224	3141.5
2475.39782	3146
2478.15167	3144.6
2480.90379	3131.6
2483.65417	3138.6
2486.40283	3141.7
2489.14976	3163.2
2491.89497	3143.5
2494.63845	3144.4
2497.3802	3148.8
2500.12024	3124.2
2502.85855	3129.9
2505.59514	3132.2
2508.33002	3124.6
2511.06318	3119.9
2513.79462	3107.5
2516.52435	3089.4
2519.25237	3093.7
2521.97867	3073
2524.70327	3063.2
2527.42616	3074.8
2530.14734	3070
2532.86681	3067.2
2535.58458	3068
2538.30065	3073.4
2541.01501	3077.5
2543.72768	3060
2546.43864	3064.6
2549.14791	3052.5
2551.85548	3057.6
2554.56136	3060.2
2557.26554	3055.4
2559.96803	3036.7
2562.66883	3022.5
2565.36794	3040.6
2568.06536	3015.1
2570.7611	3010.8
2573.45514	3000
2576.14751	2997.8
2578.83819	2984.6
2581.52719	2981.1
2584.21451	2978.3
2586.90015	2975.6
2589.58411	2972.7
2592.2664	2969.6
2594.94701	2962.6
2597.62594	2965.7
2600.30321	2967.1
2602.9788	2963.6
2605.65273	2941.3
2608.32498	2959.1
2610.99557	2963.2
2613.66449	2947.3
2616.33175	2943.9
2618.99734	2948.3
2621.66128	2931.5
2624.32355	2927.7
2626.98416	2918.5
2629.64311	2911.1
2632.30041	2903.7
2634.95605	2896.7
2637.61004	2887.7
2640.26238	2888.2
2642.91306	2895.8
2645.56209	2894.3
2648.20948	2891.1
2650.85521	2891.4
2653.4993	2888.2
2656.14175	2885
2658.78255	2884.2
2661.42171	2896.9
2664.05923	2881
2666.6951	2899.5
2669.32934	2887.4
2671.96194	2890.5
2674.59291	2890.9
2677.22224	2895.7
2679.84993	2889.2
2682.476	2890.7
2685.10043	2883.1
2687.72324	2877.4
2690.34441	2888.8
2692.96396	2880.7
2695.58188	2868.1
2698.19818	2890.5
2700.81285	2884.9
2703.4259	2870.2
2706.03733	2885.9
2708.64714	2868.3
2711.25533	2873
2713.86191	2868.8
2716.46687	2861.5
2719.07021	2870.9
2721.67194	2876.4
2724.27206	2867.3
2726.87057	2870
2729.46747	2874.9
2732.06276	2887.3
2734.65644	2867.1
2737.24852	2860.4
2739.83899	2863.3
2742.42786	2854.5
2745.01513	2841.9
2747.60079	2845.4
2750.18486	2851
2752.76733	2843.5
2755.3482	2818.9
2757.92747	2821.5
2760.50515	2823.3
2763.08123	2814
2765.65573	2816.2
2768.22863	2802.5
2770.79994	2795
2773.36967	2794.9
2775.9378	2800.1
2778.50435	2800.4
2781.06932	2795
2783.6327	2795
2786.1945	2783.1
2788.75471	2780.2
2791.31335	2773.1
2793.87041	2773.1
2796.42589	2774.5
2798.97979	2766.7
2801.53212	2777.8
2804.08288	2775.4
2806.63206	2767
2809.17967	2770.9
2811.72571	2726.2
2814.27018	2750.8
2816.81308	2735.4
2819.35442	2750.1
2821.89419	2722.1
2824.43239	2712.9
2826.96904	2725.9
2829.50412	2717.6
2832.03763	2698.7
2834.56959	2701.4
2837.1	2693.6
2839.62884	2699.2
2842.15613	2683.9
2844.68186	2687.5
2847.20604	2687.8
2849.72867	2680.8
2852.24974	2674
2854.76927	2678.1
2857.28724	2667
2859.80367	2671.8
2862.31855	2679
2864.83189	2672.3
2867.34368	2675.4
2869.85393	2665.7
2872.36264	2666.5
2874.8698	2677.4
2877.37543	2667.9
2879.87952	2653.5
2882.38207	2656.3
2884.88308	2635.4
2887.38256	2633.4
2889.88051	2633.8
2892.37692	2621.5
2894.8718	2631
2897.36515	2630.6
2899.85698	2626.3
2902.34727	2629.1
2904.83604	2641.2
2907.32328	2647.9
2909.809	2641.9
2912.29319	2652.5
2914.77587	2653
2917.25702	2643.8
2919.73665	2639.2
2922.21476	2638.5
2924.69136	2645.9
2927.16644	2633.5
2929.64	2618.6
2932.11205	2630.2
2934.58258	2609.7
2937.05161	2617.5
2939.51912	2628.2
2941.98513	2608.3
2944.44962	2596
2946.91261	2609.9
2949.37409	2612.7
2951.83407	2605
2954.29254	2611
2956.74951	2591.2
2959.20498	2593.1
2961.65895	2598.5
2964.11142	2580.9
2966.56239	2586.2
2969.01186	2581
2971.45984	2575.2
2973.90632	2581.3
2976.35131	2569.8
2978.7948	2563.4
2981.23681	2569.4
2983.67732	2563.6
2986.11635	2554.4
2988.55388	2554.7
2990.98993	2547
2993.4245	2534.4
2995.85758	2545.6
2998.28917	2529.9
3000.71928	2524.3
3003.14791	2509.9
3005.57506	2520.4
3008.00073	2498.8
3010.42493	2500.9
3012.84764	2499.8
3015.26888	2498.7
3017.68865	2489.2
3020.10694	2482.6
3022.52376	2475.9
3024.9391	2466.1
3027.35298	2466.9
3029.76539	2443
3032.17632	2451.6
3034.5858	2428.3
3036.9938	2445.5
3039.40034	2424.9
3041.80542	2432.1
3044.20903	2429.9
3046.61118	2421.7
3049.01187	2418.6
3051.4111	2413.1
3053.80888	2398.3
3056.20519	2401.9
3058.60005	2402.6
3060.99345	2410.7
3063.3854	2396
3065.7759	2384.4
3068.16494	2386
3070.55254	2361.7
3072.93868	2364.2
3075.32338	2359.7
3077.70662	2352.5
3080.08842	2341
3082.46878	2339.9
3084.84769	2344.3
3087.22515	2333.5
3089.60118	2333.3
3091.97576	2333.1
3094.3489	2311.2
3096.72061	2329.9
3099.09087	2327.8
3101.4597	2324.3
3103.82709	2324.1
3106.19305	2302.8
3108.55757	2313.8
3110.92066	2318.8
3113.28232	2314.2
3115.64255	2304.4
3118.00134	2287.7
3120.35871	2294.4
3122.71466	2287.2
3125.06917	2271.1
3127.42226	2277.9
3129.77393	2281.6
3132.12417	2269.6
3134.47299	2270
3136.82039	2259
3139.16636	2262.3
3141.51092	2267.2
3143.85406	2256
3146.19579	2259.8
3148.53609	2255.4
3150.87499	2261.9
3153.21246	2263.8
3155.54853	2268
3157.88318	2264.3
3160.21642	2267.3
3162.54826	2264.7
3164.87868	2253.4
3167.2077	2248.5
3169.5353	2250.9
3171.86151	2240.6
3174.18631	2250.9
3176.5097	2241.7
3178.83169	2224
3181.15228	2234.8
3183.47147	2231.1
3185.78926	2218.3
3188.10565	2207.5
3190.42065	2220.1
3192.73424	2211.3
3195.04645	2212.2
3197.35725	2208.3
3199.66667	2201.8
3201.97469	2197.9
3204.28132	2193.1
3206.58656	2206.1
3208.8904	2208.4
3211.19287	2199.5
3213.49394	2202.5
3215.79363	2201.7
3218.09193	2200.9
3220.38884	2203.6
3222.68438	2199.9
3224.97853	2203.9
3227.2713	2192
3229.56269	2199.2
3231.8527	2184.9
3234.14133	2179.7
3236.42858	2171.5
3238.71446	2169.3
3240.99896	2151
3243.28209	2163.1
3245.56384	2155
3247.84423	2160.8
3250.12324	2147.3
3252.40088	2159.2
3254.67715	2153.5
3256.95205	2136
3259.22558	2135.6
3261.49775	2140.6
3263.76855	2146.5
3266.03799	2137.8
3268.30606	2129
3270.57277	2135.5
3272.83812	2127.2
3275.10211	2117.3
3277.36474	2121
3279.62601	2104.6
3281.88593	2100.1
3284.14448	2104.1
3286.40168	2116.2
3288.65753	2107.2
3290.91202	2104.1
3293.16516	2109.5
3295.41695	2101.3
3297.66738	2094.8
3299.91647	2084.8
3302.16421	2050.3
3304.4106	2054.2
3306.65564	2044.9
3308.89933	2031.4
3311.14169	2012
3313.38269	1989.1
3315.62236	1978.5
3317.86068	1964.1
3320.09766	1950.7
3322.3333	1937
3324.5676	1928
3326.80056	1891
3329.03219	1872.1
3331.26248	-0.5
3333.49143	-0.6
3335.71905	0
