Data from AgNPs_UA_5uM_CRN_500uM_SU_RamanShift__104__11-46-43-160.txt Node

Date: Thu Aug 04 11:46:43 BST 2022
User: TCL
Spectrometer: QEP01345
Trigger mode: 4
Integration Time (sec): 1.000000E0
Scans to average: 10
Electric dark correction enabled: true
Nonlinearity correction enabled: false
Boxcar width: 0
XAxis mode: Raman Shifts
Number of Pixels in Spectrum: 1044
>>>>>Begin Spectral Data<<<<<
46.04893	-0.4375
50.45542	-1.1375
54.85868	0.9625
59.25871	-0.7375
63.6555	-65.3375
68.04907	-47.9375
72.43941	-78.4375
76.82654	-65.3375
81.21044	-65.3375
85.59113	-58.8375
89.96862	-82.3375
94.34289	-63.6375
98.71396	-87.0375
103.08183	-68.3375
107.4465	-61.1375
111.80798	-67.1375
116.16626	-56.4375
120.52136	-85.4375
124.87327	-62.9375
129.222	-76.3375
133.56755	-63.4375
137.90993	-80.8375
142.24913	-72.5375
146.58517	-66.1375
150.91804	-68.6375
155.24774	-65.1375
159.57429	-54.8375
163.89768	-65.6375
168.21792	-42.5375
172.53501	-53.3375
176.84895	-16.2375
181.15975	43.9625
185.46741	92.5625
189.77193	141.5625
194.07331	269.9625
198.37157	369.0625
202.6667	462.8625
206.9587	591.1625
211.24758	697.1625
215.53334	814.5625
219.81599	935.4625
224.09553	1086.3625
228.37195	1241.1625
232.64527	1414.9625
236.91549	1616.9625
241.18261	1795.8625
245.44663	1966.3625
249.70755	2083.0625
253.96539	2153.8625
258.22014	2225.4625
262.4718	2235.1625
266.72039	2245.2625
270.96589	2214.4625
275.20832	2166.7625
279.44768	2144.2625
283.68397	2089.2625
287.91719	2036.9625
292.14735	2020.1625
296.37445	2023.8625
300.59849	2037.5625
304.81948	2048.5625
309.03742	2077.9625
313.25231	2093.8625
317.46415	2121.1625
321.67296	2069.9625
325.87872	2024.9625
330.08145	2034.7625
334.28114	2033.1625
338.47781	2050.8625
342.67145	2088.3625
346.86207	2123.9625
351.04966	2189.8625
355.23424	2249.8625
359.4158	2311.6625
363.59435	2300.9625
367.76989	2322.6625
371.94243	2343.0625
376.11196	2344.3625
380.27849	2365.2625
384.44203	2383.4625
388.60257	2388.1625
392.76012	2414.2625
396.91468	2461.3625
401.06626	2509.1625
405.21485	2491.5625
409.36047	2506.1625
413.50311	2490.3625
417.64277	2491.1625
421.77947	2466.7625
425.9132	2469.1625
430.04396	2479.9625
434.17176	2516.2625
438.2966	2551.6625
442.41849	2574.0625
446.53742	2591.2625
450.6534	2614.9625
454.76644	2658.6625
458.87653	2676.9625
462.98368	2684.2625
467.08789	2675.7625
471.18916	2691.6625
475.2875	2703.9625
479.38291	2720.4625
483.4754	2725.1625
487.56496	2721.8625
491.6516	2704.6625
495.73531	2716.4625
499.81612	2721.7625
503.89401	2762.9625
507.96899	2764.4625
512.04106	2766.6625
516.11023	2792.1625
520.1765	2815.4625
524.23987	2825.6625
528.30034	2841.0625
532.35792	2808.0625
536.41261	2845.0625
540.46441	2849.1625
544.51333	2830.3625
548.55936	2860.0625
552.60252	2895.3625
556.64279	2902.0625
560.6802	2942.9625
564.71473	2960.2625
568.7464	2983.9625
572.7752	2998.3625
576.80114	2962.4625
580.82422	2944.3625
584.84444	2948.1625
588.86181	2951.9625
592.87633	2982.1625
596.888	2998.8625
600.89682	3045.7625
604.9028	3185.1625
608.90594	3368.8625
612.90624	3627.3625
616.90371	3529.5625
620.89834	3249.5625
624.89015	3148.9625
628.87913	3118.5625
632.86528	3151.2625
636.84862	3187.7625
640.82913	3197.8625
644.80683	3138.9625
648.78172	3151.7625
652.75379	3175.4625
656.72306	3206.9625
660.68952	3248.1625
664.65319	3245.4625
668.61405	3237.9625
672.57211	3247.9625
676.52738	3290.2625
680.47986	3299.7625
684.42955	3290.4625
688.37646	3300.2625
692.32058	3286.9625
696.26192	3292.7625
700.20048	3323.7625
704.13626	3325.0625
708.06928	3311.0625
711.99952	3347.8625
715.927	3329.9625
719.85171	3348.2625
723.77365	3382.9625
727.69284	3375.4625
731.60928	3394.9625
735.52295	3374.0625
739.43388	3414.9625
743.34206	3415.9625
747.24749	3453.1625
751.15017	3459.1625
755.05012	3447.3625
758.94733	3513.1625
762.8418	3571.7625
766.73354	3704.0625
770.62254	3799.1625
774.50882	3782.4625
778.39237	3762.5625
782.27321	3699.9625
786.15132	3614.3625
790.02671	3585.0625
793.89938	3507.0625
797.76935	3528.7625
801.6366	3515.5625
805.50115	3509.5625
809.36299	3526.3625
813.22213	3542.8625
817.07857	3548.2625
820.93231	3538.8625
824.78336	3565.8625
828.63172	3571.6625
832.47738	3576.3625
836.32036	3611.1625
840.16066	3624.3625
843.99827	3623.0625
847.8332	3610.6625
851.66546	3628.4625
855.49504	3618.2625
859.32195	3672.4625
863.1462	3653.4625
866.96777	3668.4625
870.78668	3657.6625
874.60293	3677.4625
878.41652	3674.4625
882.22745	3719.5625
886.03573	3721.9625
889.84136	3706.0625
893.64433	3739.3625
897.44466	3729.6625
901.24235	3736.9625
905.0374	3738.7625
908.8298	3727.2625
912.61957	3735.4625
916.40671	3691.3625
920.19121	3739.2625
923.97308	3753.9625
927.75233	3752.3625
931.52895	3742.3625
935.30295	3792.7625
939.07433	3773.3625
942.84309	3734.4625
946.60924	3739.1625
950.37278	3731.6625
954.13371	3746.3625
957.89203	3750.7625
961.64774	3772.8625
965.40086	3740.9625
969.15137	3728.4625
972.89929	3775.3625
976.64461	3761.9625
980.38733	3779.0625
984.12747	3756.8625
987.86502	3765.3625
991.59999	3774.8625
995.33237	3809.2625
999.06217	3825.8625
1002.78939	3842.1625
1006.51404	3860.1625
1010.23611	3869.5625
1013.95561	3892.4625
1017.67255	3906.7625
1021.38692	3914.8625
1025.09872	3902.6625
1028.80796	3883.6625
1032.51465	3901.5625
1036.21877	3896.7625
1039.92035	3920.4625
1043.61937	3933.5625
1047.31584	3942.9625
1051.00976	3981.7625
1054.70114	3981.2625
1058.38998	3976.5625
1062.07627	3983.6625
1065.76003	3987.1625
1069.44126	4013.0625
1073.11995	4029.7625
1076.79611	4047.3625
1080.46974	4084.4625
1084.14085	4088.8625
1087.80943	4101.4625
1091.47549	4122.2625
1095.13903	4115.6625
1098.80005	4126.8625
1102.45857	4115.3625
1106.11456	4121.3625
1109.76805	4051.4625
1113.41903	4098.6625
1117.06751	4100.8625
1120.71348	4121.5625
1124.35696	4190.3625
1127.99793	4204.8625
1131.63641	4189.3625
1135.2724	4162.7625
1138.90589	4134.8625
1142.5369	4082.8625
1146.16542	4092.8625
1149.79145	4079.2625
1153.415	4072.8625
1157.03607	4064.9625
1160.65467	4083.1625
1164.27079	4112.8625
1167.88443	4117.7625
1171.49561	4172.0625
1175.10432	4227.0625
1178.71056	4322.1625
1182.31434	4406.5625
1185.91565	4434.2625
1189.51451	4434.7625
1193.11091	4436.9625
1196.70485	4415.9625
1200.29634	4407.4625
1203.88538	4382.7625
1207.47197	4341.1625
1211.05612	4289.4625
1214.63782	4250.0625
1218.21708	4241.3625
1221.79391	4241.4625
1225.36829	4205.7625
1228.94024	4212.9625
1232.50976	4217.6625
1236.07685	4235.3625
1239.6415	4257.5625
1243.20374	4264.3625
1246.76355	4273.2625
1250.32093	4295.3625
1253.8759	4305.8625
1257.42845	4349.9625
1260.97859	4365.3625
1264.52631	4422.8625
1268.07163	4398.3625
1271.61453	4427.4625
1275.15503	4423.8625
1278.69312	4410.6625
1282.22882	4425.6625
1285.76211	4469.4625
1289.29301	4463.9625
1292.82151	4481.8625
1296.34761	4491.9625
1299.87133	4555.8625
1303.39266	4619.1625
1306.9116	4735.3625
1310.42815	4860.3625
1313.94233	4928.7625
1317.45412	4818.0625
1320.96354	4733.3625
1324.47058	4627.8625
1327.97525	4540.9625
1331.47754	4497.3625
1334.97747	4486.7625
1338.47502	4491.0625
1341.97022	4543.4625
1345.46305	4623.7625
1348.95352	4718.9625
1352.44163	4831.4625
1355.92738	4922.8625
1359.41078	5079.6625
1362.89183	5193.2625
1366.37053	5120.1625
1369.84688	4841.4625
1373.32088	4601.2625
1376.79254	4483.3625
1380.26186	4388.1625
1383.72883	4331.7625
1387.19347	4264.1625
1390.65578	4208.8625
1394.11575	4192.2625
1397.57339	4189.9625
1401.0287	4179.5625
1404.48168	4172.6625
1407.93234	4175.7625
1411.38068	4168.7625
1414.82669	4186.7625
1418.27039	4210.0625
1421.71177	4210.7625
1425.15083	4185.9625
1428.58758	4174.7625
1432.02203	4162.8625
1435.45416	4194.1625
1438.88399	4150.8625
1442.31151	4133.1625
1445.73673	4144.2625
1449.15965	4131.9625
1452.58027	4141.3625
1455.9986	4144.5625
1459.41463	4159.1625
1462.82837	4174.7625
1466.23982	4197.8625
1469.64898	4207.2625
1473.05586	4218.6625
1476.46045	4241.8625
1479.86276	4239.6625
1483.26279	4256.0625
1486.66054	4312.9625
1490.05602	4313.9625
1493.44922	4406.4625
1496.84016	4454.9625
1500.22882	4594.9625
1503.61521	4764.3625
1506.99934	4904.3625
1510.38121	5059.4625
1513.76081	5107.4625
1517.13816	4992.0625
1520.51324	4761.7625
1523.88607	4605.9625
1527.25665	4485.7625
1530.62498	4438.8625
1533.99105	4423.5625
1537.35488	4425.6625
1540.71647	4423.6625
1544.07581	4425.3625
1547.4329	4416.8625
1550.78776	4419.5625
1554.14038	4423.0625
1557.49077	4402.9625
1560.83892	4437.1625
1564.18484	4443.8625
1567.52853	4470.4625
1570.86999	4514.6625
1574.20922	4514.8625
1577.54624	4508.0625
1580.88103	4454.9625
1584.2136	4386.9625
1587.54395	4381.3625
1590.87208	4380.9625
1594.19801	4374.5625
1597.52172	4421.4625
1600.84321	4473.3625
1604.16251	4440.1625
1607.47959	4391.4625
1610.79447	4401.5625
1614.10715	4362.7625
1617.41763	4342.7625
1620.7259	4293.3625
1624.03199	4284.2625
1627.33587	4252.8625
1630.63757	4248.2625
1633.93707	4266.2625
1637.23439	4320.2625
1640.52951	4381.3625
1643.82246	4469.2625
1647.11321	4610.5625
1650.40179	4646.8625
1653.68819	4599.4625
1656.97241	4490.2625
1660.25446	4348.5625
1663.53433	4255.3625
1666.81203	4179.4625
1670.08756	4154.2625
1673.36092	4161.9625
1676.63211	4109.7625
1679.90115	4125.4625
1683.16801	4106.0625
1686.43272	4062.2625
1689.69527	4076.2625
1692.95567	4047.7625
1696.2139	4045.2625
1699.46999	4026.3625
1702.72392	4032.9625
1705.97571	4060.6625
1709.22535	4047.9625
1712.47284	4079.5625
1715.71819	4085.0625
1718.96139	4081.8625
1722.20246	4107.5625
1725.44139	4075.3625
1728.67818	4105.2625
1731.91284	4080.5625
1735.14537	4075.5625
1738.37576	4063.0625
1741.60403	4068.4625
1744.83017	4035.4625
1748.05418	4053.1625
1751.27607	4070.1625
1754.49584	4049.7625
1757.71349	4011.3625
1760.92903	4042.7625
1764.14244	4012.8625
1767.35375	4023.8625
1770.56294	4022.9625
1773.77002	4030.9625
1776.97499	4047.4625
1780.17785	4022.7625
1783.37861	4048.6625
1786.57727	4053.7625
1789.77382	3997.2625
1792.96828	4037.5625
1796.16064	4054.2625
1799.3509	4044.4625
1802.53907	4040.8625
1805.72514	4019.4625
1808.90913	4008.0625
1812.09102	4014.5625
1815.27083	4021.1625
1818.44856	4016.5625
1821.6242	4001.7625
1824.79776	3978.4625
1827.96924	3987.8625
1831.13864	3973.5625
1834.30597	3986.0625
1837.47122	3978.7625
1840.6344	3971.7625
1843.7955	3954.4625
1846.95454	3963.7625
1850.11151	3976.9625
1853.26642	3947.2625
1856.41926	3956.2625
1859.57004	3962.0625
1862.71876	3953.2625
1865.86542	3951.5625
1869.01003	3956.3625
1872.15258	3921.8625
1875.29308	3952.4625
1878.43152	3940.9625
1881.56792	3927.0625
1884.70227	3916.3625
1887.83457	3927.5625
1890.96482	3899.2625
1894.09304	3902.4625
1897.21921	3905.1625
1900.34335	3910.8625
1903.46544	3885.1625
1906.58551	3905.8625
1909.70353	3912.6625
1912.81953	3895.3625
1915.93349	3904.1625
1919.04543	3883.0625
1922.15534	3869.4625
1925.26322	3868.7625
1928.36908	3866.4625
1931.47292	3855.3625
1934.57473	3889.7625
1937.67453	3864.8625
1940.77232	3851.3625
1943.86808	3834.6625
1946.96184	3845.7625
1950.05358	3820.8625
1953.14331	3809.8625
1956.23103	3810.3625
1959.31675	3781.9625
1962.40046	3735.5625
1965.48217	3767.3625
1968.56188	3768.7625
1971.63959	3738.6625
1974.7153	3754.0625
1977.78901	3738.8625
1980.86073	3729.0625
1983.93046	3695.0625
1986.99819	3621.3625
1990.06394	3658.5625
1993.1277	3700.5625
1996.18947	3670.8625
1999.24925	3638.6625
2002.30706	3661.1625
2005.36288	3647.2625
2008.41672	3631.2625
2011.46859	3608.5625
2014.51848	3604.9625
2017.56639	3594.7625
2020.61233	3579.8625
2023.6563	3599.7625
2026.6983	3549.8625
2029.73833	3552.8625
2032.7764	3571.3625
2035.8125	3516.4625
2038.84664	3532.7625
2041.87881	3514.8625
2044.90903	3516.7625
2047.93729	3527.0625
2050.96359	3488.1625
2053.98794	3499.1625
2057.01034	3513.7625
2060.03078	3493.3625
2063.04927	3494.1625
2066.06582	3503.1625
2069.08042	3484.2625
2072.09307	3505.6625
2075.10378	3507.9625
2078.11255	3477.5625
2081.11938	3501.2625
2084.12426	3484.9625
2087.12722	3477.2625
2090.12824	3486.7625
2093.12732	3500.7625
2096.12447	3490.7625
2099.11969	3483.0625
2102.11299	3482.2625
2105.10435	3509.6625
2108.09379	3493.5625
2111.08131	3495.5625
2114.0669	3498.7625
2117.05057	3493.1625
2120.03233	3477.2625
2123.01216	3489.7625
2125.99008	3505.8625
2128.96609	3495.5625
2131.94018	3520.0625
2134.91236	3500.4625
2137.88263	3503.1625
2140.851	3502.5625
2143.81746	3535.4625
2146.78201	3528.1625
2149.74466	3532.5625
2152.7054	3535.6625
2155.66425	3522.7625
2158.6212	3516.7625
2161.57625	3484.8625
2164.52941	3490.3625
2167.48067	3493.0625
2170.43004	3508.6625
2173.37752	3507.0625
2176.32311	3504.3625
2179.26681	3502.5625
2182.20863	3508.4625
2185.14856	3522.2625
2188.08661	3500.8625
2191.02278	3522.5625
2193.95707	3494.6625
2196.88948	3484.8625
2199.82001	3519.3625
2202.74867	3480.1625
2205.67545	3497.4625
2208.60037	3497.7625
2211.52341	3477.3625
2214.44458	3473.2625
2217.36388	3463.3625
2220.28132	3454.9625
2223.1969	3440.8625
2226.11061	3447.0625
2229.02246	3425.7625
2231.93245	3438.4625
2234.84058	3424.6625
2237.74686	3413.8625
2240.65128	3408.3625
2243.55385	3415.4625
2246.45456	3401.9625
2249.35343	3412.7625
2252.25044	3384.7625
2255.14561	3402.4625
2258.03893	3395.4625
2260.93041	3373.9625
2263.82004	3379.1625
2266.70783	3370.9625
2269.59378	3360.4625
2272.4779	3333.6625
2275.36017	3340.7625
2278.24061	3324.2625
2281.11922	3291.2625
2283.996	3315.4625
2286.87094	3300.3625
2289.74405	3311.8625
2292.61534	3296.8625
2295.4848	3301.6625
2298.35243	3304.7625
2301.21824	3283.1625
2304.08223	3295.7625
2306.94439	3309.0625
2309.80474	3294.7625
2312.66327	3284.1625
2315.51999	3266.5625
2318.37489	3284.9625
2321.22797	3255.6625
2324.07925	3259.5625
2326.92871	3256.9625
2329.77637	3255.9625
2332.62222	3232.9625
2335.46626	3217.5625
2338.3085	3220.7625
2341.14893	3222.8625
2343.98756	3225.0625
2346.8244	3207.9625
2349.65943	3191.4625
2352.49267	3200.7625
2355.32411	3189.0625
2358.15376	3196.5625
2360.98161	3201.6625
2363.80768	3177.3625
2366.63195	3185.4625
2369.45444	3186.3625
2372.27514	3175.3625
2375.09405	3193.1625
2377.91118	3150.7625
2380.72652	3157.9625
2383.54009	3143.4625
2386.35187	3161.2625
2389.16188	3145.5625
2391.97011	3142.5625
2394.77657	3131.6625
2397.58125	3117.3625
2400.38416	3126.8625
2403.18529	3128.1625
2405.98466	3108.7625
2408.78226	3108.7625
2411.57809	3092.9625
2414.37216	3083.0625
2417.16446	3100.4625
2419.955	3071.1625
2422.74378	3085.1625
2425.5308	3058.8625
2428.31606	3078.7625
2431.09956	3079.5625
2433.88131	3043.7625
2436.6613	3066.8625
2439.43954	3054.0625
2442.21603	3047.8625
2444.99077	3038.0625
2447.76377	3044.0625
2450.53501	3041.4625
2453.30451	3027.1625
2456.07226	3034.4625
2458.83827	3027.4625
2461.60254	2971.0625
2464.36507	3009.9625
2467.12586	2991.8625
2469.88492	3004.8625
2472.64224	2991.8625
2475.39782	2969.4625
2478.15167	2994.7625
2480.90379	2974.5625
2483.65417	2989.6625
2486.40283	2973.4625
2489.14976	2989.8625
2491.89497	2970.8625
2494.63845	2959.4625
2497.3802	2959.3625
2500.12024	2952.0625
2502.85855	2939.4625
2505.59514	2950.4625
2508.33002	2949.7625
2511.06318	2929.2625
2513.79462	2950.4625
2516.52435	2908.0625
2519.25237	2891.2625
2521.97867	2921.4625
2524.70327	2913.9625
2527.42616	2913.0625
2530.14734	2939.4625
2532.86681	2907.9625
2535.58458	2895.4625
2538.30065	2890.6625
2541.01501	2909.7625
2543.72768	2891.1625
2546.43864	2880.2625
2549.14791	2876.1625
2551.85548	2852.5625
2554.56136	2864.3625
2557.26554	2859.9625
2559.96803	2852.5625
2562.66883	2839.9625
2565.36794	2826.8625
2568.06536	2785.4625
2570.7611	2840.5625
2573.45514	2818.4625
2576.14751	2803.8625
2578.83819	2790.6625
2581.52719	2782.2625
2584.21451	2788.2625
2586.90015	2767.6625
2589.58411	2755.4625
2592.2664	2769.8625
2594.94701	2764.4625
2597.62594	2767.6625
2600.30321	2699.4625
2602.9788	2720.0625
2605.65273	2714.1625
2608.32498	2724.5625
2610.99557	2728.2625
2613.66449	2704.7625
2616.33175	2716.0625
2618.99734	2731.4625
2621.66128	2716.2625
2624.32355	2692.4625
2626.98416	2675.0625
2629.64311	2677.0625
2632.30041	2681.3625
2634.95605	2664.9625
2637.61004	2651.2625
2640.26238	2630.9625
2642.91306	2646.5625
2645.56209	2657.9625
2648.20948	2643.9625
2650.85521	2647.6625
2653.4993	2659.7625
2656.14175	2653.3625
2658.78255	2638.2625
2661.42171	2602.9625
2664.05923	2636.6625
2666.6951	2639.5625
2669.32934	2651.7625
2671.96194	2650.0625
2674.59291	2629.1625
2677.22224	2633.3625
2679.84993	2643.2625
2682.476	2625.4625
2685.10043	2612.0625
2687.72324	2608.0625
2690.34441	2610.1625
2692.96396	2611.6625
2695.58188	2629.8625
2698.19818	2610.5625
2700.81285	2614.1625
2703.4259	2587.6625
2706.03733	2569.8625
2708.64714	2567.0625
2711.25533	2606.2625
2713.86191	2598.7625
2716.46687	2593.3625
2719.07021	2590.8625
2721.67194	2593.1625
2724.27206	2610.8625
2726.87057	2593.5625
2729.46747	2577.0625
2732.06276	2593.4625
2734.65644	2574.5625
2737.24852	2579.1625
2739.83899	2562.3625
2742.42786	2569.6625
2745.01513	2583.3625
2747.60079	2556.8625
2750.18486	2553.4625
2752.76733	2547.5625
2755.3482	2557.1625
2757.92747	2548.7625
2760.50515	2521.8625
2763.08123	2549.0625
2765.65573	2524.2625
2768.22863	2522.3625
2770.79994	2513.1625
2773.36967	2516.9625
2775.9378	2498.5625
2778.50435	2496.0625
2781.06932	2488.8625
2783.6327	2479.3625
2786.1945	2497.7625
2788.75471	2481.5625
2791.31335	2471.7625
2793.87041	2473.2625
2796.42589	2450.0625
2798.97979	2449.1625
2801.53212	2440.0625
2804.08288	2455.2625
2806.63206	2432.8625
2809.17967	2418.7625
2811.72571	2426.0625
2814.27018	2430.7625
2816.81308	2405.8625
2819.35442	2364.1625
2821.89419	2393.3625
2824.43239	2371.6625
2826.96904	2394.6625
2829.50412	2379.5625
2832.03763	2377.0625
2834.56959	2375.2625
2837.1	2371.2625
2839.62884	2364.0625
2842.15613	2367.8625
2844.68186	2395.7625
2847.20604	2345.4625
2849.72867	2342.9625
2852.24974	2355.7625
2854.76927	2325.4625
2857.28724	2285.6625
2859.80367	2334.3625
2862.31855	2331.8625
2864.83189	2313.6625
2867.34368	2329.6625
2869.85393	2329.5625
2872.36264	2283.4625
2874.8698	2290.0625
2877.37543	2310.0625
2879.87952	2301.2625
2882.38207	2286.3625
2884.88308	2297.0625
2887.38256	2298.0625
2889.88051	2288.9625
2892.37692	2302.5625
2894.8718	2273.9625
2897.36515	2290.3625
2899.85698	2273.4625
2902.34727	2278.5625
2904.83604	2282.0625
2907.32328	2288.1625
2909.809	2288.8625
2912.29319	2268.8625
2914.77587	2278.6625
2917.25702	2298.0625
2919.73665	2299.5625
2922.21476	2285.0625
2924.69136	2285.7625
2927.16644	2277.2625
2929.64	2279.5625
2932.11205	2265.1625
2934.58258	2271.0625
2937.05161	2262.8625
2939.51912	2261.6625
2941.98513	2275.7625
2944.44962	2271.6625
2946.91261	2251.3625
2949.37409	2252.4625
2951.83407	2251.7625
2954.29254	2243.2625
2956.74951	2248.6625
2959.20498	2239.9625
2961.65895	2239.5625
2964.11142	2233.9625
2966.56239	2226.2625
2969.01186	2244.2625
2971.45984	2230.0625
2973.90632	2222.9625
2976.35131	2234.8625
2978.7948	2218.3625
2981.23681	2219.4625
2983.67732	2231.6625
2986.11635	2215.4625
2988.55388	2182.2625
2990.98993	2205.1625
2993.4245	2179.5625
2995.85758	2171.8625
2998.28917	2171.5625
3000.71928	2168.0625
3003.14791	2166.2625
3005.57506	2154.8625
3008.00073	2147.5625
3010.42493	2096.6625
3012.84764	2154.4625
3015.26888	2140.7625
3017.68865	2143.4625
3020.10694	2110.3625
3022.52376	2130.1625
3024.9391	2124.9625
3027.35298	2110.6625
3029.76539	2105.0625
3032.17632	2118.0625
3034.5858	2101.1625
3036.9938	2112.3625
3039.40034	2107.4625
3041.80542	2104.7625
3044.20903	2085.3625
3046.61118	2091.9625
3049.01187	2093.7625
3051.4111	2081.1625
3053.80888	2071.4625
3056.20519	2062.9625
3058.60005	2058.4625
3060.99345	2070.4625
3063.3854	2045.8625
3065.7759	2036.1625
3068.16494	2032.7625
3070.55254	2015.8625
3072.93868	2047.3625
3075.32338	2036.3625
3077.70662	2026.2625
3080.08842	2009.9625
3082.46878	2006.1625
3084.84769	2022.6625
3087.22515	2010.0625
3089.60118	2033.5625
3091.97576	2010.2625
3094.3489	2023.3625
3096.72061	2008.3625
3099.09087	1996.1625
3101.4597	2015.3625
3103.82709	2008.3625
3106.19305	1987.9625
3108.55757	1998.8625
3110.92066	1985.2625
3113.28232	1994.6625
3115.64255	1993.3625
3118.00134	1990.8625
3120.35871	1985.7625
3122.71466	1951.8625
3125.06917	1979.9625
3127.42226	1956.7625
3129.77393	1945.9625
3132.12417	1966.6625
3134.47299	1971.5625
3136.82039	1949.5625
3139.16636	1928.2625
3141.51092	1948.0625
3143.85406	1946.2625
3146.19579	1933.9625
3148.53609	1943.9625
3150.87499	1952.3625
3153.21246	1932.6625
3155.54853	1952.2625
3157.88318	1940.2625
3160.21642	1953.8625
3162.54826	1943.2625
3164.87868	1950.5625
3167.2077	1916.8625
3169.5353	1938.2625
3171.86151	1940.5625
3174.18631	1936.6625
3176.5097	1926.1625
3178.83169	1932.2625
3181.15228	1937.1625
3183.47147	1912.3625
3185.78926	1893.4625
3188.10565	1914.8625
3190.42065	1886.9625
3192.73424	1903.1625
3195.04645	1893.8625
3197.35725	1881.3625
3199.66667	1888.2625
3201.97469	1881.3625
3204.28132	1878.0625
3206.58656	1895.4625
3208.8904	1888.6625
3211.19287	1885.4625
3213.49394	1880.6625
3215.79363	1878.2625
3218.09193	1878.1625
3220.38884	1877.0625
3222.68438	1871.9625
3224.97853	1861.1625
3227.2713	1880.4625
3229.56269	1871.3625
3231.8527	1872.1625
3234.14133	1855.2625
3236.42858	1854.7625
3238.71446	1835.5625
3240.99896	1862.2625
3243.28209	1834.5625
3245.56384	1848.1625
3247.84423	1832.1625
3250.12324	1829.5625
3252.40088	1838.0625
3254.67715	1828.8625
3256.95205	1819.5625
3259.22558	1836.6625
3261.49775	1823.8625
3263.76855	1824.8625
3266.03799	1830.0625
3268.30606	1826.5625
3270.57277	1829.9625
3272.83812	1800.7625
3275.10211	1808.7625
3277.36474	1818.2625
3279.62601	1809.4625
3281.88593	1789.3625
3284.14448	1769.5625
3286.40168	1793.8625
3288.65753	1785.5625
3290.91202	1776.3625
3293.16516	1750.8625
3295.41695	1784.7625
3297.66738	1788.0625
3299.91647	1755.1625
3302.16421	1754.8625
3304.4106	1707.7625
3306.65564	1738.7625
3308.89933	1703.7625
3311.14169	1701.4625
3313.38269	1697.3625
3315.62236	1687.0625
3317.86068	1666.6625
3320.09766	1665.0625
3322.3333	1628.4625
3324.5676	1625.2625
3326.80056	1593.6625
3329.03219	1586.8625
3331.26248	0.4625
3333.49143	-1.4375
3335.71905	1.6625
