Data from AgNPs_UA_20uM_CRN_500uM_SU_RamanShift__19__13-39-40-294.txt Node

Date: Thu Aug 04 13:39:40 BST 2022
User: TCL
Spectrometer: QEP01345
Trigger mode: 4
Integration Time (sec): 1.000000E0
Scans to average: 10
Electric dark correction enabled: true
Nonlinearity correction enabled: false
Boxcar width: 0
XAxis mode: Raman Shifts
Number of Pixels in Spectrum: 1044
>>>>>Begin Spectral Data<<<<<
46.04893	-0.9
50.45542	0.6
54.85868	1.2
59.25871	1
63.6555	17.3
68.04907	15.1
72.43941	19.7
76.82654	18.5
81.21044	20.4
85.59113	20.2
89.96862	21.3
94.34289	21.8
98.71396	21.3
103.08183	24.1
107.4465	21.4
111.80798	25.4
116.16626	25.9
120.52136	28.5
124.87327	27.7
129.222	31.2
133.56755	31.9
137.90993	35.6
142.24913	37.7
146.58517	43.1
150.91804	51.7
155.24774	62.2
159.57429	79.9
163.89768	103.2
168.21792	138.5
172.53501	194
176.84895	268
181.15975	384.5
185.46741	545
189.77193	747.7
194.07331	1009.9
198.37157	1307.7
202.6667	1637.9
206.9587	1952
211.24758	2265.4
215.53334	2597.9
219.81599	2961.7
224.09553	3371.4
228.37195	3804.9
232.64527	4303.2
236.91549	4754.3
241.18261	5172
245.44663	5475.9
249.70755	5688.7
253.96539	5853.9
258.22014	6006.9
262.4718	6142.9
266.72039	6253.2
270.96589	6259
275.20832	6175.6
279.44768	6109.5
283.68397	5989.7
287.91719	5921.8
292.14735	5942.9
296.37445	6083.2
300.59849	6359
304.81948	6705.3
309.03742	7051.6
313.25231	7211.9
317.46415	7168.1
321.67296	6810.9
325.87872	6410.5
330.08145	6219.5
334.28114	6199.6
338.47781	6264
342.67145	6411.9
346.86207	6628.5
351.04966	6947.8
355.23424	7258.4
359.4158	7483.8
363.59435	7556.9
367.76989	7536.3
371.94243	7478
376.11196	7393.1
380.27849	7343.3
384.44203	7290.9
388.60257	7280.5
392.76012	7344.6
396.91468	7425.6
401.06626	7583.2
405.21485	7596.4
409.36047	7427.5
413.50311	7120.6
417.64277	6835
421.77947	6673.4
425.9132	6606.3
430.04396	6592.2
434.17176	6642
438.2966	6709.4
442.41849	6840.7
446.53742	7014.2
450.6534	7128.5
454.76644	7188.8
458.87653	7183.5
462.98368	7127.3
467.08789	7089.8
471.18916	6980.5
475.2875	6837.4
479.38291	6717.6
483.4754	6614.1
487.56496	6575.8
491.6516	6534.1
495.73531	6532.4
499.81612	6563.9
503.89401	6619.7
507.96899	6662
512.04106	6772.4
516.11023	6860.6
520.1765	6913.6
524.23987	6926.6
528.30034	6919.8
532.35792	6894.5
536.41261	6828.9
540.46441	6694.3
544.51333	6654.7
548.55936	6741
552.60252	6822.7
556.64279	6938.6
560.6802	7039.7
564.71473	7145.2
568.7464	7304.7
572.7752	7277.4
576.80114	7043.9
580.82422	6842.1
584.84444	6747.1
588.86181	6727.7
592.87633	6745.7
596.888	6885.3
600.89682	7277
604.9028	8288.1
608.90594	10470.1
612.90624	12675.1
616.90371	11656.1
620.89834	8546.9
624.89015	7221.9
628.87913	7049.3
632.86528	7251.8
636.84862	7373.6
640.82913	7252.2
644.80683	6951.3
648.78172	6782.5
652.75379	6764.6
656.72306	7005.7
660.68952	7253.9
664.65319	7154.5
668.61405	6908.9
672.57211	6859.3
676.52738	6869.4
680.47986	6791.4
684.42955	6680.6
688.37646	6629.9
692.32058	6644.9
696.26192	6763.8
700.20048	6884.8
704.13626	6922.2
708.06928	6860.6
711.99952	6793.4
715.927	6795.9
719.85171	6844.4
723.77365	6858.1
727.69284	6797.8
731.60928	6762.7
735.52295	6745.4
739.43388	6776.4
743.34206	6804.6
747.24749	6815.4
751.15017	6839.5
755.05012	6896.1
758.94733	7251.4
762.8418	8129.9
766.73354	9416.8
770.62254	10414.5
774.50882	10560.5
778.39237	9966
782.27321	8977
786.15132	7966.4
790.02671	7287.7
793.89938	6981.4
797.76935	6839.2
801.6366	6765.6
805.50115	6718
809.36299	6679.2
813.22213	6669.9
817.07857	6680.1
820.93231	6674.8
824.78336	6703.5
828.63172	6721.7
832.47738	6730.8
836.32036	6715.6
840.16066	6667.4
843.99827	6651.5
847.8332	6663.2
851.66546	6689.7
855.49504	6695.1
859.32195	6703.7
863.1462	6693.7
866.96777	6696.2
870.78668	6682.9
874.60293	6717.1
878.41652	6755.2
882.22745	6805.9
886.03573	6846.5
889.84136	6859.6
893.64433	6814.1
897.44466	6801.5
901.24235	6807.7
905.0374	6779.7
908.8298	6728.8
912.61957	6688.5
916.40671	6704.4
920.19121	6723.9
923.97308	6806.9
927.75233	6904.9
931.52895	6943.1
935.30295	6873.3
939.07433	6716.3
942.84309	6609.1
946.60924	6563.8
950.37278	6566.4
954.13371	6550.2
957.89203	6559.4
961.64774	6542.1
965.40086	6539.9
969.15137	6510
972.89929	6526.3
976.64461	6528.2
980.38733	6535.6
984.12747	6539.7
987.86502	6587.6
991.59999	6628.5
995.33237	6681.3
999.06217	6775.3
1002.78939	6901.6
1006.51404	7074.4
1010.23611	7224
1013.95561	7281.1
1017.67255	7274.2
1021.38692	7196.9
1025.09872	7098.2
1028.80796	6995.4
1032.51465	6943.7
1036.21877	6964.5
1039.92035	6984.9
1043.61937	7063.9
1047.31584	7089.4
1051.00976	7110.6
1054.70114	7097.8
1058.38998	7084.6
1062.07627	7093.8
1065.76003	7180.8
1069.44126	7297.6
1073.11995	7456.7
1076.79611	7661.7
1080.46974	7832.3
1084.14085	7925.9
1087.80943	8077.6
1091.47549	8140.9
1095.13903	8116.8
1098.80005	8025.9
1102.45857	7876
1106.11456	7722.4
1109.76805	7628.5
1113.41903	7682
1117.06751	7812.3
1120.71348	8049
1124.35696	8395.3
1127.99793	8601.1
1131.63641	8444.9
1135.2724	8100.2
1138.90589	7856.3
1142.5369	7723.1
1146.16542	7718.1
1149.79145	7641.5
1153.415	7506.7
1157.03607	7434.5
1160.65467	7487.6
1164.27079	7656.4
1167.88443	7900.4
1171.49561	8315.4
1175.10432	8995.2
1178.71056	9911.8
1182.31434	10722.2
1185.91565	10932.3
1189.51451	10742.9
1193.11091	10495.3
1196.70485	10184.9
1200.29634	9964.5
1203.88538	9701.2
1207.47197	9299.4
1211.05612	8924.5
1214.63782	8648.2
1218.21708	8403.4
1221.79391	8188.2
1225.36829	8046.6
1228.94024	8008.3
1232.50976	7981.5
1236.07685	7979.3
1239.6415	8006.8
1243.20374	8027.8
1246.76355	8092.9
1250.32093	8239
1253.8759	8440
1257.42845	8706.3
1260.97859	9005.1
1264.52631	9242.1
1268.07163	9405.9
1271.61453	9482.4
1275.15503	9540.7
1278.69312	9550.7
1282.22882	9523.9
1285.76211	9644.3
1289.29301	9864.8
1292.82151	10136.5
1296.34761	10373.9
1299.87133	10789.8
1303.39266	11494.9
1306.9116	12528
1310.42815	13594.6
1313.94233	13939.2
1317.45412	13242.4
1320.96354	12239.7
1324.47058	11342.7
1327.97525	10581.9
1331.47754	10186.3
1334.97747	10075.5
1338.47502	10244.9
1341.97022	10689.1
1345.46305	11444.6
1348.95352	12523.5
1352.44163	13772.2
1355.92738	15032.2
1359.41078	16606.4
1362.89183	17964.9
1366.37053	17196.8
1369.84688	14443.9
1373.32088	11886.6
1376.79254	10473
1380.26186	9810.1
1383.72883	9438
1387.19347	9069.6
1390.65578	8766.6
1394.11575	8508
1397.57339	8309.3
1401.0287	8187.6
1404.48168	8099.3
1407.93234	8078.4
1411.38068	8151
1414.82669	8240.6
1418.27039	8278
1421.71177	8244.4
1425.15083	8160.1
1428.58758	8098.2
1432.02203	8127.7
1435.45416	8267.2
1438.88399	8308.1
1442.31151	8383.2
1445.73673	8436.7
1449.15965	8482.9
1452.58027	8463.2
1455.9986	8407.8
1459.41463	8379.6
1462.82837	8468.9
1466.23982	8648.1
1469.64898	8856
1473.05586	9013.2
1476.46045	9102.8
1479.86276	9160.9
1483.26279	9279.7
1486.66054	9524.8
1490.05602	9823.9
1493.44922	10370.3
1496.84016	11232.6
1500.22882	12545
1503.61521	14259.4
1506.99934	15902.5
1510.38121	16854.3
1513.76081	16546
1517.13816	15010.8
1520.51324	13073.3
1523.88607	11557.4
1527.25665	10652
1530.62498	10234.8
1533.99105	9987.7
1537.35488	9896.1
1540.71647	9793.5
1544.07581	9729.5
1547.4329	9626.2
1550.78776	9527.3
1554.14038	9378.6
1557.49077	9304.1
1560.83892	9333.4
1564.18484	9626.3
1567.52853	9969.3
1570.86999	10276.4
1574.20922	10420.2
1577.54624	10248.5
1580.88103	9689.9
1584.2136	9040.3
1587.54395	8642.3
1590.87208	8599.1
1594.19801	8895.1
1597.52172	9296.8
1600.84321	9494
1604.16251	9445.2
1607.47959	9299.5
1610.79447	8975.5
1614.10715	8514.9
1617.41763	8076.6
1620.7259	7755.4
1624.03199	7559.8
1627.33587	7510.3
1630.63757	7585.5
1633.93707	7818.4
1637.23439	8276.6
1640.52951	9027.3
1643.82246	10104.8
1647.11321	11306.8
1650.40179	12007.1
1653.68819	11614
1656.97241	10272
1660.25446	8814.1
1663.53433	7810.3
1666.81203	7216
1670.08756	6839.1
1673.36092	6664.6
1676.63211	6537.7
1679.90115	6426.7
1683.16801	6338.4
1686.43272	6277.2
1689.69527	6236
1692.95567	6210.4
1696.2139	6205.1
1699.46999	6157.3
1702.72392	6159.5
1705.97571	6166.2
1709.22535	6146.6
1712.47284	6154.1
1715.71819	6140.7
1718.96139	6133.9
1722.20246	6114.1
1725.44139	6072.2
1728.67818	6044.2
1731.91284	6022.4
1735.14537	5989.5
1738.37576	5954.7
1741.60403	5939.1
1744.83017	5947.2
1748.05418	5919.2
1751.27607	5889.8
1754.49584	5884.6
1757.71349	5853.1
1760.92903	5871.2
1764.14244	5842
1767.35375	5839.6
1770.56294	5807.4
1773.77002	5788.5
1776.97499	5795.8
1780.17785	5759.1
1783.37861	5760.6
1786.57727	5727.1
1789.77382	5723.7
1792.96828	5717.3
1796.16064	5709.5
1799.3509	5688.2
1802.53907	5684.6
1805.72514	5681.2
1808.90913	5653.1
1812.09102	5639.5
1815.27083	5630.3
1818.44856	5603.3
1821.6242	5593.4
1824.79776	5590.4
1827.96924	5582.4
1831.13864	5568.4
1834.30597	5560.8
1837.47122	5550.7
1840.6344	5527.1
1843.7955	5522.3
1846.95454	5520.7
1850.11151	5524.6
1853.26642	5526
1856.41926	5509.1
1859.57004	5512.3
1862.71876	5503.2
1865.86542	5513.5
1869.01003	5487.4
1872.15258	5465.1
1875.29308	5473.6
1878.43152	5466.4
1881.56792	5463.9
1884.70227	5448.3
1887.83457	5443.8
1890.96482	5444.7
1894.09304	5415.1
1897.21921	5408.9
1900.34335	5396.9
1903.46544	5406.4
1906.58551	5410.9
1909.70353	5422.7
1912.81953	5384.6
1915.93349	5384.2
1919.04543	5372.7
1922.15534	5382.8
1925.26322	5355
1928.36908	5351.4
1931.47292	5325.9
1934.57473	5308.7
1937.67453	5312.5
1940.77232	5295.9
1943.86808	5269.4
1946.96184	5246.6
1950.05358	5212.2
1953.14331	5217.8
1956.23103	5210.9
1959.31675	5169.7
1962.40046	5166.9
1965.48217	5148.6
1968.56188	5143
1971.63959	5137.7
1974.7153	5121.4
1977.78901	5106.2
1980.86073	5102.8
1983.93046	5067.6
1986.99819	5055.7
1990.06394	5050.5
1993.1277	5027.1
1996.18947	5006
1999.24925	5003.4
2002.30706	4969.8
2005.36288	4947.9
2008.41672	4957.1
2011.46859	4933.6
2014.51848	4914.5
2017.56639	4890.3
2020.61233	4863.2
2023.6563	4875
2026.6983	4863.8
2029.73833	4835.6
2032.7764	4819.5
2035.8125	4833.1
2038.84664	4799.8
2041.87881	4805.6
2044.90903	4801.4
2047.93729	4775.1
2050.96359	4768.5
2053.98794	4770.4
2057.01034	4761.1
2060.03078	4741.9
2063.04927	4734.8
2066.06582	4726.5
2069.08042	4734.6
2072.09307	4725.6
2075.10378	4731.9
2078.11255	4727.4
2081.11938	4720.2
2084.12426	4717.2
2087.12722	4705.6
2090.12824	4721
2093.12732	4714.1
2096.12447	4712.8
2099.11969	4708.3
2102.11299	4719.4
2105.10435	4723.5
2108.09379	4718
2111.08131	4713.8
2114.0669	4717.7
2117.05057	4716.7
2120.03233	4717.5
2123.01216	4715
2125.99008	4714.4
2128.96609	4735.3
2131.94018	4740.9
2134.91236	4732.6
2137.88263	4726.9
2140.851	4712.6
2143.81746	4733
2146.78201	4732.3
2149.74466	4726.8
2152.7054	4706.8
2155.66425	4708.3
2158.6212	4726.8
2161.57625	4726.2
2164.52941	4700.8
2167.48067	4709.5
2170.43004	4696.8
2173.37752	4700.5
2176.32311	4704.4
2179.26681	4701.3
2182.20863	4709.4
2185.14856	4695.6
2188.08661	4696.7
2191.02278	4698
2193.95707	4693.3
2196.88948	4672.8
2199.82001	4669.6
2202.74867	4682.7
2205.67545	4658.7
2208.60037	4662.3
2211.52341	4659
2214.44458	4645
2217.36388	4640.8
2220.28132	4597.7
2223.1969	4592.2
2226.11061	4605.2
2229.02246	4570.2
2231.93245	4578.1
2234.84058	4561.4
2237.74686	4563.9
2240.65128	4572.7
2243.55385	4576.3
2246.45456	4561.7
2249.35343	4545.8
2252.25044	4541
2255.14561	4543.4
2258.03893	4531.6
2260.93041	4550
2263.82004	4530.6
2266.70783	4503.1
2269.59378	4499
2272.4779	4482.7
2275.36017	4480
2278.24061	4456.2
2281.11922	4455.5
2283.996	4447.2
2286.87094	4431.3
2289.74405	4426.8
2292.61534	4421.5
2295.4848	4417.1
2298.35243	4414.7
2301.21824	4404.7
2304.08223	4415.3
2306.94439	4417.6
2309.80474	4422
2312.66327	4400
2315.51999	4379.5
2318.37489	4378.8
2321.22797	4374.8
2324.07925	4363.5
2326.92871	4359.8
2329.77637	4337.4
2332.62222	4330.5
2335.46626	4337.8
2338.3085	4314.5
2341.14893	4320.1
2343.98756	4325.9
2346.8244	4330.5
2349.65943	4325.4
2352.49267	4322.6
2355.32411	4335.7
2358.15376	4310.9
2360.98161	4317.2
2363.80768	4342
2366.63195	4332.1
2369.45444	4321.2
2372.27514	4310.1
2375.09405	4307.6
2377.91118	4306.9
2380.72652	4299.7
2383.54009	4276.6
2386.35187	4269.8
2389.16188	4247.7
2391.97011	4236.5
2394.77657	4223.3
2397.58125	4215.3
2400.38416	4202.8
2403.18529	4206.9
2405.98466	4205.7
2408.78226	4187.4
2411.57809	4196.4
2414.37216	4187.8
2417.16446	4187.1
2419.955	4175.5
2422.74378	4164.6
2425.5308	4177.8
2428.31606	4165.6
2431.09956	4169.7
2433.88131	4147.8
2436.6613	4154.1
2439.43954	4162.7
2442.21603	4159.8
2444.99077	4141.3
2447.76377	4153.8
2450.53501	4154.2
2453.30451	4148.7
2456.07226	4137.6
2458.83827	4134.5
2461.60254	4123.6
2464.36507	4112.2
2467.12586	4127.2
2469.88492	4114.5
2472.64224	4113.7
2475.39782	4116.5
2478.15167	4121.1
2480.90379	4119.1
2483.65417	4121.2
2486.40283	4115.5
2489.14976	4124.3
2491.89497	4129.1
2494.63845	4137.1
2497.3802	4114.7
2500.12024	4105.7
2502.85855	4092.2
2505.59514	4084
2508.33002	4079.7
2511.06318	4057.8
2513.79462	4049.6
2516.52435	4041.9
2519.25237	4042.8
2521.97867	4032
2524.70327	4029
2527.42616	4008.5
2530.14734	3997.4
2532.86681	4005.2
2535.58458	3993.8
2538.30065	4004.5
2541.01501	4000.7
2543.72768	4006.6
2546.43864	3992
2549.14791	3989.4
2551.85548	3983.2
2554.56136	4002.8
2557.26554	3983.3
2559.96803	3971.5
2562.66883	3954
2565.36794	3969.6
2568.06536	3944.2
2570.7611	3918.2
2573.45514	3908.7
2576.14751	3927.4
2578.83819	3905
2581.52719	3896.8
2584.21451	3890.2
2586.90015	3878
2589.58411	3855.7
2592.2664	3853.5
2594.94701	3870
2597.62594	3858.6
2600.30321	3846.1
2602.9788	3850.1
2605.65273	3837.6
2608.32498	3846.7
2610.99557	3838.6
2613.66449	3810.2
2616.33175	3820.7
2618.99734	3824
2621.66128	3804
2624.32355	3812.5
2626.98416	3791.9
2629.64311	3778
2632.30041	3779.6
2634.95605	3772.3
2637.61004	3754.8
2640.26238	3747
2642.91306	3753
2645.56209	3745.6
2648.20948	3748.6
2650.85521	3746.2
2653.4993	3750.3
2656.14175	3748.7
2658.78255	3740.6
2661.42171	3742.3
2664.05923	3759.5
2666.6951	3767.9
2669.32934	3757.9
2671.96194	3756.4
2674.59291	3746.4
2677.22224	3740.9
2679.84993	3768
2682.476	3753.2
2685.10043	3739.9
2687.72324	3725.7
2690.34441	3740.6
2692.96396	3728.2
2695.58188	3728.1
2698.19818	3718
2700.81285	3734.6
2703.4259	3732.7
2706.03733	3729.4
2708.64714	3711.7
2711.25533	3711.9
2713.86191	3723.9
2716.46687	3721.9
2719.07021	3715.4
2721.67194	3732
2724.27206	3722.7
2726.87057	3705.9
2729.46747	3715.6
2732.06276	3716.7
2734.65644	3701.1
2737.24852	3704.7
2739.83899	3701.8
2742.42786	3694.9
2745.01513	3702.4
2747.60079	3690.3
2750.18486	3688.8
2752.76733	3681.7
2755.3482	3674.7
2757.92747	3659.2
2760.50515	3643.3
2763.08123	3638.5
2765.65573	3628.4
2768.22863	3629.1
2770.79994	3609
2773.36967	3623.2
2775.9378	3609.6
2778.50435	3605.2
2781.06932	3606.4
2783.6327	3608.3
2786.1945	3593.1
2788.75471	3576.4
2791.31335	3579.3
2793.87041	3574.5
2796.42589	3562
2798.97979	3570.8
2801.53212	3563.3
2804.08288	3563.4
2806.63206	3548.2
2809.17967	3539
2811.72571	3549.9
2814.27018	3547.3
2816.81308	3540.4
2819.35442	3507.7
2821.89419	3497.3
2824.43239	3509.9
2826.96904	3498.4
2829.50412	3493.2
2832.03763	3481.3
2834.56959	3477.2
2837.1	3468.6
2839.62884	3446.2
2842.15613	3448.2
2844.68186	3465.2
2847.20604	3460.6
2849.72867	3452.3
2852.24974	3440
2854.76927	3412
2857.28724	3430.8
2859.80367	3421.4
2862.31855	3408.4
2864.83189	3406.9
2867.34368	3412.1
2869.85393	3412
2872.36264	3417.1
2874.8698	3406.5
2877.37543	3400
2879.87952	3388.9
2882.38207	3399
2884.88308	3383.8
2887.38256	3383.5
2889.88051	3381.4
2892.37692	3377
2894.8718	3356.4
2897.36515	3373.3
2899.85698	3361.1
2902.34727	3374.5
2904.83604	3372.4
2907.32328	3376.4
2909.809	3371.6
2912.29319	3377.3
2914.77587	3389.1
2917.25702	3376.9
2919.73665	3387.5
2922.21476	3388.4
2924.69136	3373.7
2927.16644	3370.5
2929.64	3358.2
2932.11205	3352.8
2934.58258	3328.2
2937.05161	3339.3
2939.51912	3340.3
2941.98513	3325.4
2944.44962	3316.5
2946.91261	3317.9
2949.37409	3319.1
2951.83407	3327.2
2954.29254	3321.2
2956.74951	3305.2
2959.20498	3297.2
2961.65895	3294
2964.11142	3291.5
2966.56239	3296
2969.01186	3288.8
2971.45984	3297.7
2973.90632	3278.8
2976.35131	3277.2
2978.7948	3258.6
2981.23681	3252.8
2983.67732	3248.3
2986.11635	3251.2
2988.55388	3255.3
2990.98993	3238.7
2993.4245	3248.5
2995.85758	3240.5
2998.28917	3223.3
3000.71928	3209.6
3003.14791	3213
3005.57506	3205
3008.00073	3180.7
3010.42493	3171.5
3012.84764	3166.8
3015.26888	3175.9
3017.68865	3147.7
3020.10694	3160.9
3022.52376	3151
3024.9391	3142.7
3027.35298	3130.6
3029.76539	3120.2
3032.17632	3118.5
3034.5858	3109.5
3036.9938	3097.7
3039.40034	3075.4
3041.80542	3084.4
3044.20903	3065.7
3046.61118	3080
3049.01187	3039.6
3051.4111	3053.2
3053.80888	3052.9
3056.20519	3044
3058.60005	3023.6
3060.99345	3022.4
3063.3854	3029.4
3065.7759	3020.7
3068.16494	3014.7
3070.55254	3006.9
3072.93868	3001.3
3075.32338	2995.6
3077.70662	2969.7
3080.08842	2972
3082.46878	2951.2
3084.84769	2956.2
3087.22515	2942.7
3089.60118	2941.9
3091.97576	2945.9
3094.3489	2946.4
3096.72061	2938
3099.09087	2938.9
3101.4597	2921.5
3103.82709	2932.6
3106.19305	2924.9
3108.55757	2908.1
3110.92066	2904.5
3113.28232	2915.3
3115.64255	2901.9
3118.00134	2885.7
3120.35871	2886.5
3122.71466	2873.5
3125.06917	2881.5
3127.42226	2863.3
3129.77393	2856.9
3132.12417	2853.8
3134.47299	2852.2
3136.82039	2836.5
3139.16636	2838.5
3141.51092	2846.5
3143.85406	2850.3
3146.19579	2832.9
3148.53609	2849.6
3150.87499	2834.9
3153.21246	2837
3155.54853	2840.7
3157.88318	2832.9
3160.21642	2837.8
3162.54826	2829
3164.87868	2821.3
3167.2077	2822.6
3169.5353	2799.2
3171.86151	2817.9
3174.18631	2807.5
3176.5097	2806
3178.83169	2799.6
3181.15228	2788.7
3183.47147	2778.2
3185.78926	2781.4
3188.10565	2774
3190.42065	2757.6
3192.73424	2760.5
3195.04645	2731.4
3197.35725	2747.2
3199.66667	2752
3201.97469	2740.5
3204.28132	2738.8
3206.58656	2745.4
3208.8904	2752.6
3211.19287	2750
3213.49394	2748.5
3215.79363	2756.3
3218.09193	2733.8
3220.38884	2738.8
3222.68438	2741.7
3224.97853	2717.9
3227.2713	2728.1
3229.56269	2733.5
3231.8527	2717.3
3234.14133	2717.6
3236.42858	2699
3238.71446	2700.9
3240.99896	2688.3
3243.28209	2689.4
3245.56384	2679.4
3247.84423	2684.3
3250.12324	2676.1
3252.40088	2681.6
3254.67715	2682.1
3256.95205	2655.8
3259.22558	2660.7
3261.49775	2654.5
3263.76855	2654.4
3266.03799	2667.3
3268.30606	2659.7
3270.57277	2657.1
3272.83812	2653
3275.10211	2637.1
3277.36474	2638.9
3279.62601	2626
3281.88593	2625.2
3284.14448	2616
3286.40168	2622.6
3288.65753	2614.8
3290.91202	2605.3
3293.16516	2602
3295.41695	2604.9
3297.66738	2584.6
3299.91647	2572.3
3302.16421	2548.3
3304.4106	2542.8
3306.65564	2525.8
3308.89933	2505.1
3311.14169	2480.5
3313.38269	2463.6
3315.62236	2441.3
3317.86068	2430.3
3320.09766	2402.8
3322.3333	2384.3
3324.5676	2373.1
3326.80056	2342.8
3329.03219	2330.3
3331.26248	1.9
3333.49143	-2.8
3335.71905	-1
