Data from AgNPs_UA_20uM_CRN_500uM_SU_RamanShift__5__13-37-20-292.txt Node

Date: Thu Aug 04 13:37:20 BST 2022
User: TCL
Spectrometer: QEP01345
Trigger mode: 4
Integration Time (sec): 1.000000E0
Scans to average: 10
Electric dark correction enabled: true
Nonlinearity correction enabled: false
Boxcar width: 0
XAxis mode: Raman Shifts
Number of Pixels in Spectrum: 1044
>>>>>Begin Spectral Data<<<<<
46.04893	-1.7
50.45542	0.3
54.85868	1.2
59.25871	-0.3
63.6555	16
68.04907	15.1
72.43941	20.4
76.82654	19.5
81.21044	19.2
85.59113	19.7
89.96862	20.2
94.34289	19.9
98.71396	21.5
103.08183	22
107.4465	20.8
111.80798	23.5
116.16626	26.1
120.52136	27.1
124.87327	24
129.222	31.1
133.56755	30.2
137.90993	34
142.24913	38
146.58517	43.4
150.91804	50.8
155.24774	62.2
159.57429	78.3
163.89768	101.4
168.21792	136.3
172.53501	186.8
176.84895	259.3
181.15975	371.6
185.46741	530.9
189.77193	733.2
194.07331	990.1
198.37157	1274.4
202.6667	1582.1
206.9587	1890
211.24758	2206.9
215.53334	2525.1
219.81599	2866.5
224.09553	3265.4
228.37195	3688.3
232.64527	4160.5
236.91549	4604.6
241.18261	4988.9
245.44663	5276.7
249.70755	5493.1
253.96539	5655.1
258.22014	5825.1
262.4718	5942.7
266.72039	6053.2
270.96589	6082.7
275.20832	6010.6
279.44768	5927.9
283.68397	5821.3
287.91719	5766.4
292.14735	5798.5
296.37445	5937.3
300.59849	6181.7
304.81948	6529.6
309.03742	6833.7
313.25231	7025.3
317.46415	6911.8
321.67296	6599.3
325.87872	6209.7
330.08145	6015.2
334.28114	6009.9
338.47781	6062.4
342.67145	6222.6
346.86207	6427.1
351.04966	6735.3
355.23424	7029.4
359.4158	7248.7
363.59435	7333
367.76989	7311.8
371.94243	7291
376.11196	7214.8
380.27849	7145
384.44203	7093.4
388.60257	7086.9
392.76012	7137.5
396.91468	7260.1
401.06626	7380.6
405.21485	7409.5
409.36047	7248
413.50311	6937.5
417.64277	6644.5
421.77947	6473.2
425.9132	6402.9
430.04396	6434.9
434.17176	6457.4
438.2966	6531.2
442.41849	6665.1
446.53742	6823.6
450.6534	6950.3
454.76644	7026.7
458.87653	6994.5
462.98368	6980.9
467.08789	6924.7
471.18916	6802
475.2875	6670.4
479.38291	6540.9
483.4754	6458.1
487.56496	6390.4
491.6516	6350.2
495.73531	6357.4
499.81612	6389.7
503.89401	6424.1
507.96899	6491
512.04106	6562.1
516.11023	6673.7
520.1765	6733
524.23987	6742.8
528.30034	6729.3
532.35792	6705.3
536.41261	6629.8
540.46441	6526.7
544.51333	6476.4
548.55936	6540.7
552.60252	6663.7
556.64279	6777.5
560.6802	6875.8
564.71473	6963.5
568.7464	7106.8
572.7752	7098.6
576.80114	6848.5
580.82422	6649.1
584.84444	6564.1
588.86181	6551.7
592.87633	6581.1
596.888	6729.1
600.89682	7068.2
604.9028	8079
608.90594	10212.9
612.90624	12427.4
616.90371	11389.6
620.89834	8339.9
624.89015	7045.1
628.87913	6869.2
632.86528	7035
636.84862	7188.3
640.82913	7059.9
644.80683	6770.4
648.78172	6585.3
652.75379	6608.6
656.72306	6836.2
660.68952	7080.6
664.65319	6965.4
668.61405	6696.4
672.57211	6660.3
676.52738	6680.5
680.47986	6611.1
684.42955	6461.5
688.37646	6432.4
692.32058	6476.7
696.26192	6561.9
700.20048	6686
704.13626	6731.9
708.06928	6679.9
711.99952	6618.9
715.927	6623.2
719.85171	6657.8
723.77365	6673.7
727.69284	6626.2
731.60928	6571.8
735.52295	6563.2
739.43388	6596.2
743.34206	6611.6
747.24749	6638.5
751.15017	6634.7
755.05012	6733.8
758.94733	7061.6
762.8418	7905.2
766.73354	9171.3
770.62254	10134.2
774.50882	10298.8
778.39237	9700.5
782.27321	8743
786.15132	7715.6
790.02671	7078.6
793.89938	6792.2
797.76935	6635.8
801.6366	6560.8
805.50115	6511.1
809.36299	6505.6
813.22213	6481.7
817.07857	6493.4
820.93231	6485.8
824.78336	6516.3
828.63172	6544.4
832.47738	6541.6
836.32036	6520.8
840.16066	6487.6
843.99827	6488.2
847.8332	6475
851.66546	6505.1
855.49504	6510
859.32195	6519.8
863.1462	6508.3
866.96777	6497.1
870.78668	6494.8
874.60293	6512.6
878.41652	6562.4
882.22745	6613.1
886.03573	6657.5
889.84136	6666.9
893.64433	6649.4
897.44466	6612.1
901.24235	6609.8
905.0374	6576.5
908.8298	6535.9
912.61957	6522.5
916.40671	6514.6
920.19121	6540.8
923.97308	6619.4
927.75233	6711.3
931.52895	6762.2
935.30295	6701.8
939.07433	6550.6
942.84309	6442.6
946.60924	6379.1
950.37278	6369.5
954.13371	6359.4
957.89203	6382.4
961.64774	6377.2
965.40086	6352
969.15137	6332.2
972.89929	6345.9
976.64461	6351.5
980.38733	6348.5
984.12747	6357.6
987.86502	6398.9
991.59999	6460.9
995.33237	6508.5
999.06217	6625
1002.78939	6773.7
1006.51404	6943.4
1010.23611	7083.8
1013.95561	7144.4
1017.67255	7129.4
1021.38692	7073.9
1025.09872	6953.1
1028.80796	6844.9
1032.51465	6805.7
1036.21877	6830.3
1039.92035	6876.4
1043.61937	6923.3
1047.31584	6959.5
1051.00976	6940
1054.70114	6959.7
1058.38998	6940
1062.07627	6954
1065.76003	7042.3
1069.44126	7129.4
1073.11995	7324.5
1076.79611	7508.3
1080.46974	7653.7
1084.14085	7786.1
1087.80943	7909.2
1091.47549	8007.4
1095.13903	7995.4
1098.80005	7890
1102.45857	7727.8
1106.11456	7531.3
1109.76805	7440.5
1113.41903	7473.1
1117.06751	7638.3
1120.71348	7873.8
1124.35696	8191.2
1127.99793	8421.2
1131.63641	8249
1135.2724	7919
1138.90589	7679.5
1142.5369	7547.2
1146.16542	7557.7
1149.79145	7513.9
1153.415	7379.1
1157.03607	7292.1
1160.65467	7331.4
1164.27079	7472.6
1167.88443	7738.8
1171.49561	8118.1
1175.10432	8783.4
1178.71056	9697.2
1182.31434	10488.4
1185.91565	10719.5
1189.51451	10570.6
1193.11091	10268.4
1196.70485	9995
1200.29634	9764
1203.88538	9505.6
1207.47197	9125.6
1211.05612	8800.4
1214.63782	8533
1218.21708	8293.6
1221.79391	8088.4
1225.36829	7934.3
1228.94024	7871.6
1232.50976	7842.7
1236.07685	7840.7
1239.6415	7856.1
1243.20374	7876.7
1246.76355	7953.8
1250.32093	8085.6
1253.8759	8345.3
1257.42845	8633.6
1260.97859	8944.1
1264.52631	9162.3
1268.07163	9306.2
1271.61453	9390.3
1275.15503	9445.3
1278.69312	9455.6
1282.22882	9453.5
1285.76211	9554.8
1289.29301	9788.1
1292.82151	10055.9
1296.34761	10307.3
1299.87133	10704.5
1303.39266	11403.3
1306.9116	12465.6
1310.42815	13509.6
1313.94233	13841.3
1317.45412	13190.3
1320.96354	12231.2
1324.47058	11320.1
1327.97525	10538.8
1331.47754	10106
1334.97747	10017.3
1338.47502	10186
1341.97022	10651.4
1345.46305	11391
1348.95352	12415.4
1352.44163	13599.4
1355.92738	14846.8
1359.41078	16394.3
1362.89183	17647.4
1366.37053	16823.3
1369.84688	14094.5
1373.32088	11609.6
1376.79254	10249.6
1380.26186	9622.9
1383.72883	9261.4
1387.19347	8936.5
1390.65578	8626.2
1394.11575	8383.3
1397.57339	8171.1
1401.0287	8075.6
1404.48168	7986.4
1407.93234	7966.1
1411.38068	8080.7
1414.82669	8152.6
1418.27039	8198
1421.71177	8154.7
1425.15083	8100.6
1428.58758	8040.6
1432.02203	8119.4
1435.45416	8197.7
1438.88399	8285.8
1442.31151	8364.9
1445.73673	8404.8
1449.15965	8472.3
1452.58027	8450.4
1455.9986	8359.8
1459.41463	8359.7
1462.82837	8455.5
1466.23982	8602.1
1469.64898	8812.3
1473.05586	8963.1
1476.46045	9000.8
1479.86276	9065.3
1483.26279	9189
1486.66054	9373.3
1490.05602	9705.8
1493.44922	10206.4
1496.84016	11069.8
1500.22882	12366.7
1503.61521	14052.6
1506.99934	15686.4
1510.38121	16611.7
1513.76081	16335.7
1517.13816	14852
1520.51324	12968.1
1523.88607	11433.5
1527.25665	10548.1
1530.62498	10093.3
1533.99105	9858
1537.35488	9774.2
1540.71647	9684.1
1544.07581	9635.1
1547.4329	9555.7
1550.78776	9428.8
1554.14038	9291.3
1557.49077	9207.9
1560.83892	9298.8
1564.18484	9494.1
1567.52853	9841.1
1570.86999	10130.6
1574.20922	10238.3
1577.54624	10046.2
1580.88103	9507.9
1584.2136	8916.6
1587.54395	8563.3
1590.87208	8534
1594.19801	8827.9
1597.52172	9243.1
1600.84321	9490.6
1604.16251	9471.6
1607.47959	9299.1
1610.79447	8991.4
1614.10715	8500.5
1617.41763	8013.1
1620.7259	7679.6
1624.03199	7471
1627.33587	7408.8
1630.63757	7505.8
1633.93707	7772
1637.23439	8230.6
1640.52951	8989.2
1643.82246	10104.1
1647.11321	11304.1
1650.40179	11951.5
1653.68819	11495.6
1656.97241	10088.2
1660.25446	8655.9
1663.53433	7653.8
1666.81203	7049.6
1670.08756	6712.2
1673.36092	6513.7
1676.63211	6379.8
1679.90115	6269.4
1683.16801	6191.2
1686.43272	6148.2
1689.69527	6111.9
1692.95567	6069.7
1696.2139	6065.9
1699.46999	6005
1702.72392	6025.5
1705.97571	6036.3
1709.22535	6014.1
1712.47284	6029.1
1715.71819	6002.4
1718.96139	6006.9
1722.20246	5991.2
1725.44139	5962.8
1728.67818	5928.6
1731.91284	5891
1735.14537	5847.8
1738.37576	5823.6
1741.60403	5819.2
1744.83017	5804.9
1748.05418	5786.3
1751.27607	5769.7
1754.49584	5752.1
1757.71349	5742.6
1760.92903	5726.3
1764.14244	5717.2
1767.35375	5703.9
1770.56294	5701.5
1773.77002	5669.4
1776.97499	5687.2
1780.17785	5655.7
1783.37861	5637.8
1786.57727	5612.5
1789.77382	5589
1792.96828	5586.3
1796.16064	5594.3
1799.3509	5555.3
1802.53907	5572.4
1805.72514	5559.6
1808.90913	5544.3
1812.09102	5527.2
1815.27083	5524.3
1818.44856	5495.2
1821.6242	5476.5
1824.79776	5488.5
1827.96924	5475.8
1831.13864	5442.5
1834.30597	5467.8
1837.47122	5454.9
1840.6344	5425.7
1843.7955	5417.7
1846.95454	5413.9
1850.11151	5407
1853.26642	5406.8
1856.41926	5409.4
1859.57004	5411.4
1862.71876	5390.3
1865.86542	5390.5
1869.01003	5376.1
1872.15258	5370.3
1875.29308	5376.2
1878.43152	5365.1
1881.56792	5351.4
1884.70227	5336.1
1887.83457	5336
1890.96482	5336.8
1894.09304	5325.8
1897.21921	5316.1
1900.34335	5313.6
1903.46544	5320.1
1906.58551	5321.3
1909.70353	5301.9
1912.81953	5289.1
1915.93349	5288.2
1919.04543	5270.7
1922.15534	5258.7
1925.26322	5247.4
1928.36908	5248.7
1931.47292	5228.9
1934.57473	5220
1937.67453	5208.9
1940.77232	5192.3
1943.86808	5178.8
1946.96184	5147.4
1950.05358	5149.6
1953.14331	5135.2
1956.23103	5091.5
1959.31675	5087.8
1962.40046	5078.5
1965.48217	5061.2
1968.56188	5059.5
1971.63959	5057.2
1974.7153	5031.7
1977.78901	5028.1
1980.86073	4992.2
1983.93046	4986.9
1986.99819	4966.6
1990.06394	4936.7
1993.1277	4920.2
1996.18947	4927.8
1999.24925	4904.4
2002.30706	4882.2
2005.36288	4868.7
2008.41672	4846.2
2011.46859	4845.3
2014.51848	4824.8
2017.56639	4820.2
2020.61233	4799.2
2023.6563	4786.6
2026.6983	4769.6
2029.73833	4763.6
2032.7764	4746.6
2035.8125	4724.8
2038.84664	4721.8
2041.87881	4719.2
2044.90903	4706.1
2047.93729	4699.1
2050.96359	4695.6
2053.98794	4689.4
2057.01034	4673.6
2060.03078	4665.1
2063.04927	4660.5
2066.06582	4664.5
2069.08042	4652.4
2072.09307	4658.2
2075.10378	4620.2
2078.11255	4643.6
2081.11938	4654
2084.12426	4639
2087.12722	4635.1
2090.12824	4634.7
2093.12732	4649.7
2096.12447	4645.5
2099.11969	4651.8
2102.11299	4632.2
2105.10435	4647.2
2108.09379	4647.9
2111.08131	4628.3
2114.0669	4635.5
2117.05057	4644.3
2120.03233	4652.4
2123.01216	4648.4
2125.99008	4654.9
2128.96609	4663.7
2131.94018	4679.7
2134.91236	4660.5
2137.88263	4674.4
2140.851	4660.8
2143.81746	4653.2
2146.78201	4658.3
2149.74466	4651.7
2152.7054	4660.7
2155.66425	4650.3
2158.6212	4655.5
2161.57625	4649.7
2164.52941	4640.8
2167.48067	4635.5
2170.43004	4628.5
2173.37752	4627.2
2176.32311	4651
2179.26681	4627.9
2182.20863	4630.1
2185.14856	4624.1
2188.08661	4642.2
2191.02278	4633.4
2193.95707	4631.1
2196.88948	4625.6
2199.82001	4612.8
2202.74867	4611.8
2205.67545	4617.1
2208.60037	4612.3
2211.52341	4595.4
2214.44458	4588.9
2217.36388	4577.2
2220.28132	4570.3
2223.1969	4547.9
2226.11061	4542.4
2229.02246	4536
2231.93245	4524.3
2234.84058	4505.2
2237.74686	4501.5
2240.65128	4516.4
2243.55385	4503
2246.45456	4499.3
2249.35343	4486.4
2252.25044	4471.4
2255.14561	4502.7
2258.03893	4481.4
2260.93041	4468.9
2263.82004	4473.7
2266.70783	4469.5
2269.59378	4447
2272.4779	4435.1
2275.36017	4429.6
2278.24061	4414
2281.11922	4403.5
2283.996	4391.6
2286.87094	4380.4
2289.74405	4379.7
2292.61534	4374.6
2295.4848	4373.2
2298.35243	4352.8
2301.21824	4354.9
2304.08223	4367.1
2306.94439	4378.4
2309.80474	4369.1
2312.66327	4357.8
2315.51999	4333.4
2318.37489	4335.7
2321.22797	4335.4
2324.07925	4310.4
2326.92871	4303.8
2329.77637	4311.9
2332.62222	4302.8
2335.46626	4293.3
2338.3085	4292.4
2341.14893	4290.5
2343.98756	4296
2346.8244	4287.7
2349.65943	4286.6
2352.49267	4298.2
2355.32411	4277
2358.15376	4298.2
2360.98161	4295.8
2363.80768	4291.1
2366.63195	4304.8
2369.45444	4291.5
2372.27514	4275.6
2375.09405	4280.6
2377.91118	4289.3
2380.72652	4259.5
2383.54009	4248.2
2386.35187	4233.3
2389.16188	4223.2
2391.97011	4207.7
2394.77657	4193.9
2397.58125	4187.8
2400.38416	4177.1
2403.18529	4177.1
2405.98466	4176.5
2408.78226	4168.7
2411.57809	4155.5
2414.37216	4149.8
2417.16446	4163
2419.955	4156.2
2422.74378	4135.3
2425.5308	4147.7
2428.31606	4134.9
2431.09956	4139.9
2433.88131	4136
2436.6613	4136
2439.43954	4135.5
2442.21603	4136.2
2444.99077	4114.1
2447.76377	4117.4
2450.53501	4118.2
2453.30451	4117
2456.07226	4109.8
2458.83827	4104
2461.60254	4110.7
2464.36507	4107.3
2467.12586	4094.3
2469.88492	4110.8
2472.64224	4107.5
2475.39782	4101.2
2478.15167	4095.2
2480.90379	4093
2483.65417	4098.2
2486.40283	4100.9
2489.14976	4105.1
2491.89497	4119.8
2494.63845	4100.2
2497.3802	4106
2500.12024	4080.7
2502.85855	4072.9
2505.59514	4056.6
2508.33002	4052.6
2511.06318	4042.2
2513.79462	4025.6
2516.52435	4019.3
2519.25237	4030.5
2521.97867	4021.1
2524.70327	4005.6
2527.42616	3997.3
2530.14734	3992.3
2532.86681	3975.4
2535.58458	3999.4
2538.30065	3988
2541.01501	3997.5
2543.72768	3985
2546.43864	3982.3
2549.14791	3995.8
2551.85548	3995.2
2554.56136	3984.6
2557.26554	3977
2559.96803	3976.4
2562.66883	3960.3
2565.36794	3950.4
2568.06536	3938.4
2570.7611	3932.3
2573.45514	3912.5
2576.14751	3918.1
2578.83819	3902.4
2581.52719	3884
2584.21451	3886
2586.90015	3852.4
2589.58411	3861.8
2592.2664	3865
2594.94701	3858.9
2597.62594	3868
2600.30321	3849.8
2602.9788	3844.2
2605.65273	3831.9
2608.32498	3843.1
2610.99557	3836.5
2613.66449	3832.7
2616.33175	3832.7
2618.99734	3828.2
2621.66128	3805.5
2624.32355	3798.4
2626.98416	3810.3
2629.64311	3791.5
2632.30041	3783.4
2634.95605	3781.8
2637.61004	3767.5
2640.26238	3769.1
2642.91306	3759.8
2645.56209	3756.9
2648.20948	3737.4
2650.85521	3751.5
2653.4993	3754.4
2656.14175	3756.9
2658.78255	3757.8
2661.42171	3758.8
2664.05923	3768.3
2666.6951	3771.3
2669.32934	3763.1
2671.96194	3771.3
2674.59291	3774.7
2677.22224	3755.4
2679.84993	3777.5
2682.476	3763.1
2685.10043	3756.6
2687.72324	3758.4
2690.34441	3744.1
2692.96396	3750.8
2695.58188	3747
2698.19818	3742.5
2700.81285	3747.1
2703.4259	3746.1
2706.03733	3749.5
2708.64714	3742.3
2711.25533	3731.5
2713.86191	3725.4
2716.46687	3732.2
2719.07021	3735.1
2721.67194	3729.5
2724.27206	3740.8
2726.87057	3731.4
2729.46747	3721.6
2732.06276	3731.9
2734.65644	3725.4
2737.24852	3716.2
2739.83899	3710.6
2742.42786	3728.3
2745.01513	3710.1
2747.60079	3710.7
2750.18486	3694.7
2752.76733	3689.2
2755.3482	3675.4
2757.92747	3674.7
2760.50515	3664
2763.08123	3664.1
2765.65573	3647.2
2768.22863	3638.2
2770.79994	3642.9
2773.36967	3636.2
2775.9378	3636
2778.50435	3637.1
2781.06932	3625.5
2783.6327	3629.1
2786.1945	3618.1
2788.75471	3605.1
2791.31335	3605.2
2793.87041	3587.7
2796.42589	3595.8
2798.97979	3579.7
2801.53212	3582.9
2804.08288	3586.1
2806.63206	3592.1
2809.17967	3573.5
2811.72571	3567
2814.27018	3568.7
2816.81308	3559.9
2819.35442	3542.2
2821.89419	3525.7
2824.43239	3542.5
2826.96904	3511.5
2829.50412	3523.3
2832.03763	3510.9
2834.56959	3494.5
2837.1	3494.8
2839.62884	3484.7
2842.15613	3488.7
2844.68186	3493.1
2847.20604	3481.9
2849.72867	3465.4
2852.24974	3467.7
2854.76927	3455.2
2857.28724	3452.2
2859.80367	3449.7
2862.31855	3445.4
2864.83189	3463.7
2867.34368	3451.8
2869.85393	3438.8
2872.36264	3449.5
2874.8698	3440.2
2877.37543	3408.4
2879.87952	3417.3
2882.38207	3422
2884.88308	3419.3
2887.38256	3420.8
2889.88051	3412.4
2892.37692	3414.1
2894.8718	3395.6
2897.36515	3406.4
2899.85698	3404.2
2902.34727	3396.6
2904.83604	3400.8
2907.32328	3406.4
2909.809	3425.5
2912.29319	3408.8
2914.77587	3410.9
2917.25702	3405.4
2919.73665	3413.1
2922.21476	3409.8
2924.69136	3409.8
2927.16644	3401.9
2929.64	3394.2
2932.11205	3380.1
2934.58258	3365.5
2937.05161	3370.2
2939.51912	3376.3
2941.98513	3361.8
2944.44962	3363.9
2946.91261	3346.2
2949.37409	3356.2
2951.83407	3360.3
2954.29254	3350.5
2956.74951	3345.5
2959.20498	3330.7
2961.65895	3326
2964.11142	3314
2966.56239	3334.4
2969.01186	3323.8
2971.45984	3323.3
2973.90632	3315
2976.35131	3317.1
2978.7948	3293
2981.23681	3300.7
2983.67732	3288.9
2986.11635	3287.6
2988.55388	3289.6
2990.98993	3281.9
2993.4245	3268
2995.85758	3268.8
2998.28917	3269
3000.71928	3244.2
3003.14791	3246.6
3005.57506	3233.1
3008.00073	3226.4
3010.42493	3211.8
3012.84764	3203.3
3015.26888	3203.4
3017.68865	3188.6
3020.10694	3204.5
3022.52376	3188.6
3024.9391	3160.8
3027.35298	3165.2
3029.76539	3151.2
3032.17632	3139.3
3034.5858	3143.5
3036.9938	3138.3
3039.40034	3122.9
3041.80542	3116.1
3044.20903	3126.8
3046.61118	3112.8
3049.01187	3102.1
3051.4111	3100
3053.80888	3103.7
3056.20519	3088.7
3058.60005	3075.6
3060.99345	3074.9
3063.3854	3071
3065.7759	3061
3068.16494	3064.1
3070.55254	3055.6
3072.93868	3036.9
3075.32338	3016.4
3077.70662	3012.5
3080.08842	3005.9
3082.46878	2997.9
3084.84769	2974.4
3087.22515	2972.5
3089.60118	2970.7
3091.97576	2998.3
3094.3489	2983.4
3096.72061	2977.6
3099.09087	2981.7
3101.4597	2973.2
3103.82709	2966.2
3106.19305	2958.2
3108.55757	2961.8
3110.92066	2946.9
3113.28232	2944.8
3115.64255	2934.8
3118.00134	2932.3
3120.35871	2920.9
3122.71466	2916.2
3125.06917	2925.4
3127.42226	2908
3129.77393	2895.9
3132.12417	2896.2
3134.47299	2891.8
3136.82039	2885.9
3139.16636	2875.2
3141.51092	2872.5
3143.85406	2888.9
3146.19579	2879.6
3148.53609	2890.4
3150.87499	2876
3153.21246	2882.7
3155.54853	2881
3157.88318	2881
3160.21642	2871.9
3162.54826	2876.7
3164.87868	2858.5
3167.2077	2854
3169.5353	2852.2
3171.86151	2849.1
3174.18631	2860.7
3176.5097	2841.7
3178.83169	2819.5
3181.15228	2828.8
3183.47147	2813.4
3185.78926	2823.2
3188.10565	2794.9
3190.42065	2795
3192.73424	2797.1
3195.04645	2787.5
3197.35725	2790.7
3199.66667	2782.5
3201.97469	2785.2
3204.28132	2777
3206.58656	2785.7
3208.8904	2781.1
3211.19287	2792
3213.49394	2796.3
3215.79363	2794.5
3218.09193	2790.3
3220.38884	2785.6
3222.68438	2785.1
3224.97853	2767.8
3227.2713	2776.6
3229.56269	2767.9
3231.8527	2768.1
3234.14133	2763.3
3236.42858	2756.7
3238.71446	2736.5
3240.99896	2727.6
3243.28209	2741.2
3245.56384	2737.2
3247.84423	2724.3
3250.12324	2734.8
3252.40088	2719.6
3254.67715	2721.8
3256.95205	2703.4
3259.22558	2700.6
3261.49775	2698.3
3263.76855	2705.3
3266.03799	2709.4
3268.30606	2704.8
3270.57277	2707.3
3272.83812	2686.8
3275.10211	2685.6
3277.36474	2687.4
3279.62601	2676.7
3281.88593	2660.7
3284.14448	2661.4
3286.40168	2660.9
3288.65753	2653.5
3290.91202	2656
3293.16516	2638.5
3295.41695	2638.8
3297.66738	2631.9
3299.91647	2616.2
3302.16421	2599.4
3304.4106	2592.2
3306.65564	2565.4
3308.89933	2544.6
3311.14169	2527
3313.38269	2514.7
3315.62236	2488.4
3317.86068	2475.6
3320.09766	2466.1
3322.3333	2440.3
3324.5676	2413.2
3326.80056	2394.7
3329.03219	2370.2
3331.26248	2.7
3333.49143	0.1
3335.71905	-1.4
