Data from AgNPs_UA_5uM_CRN_500uM_SU_RamanShift__306__12-20-23-201.txt Node

Date: Thu Aug 04 12:20:23 BST 2022
User: TCL
Spectrometer: QEP01345
Trigger mode: 4
Integration Time (sec): 1.000000E0
Scans to average: 10
Electric dark correction enabled: true
Nonlinearity correction enabled: false
Boxcar width: 0
XAxis mode: Raman Shifts
Number of Pixels in Spectrum: 1044
>>>>>Begin Spectral Data<<<<<
46.04893	0.2875
50.45542	-0.1125
54.85868	-0.9125
59.25871	-0.8125
63.6555	-74.8125
68.04907	-56.5125
72.43941	-90.5125
76.82654	-76.5125
81.21044	-75.3125
85.59113	-69.7125
89.96862	-94.7125
94.34289	-77.3125
98.71396	-98.8125
103.08183	-82.0125
107.4465	-74.3125
111.80798	-81.0125
116.16626	-70.2125
120.52136	-99.7125
124.87327	-77.2125
129.222	-91.1125
133.56755	-82.0125
137.90993	-98.7125
142.24913	-88.8125
146.58517	-86.1125
150.91804	-91.7125
155.24774	-89.1125
159.57429	-85.3125
163.89768	-104.4125
168.21792	-93.5125
172.53501	-124.4125
176.84895	-114.9125
181.15975	-91.7125
185.46741	-95.7125
189.77193	-120.6125
194.07331	-82.5125
198.37157	-82.9125
202.6667	-101.8125
206.9587	-90.9125
211.24758	-91.4125
215.53334	-93.9125
219.81599	-98.8125
224.09553	-88.2125
228.37195	-88.1125
232.64527	-94.5125
236.91549	-73.3125
241.18261	-85.5125
245.44663	-69.8125
249.70755	-76.8125
253.96539	-79.4125
258.22014	-65.6125
262.4718	-64.6125
266.72039	-55.6125
270.96589	-54.3125
275.20832	-59.4125
279.44768	-51.2125
283.68397	-60.6125
287.91719	-67.9125
292.14735	-69.8125
296.37445	-57.9125
300.59849	-44.1125
304.81948	-61.2125
309.03742	-64.5125
313.25231	-69.1125
317.46415	-44.2125
321.67296	-68.3125
325.87872	-69.3125
330.08145	-51.7125
334.28114	-55.1125
338.47781	-60.7125
342.67145	-63.1125
346.86207	-65.6125
351.04966	-61.7125
355.23424	-65.8125
359.4158	-53.0125
363.59435	-74.4125
367.76989	-60.5125
371.94243	-56.0125
376.11196	-57.9125
380.27849	-41.7125
384.44203	-48.6125
388.60257	-50.2125
392.76012	-54.1125
396.91468	-35.6125
401.06626	-23.8125
405.21485	-45.9125
409.36047	-35.8125
413.50311	-18.2125
417.64277	12.9875
421.77947	20.2875
425.9132	62.3875
430.04396	79.7875
434.17176	81.0875
438.2966	69.0875
442.41849	33.0875
446.53742	1.1875
450.6534	-16.2125
454.76644	-9.2125
458.87653	-13.3125
462.98368	-36.3125
467.08789	-59.1125
471.18916	-49.6125
475.2875	-29.3125
479.38291	-9.6125
483.4754	-11.8125
487.56496	4.3875
491.6516	-4.3125
495.73531	-5.7125
499.81612	-17.1125
503.89401	-6.1125
507.96899	-32.4125
512.04106	-31.4125
516.11023	-26.9125
520.1765	-30.8125
524.23987	-36.2125
528.30034	-20.2125
532.35792	-64.2125
536.41261	-39.6125
540.46441	-33.1125
544.51333	-45.4125
548.55936	-45.6125
552.60252	-26.3125
556.64279	-42.8125
560.6802	-27.6125
564.71473	-37.7125
568.7464	-41.9125
572.7752	-38.6125
576.80114	-40.7125
580.82422	-29.1125
584.84444	-38.0125
588.86181	-32.7125
592.87633	-20.9125
596.888	-18.5125
600.89682	-17.3125
604.9028	-2.2125
608.90594	-27.0125
612.90624	-20.4125
616.90371	-50.9125
620.89834	-55.6125
624.89015	-32.6125
628.87913	-48.8125
632.86528	-48.8125
636.84862	-34.5125
640.82913	-22.9125
644.80683	-52.1125
648.78172	-38.3125
652.75379	-34.7125
656.72306	-36.5125
660.68952	-43.0125
664.65319	-43.6125
668.61405	-46.2125
672.57211	-50.2125
676.52738	-31.3125
680.47986	-51.3125
684.42955	-34.3125
688.37646	-26.1125
692.32058	-24.1125
696.26192	2.9875
700.20048	27.4875
704.13626	55.5875
708.06928	57.5875
711.99952	62.2875
715.927	11.5875
719.85171	-8.1125
723.77365	-7.2125
727.69284	-32.0125
731.60928	-15.3125
735.52295	-38.8125
739.43388	-23.6125
743.34206	-37.8125
747.24749	-18.8125
751.15017	-18.5125
755.05012	-49.7125
758.94733	-34.5125
762.8418	-64.2125
766.73354	-55.9125
770.62254	-42.9125
774.50882	-54.3125
778.39237	-49.6125
782.27321	-60.9125
786.15132	-53.7125
790.02671	-29.3125
793.89938	-77.0125
797.76935	-36.3125
801.6366	-51.8125
805.50115	-44.4125
809.36299	-34.4125
813.22213	-34.3125
817.07857	-35.6125
820.93231	-43.8125
824.78336	-38.7125
828.63172	-48.6125
832.47738	-57.3125
836.32036	-33.3125
840.16066	-39.7125
843.99827	-42.8125
847.8332	-54.2125
851.66546	-54.4125
855.49504	-75.4125
859.32195	-49.3125
863.1462	-61.3125
866.96777	-53.5125
870.78668	-79.5125
874.60293	-76.7125
878.41652	-83.1125
882.22745	-63.2125
886.03573	-71.4125
889.84136	-87.2125
893.64433	-66.0125
897.44466	-79.7125
901.24235	-78.0125
905.0374	-49.2125
908.8298	-69.7125
912.61957	-68.2125
916.40671	-111.5125
920.19121	-80.2125
923.97308	-54.1125
927.75233	-91.1125
931.52895	-106.5125
935.30295	-72.2125
939.07433	-68.8125
942.84309	-95.6125
946.60924	-77.7125
950.37278	-87.6125
954.13371	-87.8125
957.89203	-90.4125
961.64774	-66.0125
965.40086	-84.3125
969.15137	-100.2125
972.89929	-64.8125
976.64461	-77.8125
980.38733	-63.2125
984.12747	-79.6125
987.86502	-84.9125
991.59999	-87.9125
995.33237	-66.6125
999.06217	-62.7125
1002.78939	-78.1125
1006.51404	-88.5125
1010.23611	-90.7125
1013.95561	-73.5125
1017.67255	-65.2125
1021.38692	-61.8125
1025.09872	-74.3125
1028.80796	-88.0125
1032.51465	-63.5125
1036.21877	-86.1125
1039.92035	-72.6125
1043.61937	-81.7125
1047.31584	-71.8125
1051.00976	-52.4125
1054.70114	-45.2125
1058.38998	-45.3125
1062.07627	-58.5125
1065.76003	-63.0125
1069.44126	-48.3125
1073.11995	-65.3125
1076.79611	-54.8125
1080.46974	-50.1125
1084.14085	-45.3125
1087.80943	-49.3125
1091.47549	-44.5125
1095.13903	-36.5125
1098.80005	-30.4125
1102.45857	-36.3125
1106.11456	-29.6125
1109.76805	-70.1125
1113.41903	-27.9125
1117.06751	-33.4125
1120.71348	-51.2125
1124.35696	-36.6125
1127.99793	-51.2125
1131.63641	-45.7125
1135.2724	-37.5125
1138.90589	-37.1125
1142.5369	-62.1125
1146.16542	-43.8125
1149.79145	-58.0125
1153.415	-48.9125
1157.03607	-55.7125
1160.65467	-50.6125
1164.27079	-44.8125
1167.88443	-65.0125
1171.49561	-41.3125
1175.10432	-59.5125
1178.71056	-58.1125
1182.31434	-49.4125
1185.91565	-50.8125
1189.51451	-49.5125
1193.11091	-40.9125
1196.70485	-27.1125
1200.29634	-28.9125
1203.88538	-32.8125
1207.47197	-46.6125
1211.05612	-43.4125
1214.63782	-51.7125
1218.21708	-27.6125
1221.79391	-24.6125
1225.36829	-46.0125
1228.94024	-33.2125
1232.50976	-31.7125
1236.07685	-24.2125
1239.6415	-17.8125
1243.20374	-19.3125
1246.76355	-10.2125
1250.32093	22.5875
1253.8759	18.0875
1257.42845	38.8875
1260.97859	38.8875
1264.52631	58.0875
1268.07163	29.4875
1271.61453	28.4875
1275.15503	14.1875
1278.69312	-8.9125
1282.22882	-10.0125
1285.76211	-5.1125
1289.29301	-49.3125
1292.82151	-38.2125
1296.34761	-54.1125
1299.87133	-47.1125
1303.39266	-53.7125
1306.9116	-58.4125
1310.42815	-65.6125
1313.94233	-59.8125
1317.45412	-72.3125
1320.96354	-52.6125
1324.47058	-35.2125
1327.97525	-23.8125
1331.47754	-62.2125
1334.97747	-57.6125
1338.47502	-65.9125
1341.97022	-71.5125
1345.46305	-63.4125
1348.95352	-70.5125
1352.44163	-52.5125
1355.92738	-69.7125
1359.41078	-68.3125
1362.89183	-66.8125
1366.37053	-79.7125
1369.84688	-80.5125
1373.32088	-52.7125
1376.79254	-21.1125
1380.26186	-12.4125
1383.72883	23.5875
1387.19347	47.1875
1390.65578	40.3875
1394.11575	17.3875
1397.57339	-8.8125
1401.0287	-37.0125
1404.48168	-48.1125
1407.93234	-38.1125
1411.38068	-75.4125
1414.82669	-80.1125
1418.27039	-55.2125
1421.71177	-58.8125
1425.15083	-72.0125
1428.58758	-74.0125
1432.02203	-68.4125
1435.45416	-44.3125
1438.88399	-69.0125
1442.31151	-91.6125
1445.73673	-59.2125
1449.15965	-55.4125
1452.58027	-77.8125
1455.9986	-74.9125
1459.41463	-74.4125
1462.82837	-64.7125
1466.23982	-64.1125
1469.64898	-62.3125
1473.05586	-77.6125
1476.46045	-68.5125
1479.86276	-74.0125
1483.26279	-85.7125
1486.66054	-55.1125
1490.05602	-80.4125
1493.44922	-60.8125
1496.84016	-79.1125
1500.22882	-64.3125
1503.61521	-67.0125
1506.99934	-72.9125
1510.38121	-82.7125
1513.76081	-77.8125
1517.13816	-74.6125
1520.51324	-85.3125
1523.88607	-88.1125
1527.25665	-73.3125
1530.62498	-80.8125
1533.99105	-68.0125
1537.35488	-67.2125
1540.71647	-57.9125
1544.07581	-63.1125
1547.4329	-74.7125
1550.78776	-66.9125
1554.14038	-69.8125
1557.49077	-74.5125
1560.83892	-62.6125
1564.18484	-71.7125
1567.52853	-82.7125
1570.86999	-64.9125
1574.20922	-74.5125
1577.54624	-67.6125
1580.88103	-61.4125
1584.2136	-86.9125
1587.54395	-54.2125
1590.87208	-48.3125
1594.19801	-80.4125
1597.52172	-47.7125
1600.84321	-20.9125
1604.16251	-31.6125
1607.47959	-58.7125
1610.79447	-38.9125
1614.10715	-36.1125
1617.41763	-12.9125
1620.7259	-24.0125
1624.03199	-3.1125
1627.33587	1.8875
1630.63757	4.3875
1633.93707	24.1875
1637.23439	39.3875
1640.52951	76.0875
1643.82246	82.9875
1647.11321	126.6875
1650.40179	132.1875
1653.68819	173.8875
1656.97241	210.0875
1660.25446	209.5875
1663.53433	207.8875
1666.81203	172.2875
1670.08756	143.3875
1673.36092	121.9875
1676.63211	72.7875
1679.90115	62.6875
1683.16801	58.5875
1686.43272	45.1875
1689.69527	85.2875
1692.95567	153.4875
1696.2139	301.3875
1699.46999	393.8875
1702.72392	413.9875
1705.97571	306.1875
1709.22535	139.9875
1712.47284	75.1875
1715.71819	21.7875
1718.96139	-5.7125
1722.20246	-20.8125
1725.44139	-23.3125
1728.67818	-12.5125
1731.91284	-20.7125
1735.14537	-19.8125
1738.37576	-18.1125
1741.60403	-0.6125
1744.83017	-1.3125
1748.05418	36.4875
1751.27607	93.5875
1754.49584	143.9875
1757.71349	206.6875
1760.92903	251.0875
1764.14244	209.3875
1767.35375	221.4875
1770.56294	226.3875
1773.77002	182.3875
1776.97499	129.4875
1780.17785	49.2875
1783.37861	4.6875
1786.57727	3.0875
1789.77382	-69.6125
1792.96828	-40.6125
1796.16064	-33.1125
1799.3509	-52.7125
1802.53907	-38.3125
1805.72514	-58.9125
1808.90913	-64.4125
1812.09102	-52.1125
1815.27083	-54.8125
1818.44856	-60.4125
1821.6242	-54.7125
1824.79776	-59.5125
1827.96924	-61.3125
1831.13864	-72.2125
1834.30597	-53.2125
1837.47122	-63.4125
1840.6344	-64.0125
1843.7955	-77.6125
1846.95454	-79.9125
1850.11151	-56.2125
1853.26642	-86.9125
1856.41926	-79.7125
1859.57004	-75.7125
1862.71876	-78.5125
1865.86542	-69.4125
1869.01003	-75.7125
1872.15258	-94.8125
1875.29308	-66.2125
1878.43152	-60.5125
1881.56792	-70.2125
1884.70227	-82.7125
1887.83457	-66.9125
1890.96482	-86.4125
1894.09304	-74.6125
1897.21921	-73.3125
1900.34335	-63.7125
1903.46544	-84.1125
1906.58551	-68.0125
1909.70353	-67.7125
1912.81953	-68.3125
1915.93349	-75.6125
1919.04543	-71.8125
1922.15534	-83.6125
1925.26322	-76.6125
1928.36908	-79.5125
1931.47292	-66.4125
1934.57473	-47.1125
1937.67453	-63.0125
1940.77232	-73.9125
1943.86808	-67.9125
1946.96184	-54.6125
1950.05358	-68.2125
1953.14331	-71.9125
1956.23103	-54.1125
1959.31675	-73.4125
1962.40046	-105.8125
1965.48217	-69.2125
1968.56188	-66.3125
1971.63959	-73.2125
1974.7153	-62.8125
1977.78901	-59.6125
1980.86073	-62.9125
1983.93046	-76.5125
1986.99819	-133.8125
1990.06394	-101.5125
1993.1277	-65.7125
1996.18947	-69.3125
1999.24925	-89.1125
2002.30706	-67.0125
2005.36288	-59.8125
2008.41672	-66.0125
2011.46859	-80.0125
2014.51848	-76.7125
2017.56639	-80.3125
2020.61233	-76.8125
2023.6563	-57.9125
2026.6983	-89.8125
2029.73833	-71.5125
2032.7764	-54.2125
2035.8125	-93.6125
2038.84664	-80.1125
2041.87881	-84.5125
2044.90903	-66.7125
2047.93729	-69.0125
2050.96359	-86.7125
2053.98794	-67.9125
2057.01034	-62.4125
2060.03078	-79.1125
2063.04927	-82.9125
2066.06582	-74.8125
2069.08042	-83.4125
2072.09307	-71.3125
2075.10378	-63.9125
2078.11255	-69.7125
2081.11938	-70.1125
2084.12426	-74.8125
2087.12722	-79.1125
2090.12824	-79.6125
2093.12732	-72.1125
2096.12447	-64.8125
2099.11969	-72.5125
2102.11299	-77.8125
2105.10435	-55.8125
2108.09379	-70.3125
2111.08131	-80.7125
2114.0669	-70.5125
2117.05057	-77.7125
2120.03233	-100.0125
2123.01216	-79.6125
2125.99008	-76.0125
2128.96609	-77.4125
2131.94018	-60.2125
2134.91236	-74.7125
2137.88263	-81.0125
2140.851	-73.1125
2143.81746	-56.3125
2146.78201	-70.8125
2149.74466	-79.2125
2152.7054	-63.3125
2155.66425	-72.2125
2158.6212	-72.2125
2161.57625	-89.2125
2164.52941	-103.7125
2167.48067	-83.6125
2170.43004	-86.3125
2173.37752	-65.2125
2176.32311	-75.9125
2179.26681	-75.7125
2182.20863	-70.2125
2185.14856	-72.3125
2188.08661	-68.6125
2191.02278	-63.5125
2193.95707	-82.1125
2196.88948	-88.2125
2199.82001	-72.2125
2202.74867	-80.3125
2205.67545	-76.7125
2208.60037	-65.1125
2211.52341	-71.0125
2214.44458	-72.8125
2217.36388	-65.2125
2220.28132	-71.9125
2223.1969	-76.8125
2226.11061	-66.2125
2229.02246	-72.0125
2231.93245	-62.1125
2234.84058	-74.3125
2237.74686	-74.7125
2240.65128	-77.2125
2243.55385	-63.3125
2246.45456	-87.2125
2249.35343	-64.4125
2252.25044	-76.3125
2255.14561	-71.1125
2258.03893	-55.0125
2260.93041	-39.9125
2263.82004	-60.8125
2266.70783	-60.6125
2269.59378	-72.0125
2272.4779	-83.5125
2275.36017	-61.1125
2278.24061	-72.8125
2281.11922	-94.3125
2283.996	-69.3125
2286.87094	-86.1125
2289.74405	-69.6125
2292.61534	-69.0125
2295.4848	-71.9125
2298.35243	-71.2125
2301.21824	-75.3125
2304.08223	-75.8125
2306.94439	-62.0125
2309.80474	-59.2125
2312.66327	-59.0125
2315.51999	-66.1125
2318.37489	-65.3125
2321.22797	-76.1125
2324.07925	-69.7125
2326.92871	-69.1125
2329.77637	-74.9125
2332.62222	-67.1125
2335.46626	-78.8125
2338.3085	-74.3125
2341.14893	-57.0125
2343.98756	-47.9125
2346.8244	-67.5125
2349.65943	-72.9125
2352.49267	-66.7125
2355.32411	-66.0125
2358.15376	-70.8125
2360.98161	-63.6125
2363.80768	-83.7125
2366.63195	-75.4125
2369.45444	-69.4125
2372.27514	-71.5125
2375.09405	-54.3125
2377.91118	-84.9125
2380.72652	-82.9125
2383.54009	-76.9125
2386.35187	-64.7125
2389.16188	-78.1125
2391.97011	-70.2125
2394.77657	-75.2125
2397.58125	-62.7125
2400.38416	-60.5125
2403.18529	-64.9125
2405.98466	-74.2125
2408.78226	-57.7125
2411.57809	-58.7125
2414.37216	-60.6125
2417.16446	-57.4125
2419.955	-76.3125
2422.74378	-56.1125
2425.5308	-76.4125
2428.31606	-68.3125
2431.09956	-60.4125
2433.88131	-76.2125
2436.6613	-61.7125
2439.43954	-69.2125
2442.21603	-75.6125
2444.99077	-83.6125
2447.76377	-68.6125
2450.53501	-79.5125
2453.30451	-82.4125
2456.07226	-66.4125
2458.83827	-73.5125
2461.60254	-109.3125
2464.36507	-67.0125
2467.12586	-78.5125
2469.88492	-69.5125
2472.64224	-70.8125
2475.39782	-65.1125
2478.15167	-48.6125
2480.90379	-69.1125
2483.65417	-58.1125
2486.40283	-59.9125
2489.14976	-58.7125
2491.89497	-75.9125
2494.63845	-45.1125
2497.3802	-53.0125
2500.12024	-66.6125
2502.85855	-67.9125
2505.59514	-58.1125
2508.33002	-63.1125
2511.06318	-78.2125
2513.79462	-60.7125
2516.52435	-88.8125
2519.25237	-97.9125
2521.97867	-81.4125
2524.70327	-72.1125
2527.42616	-69.8125
2530.14734	-53.5125
2532.86681	-73.1125
2535.58458	-68.9125
2538.30065	-75.9125
2541.01501	-58.6125
2543.72768	-73.3125
2546.43864	-65.7125
2549.14791	-66.4125
2551.85548	-78.7125
2554.56136	-79.3125
2557.26554	-69.0125
2559.96803	-71.1125
2562.66883	-67.9125
2565.36794	-77.7125
2568.06536	-98.6125
2570.7611	-64.2125
2573.45514	-70.6125
2576.14751	-69.9125
2578.83819	-77.4125
2581.52719	-75.5125
2584.21451	-66.2125
2586.90015	-82.1125
2589.58411	-86.3125
2592.2664	-69.3125
2594.94701	-65.4125
2597.62594	-60.4125
2600.30321	-113.8125
2602.9788	-86.8125
2605.65273	-89.4125
2608.32498	-82.3125
2610.99557	-60.0125
2613.66449	-95.0125
2616.33175	-73.3125
2618.99734	-73.0125
2621.66128	-64.4125
2624.32355	-69.9125
2626.98416	-77.2125
2629.64311	-77.9125
2632.30041	-73.4125
2634.95605	-84.8125
2637.61004	-89.4125
2640.26238	-101.0125
2642.91306	-97.4125
2645.56209	-72.6125
2648.20948	-74.9125
2650.85521	-93.7125
2653.4993	-71.6125
2656.14175	-79.7125
2658.78255	-88.9125
2661.42171	-117.4125
2664.05923	-84.1125
2666.6951	-85.7125
2669.32934	-83.3125
2671.96194	-69.1125
2674.59291	-84.6125
2677.22224	-74.4125
2679.84993	-78.9125
2682.476	-84.3125
2685.10043	-83.9125
2687.72324	-92.1125
2690.34441	-89.0125
2692.96396	-88.1125
2695.58188	-69.9125
2698.19818	-77.2125
2700.81285	-85.5125
2703.4259	-24.5125
2706.03733	42.5875
2708.64714	-24.5125
2711.25533	-34.8125
2713.86191	-46.2125
2716.46687	-60.1125
2719.07021	-68.0125
2721.67194	-80.6125
2724.27206	-65.3125
2726.87057	-87.9125
2729.46747	-92.0125
2732.06276	-83.5125
2734.65644	-90.8125
2737.24852	-84.2125
2739.83899	-99.5125
2742.42786	-81.4125
2745.01513	-67.5125
2747.60079	-82.4125
2750.18486	-91.0125
2752.76733	-81.7125
2755.3482	-84.5125
2757.92747	-76.8125
2760.50515	-85.2125
2763.08123	-84.3125
2765.65573	-77.6125
2768.22863	-82.6125
2770.79994	-85.5125
2773.36967	-83.6125
2775.9378	-86.3125
2778.50435	-83.7125
2781.06932	-83.8125
2783.6327	-91.9125
2786.1945	-66.8125
2788.75471	-79.5125
2791.31335	-76.6125
2793.87041	-71.9125
2796.42589	-86.8125
2798.97979	-92.8125
2801.53212	-79.2125
2804.08288	-63.2125
2806.63206	-76.1125
2809.17967	-88.9125
2811.72571	-68.5125
2814.27018	-69.3125
2816.81308	-76.3125
2819.35442	-105.5125
2821.89419	-77.3125
2824.43239	-87.8125
2826.96904	-59.1125
2829.50412	-82.9125
2832.03763	-73.3125
2834.56959	-71.4125
2837.1	-72.6125
2839.62884	-72.1125
2842.15613	-72.8125
2844.68186	-62.7125
2847.20604	-83.8125
2849.72867	-81.3125
2852.24974	-68.2125
2854.76927	-63.9125
2857.28724	-84.7125
2859.80367	-49.1125
2862.31855	-49.8125
2864.83189	-66.2125
2867.34368	-63.5125
2869.85393	-54.8125
2872.36264	-80.6125
2874.8698	-77.0125
2877.37543	-70.0125
2879.87952	-77.7125
2882.38207	-91.6125
2884.88308	-76.3125
2887.38256	-73.7125
2889.88051	-73.8125
2892.37692	-70.5125
2894.8718	-85.1125
2897.36515	-68.9125
2899.85698	-73.8125
2902.34727	-81.4125
2904.83604	-79.2125
2907.32328	-77.8125
2909.809	-83.2125
2912.29319	-93.2125
2914.77587	-90.9125
2917.25702	-79.8125
2919.73665	-78.4125
2922.21476	-74.7125
2924.69136	-66.9125
2927.16644	-79.4125
2929.64	-75.4125
2932.11205	-84.7125
2934.58258	-70.2125
2937.05161	-82.1125
2939.51912	-78.0125
2941.98513	-60.8125
2944.44962	-74.3125
2946.91261	-92.6125
2949.37409	-83.8125
2951.83407	-87.4125
2954.29254	-81.8125
2956.74951	-76.8125
2959.20498	-89.8125
2961.65895	-79.2125
2964.11142	-79.9125
2966.56239	-72.6125
2969.01186	-71.7125
2971.45984	-76.5125
2973.90632	-82.3125
2976.35131	-62.4125
2978.7948	-71.0125
2981.23681	-79.2125
2983.67732	-71.9125
2986.11635	-65.6125
2988.55388	-91.1125
2990.98993	-75.9125
2993.4245	-82.3125
2995.85758	-85.3125
2998.28917	-78.0125
3000.71928	-79.9125
3003.14791	-73.4125
3005.57506	-79.8125
3008.00073	-85.1125
3010.42493	-138.7125
3012.84764	-74.5125
3015.26888	-70.9125
3017.68865	-73.4125
3020.10694	-108.1125
3022.52376	-80.6125
3024.9391	-77.5125
3027.35298	-81.2125
3029.76539	-89.6125
3032.17632	-79.6125
3034.5858	-80.9125
3036.9938	-67.5125
3039.40034	-73.8125
3041.80542	-77.9125
3044.20903	-82.4125
3046.61118	-84.2125
3049.01187	-63.2125
3051.4111	-74.6125
3053.80888	-76.0125
3056.20519	-77.9125
3058.60005	-88.4125
3060.99345	-58.7125
3063.3854	-82.6125
3065.7759	-87.0125
3068.16494	-87.4125
3070.55254	-90.6125
3072.93868	-70.2125
3075.32338	-72.6125
3077.70662	-71.8125
3080.08842	-74.0125
3082.46878	-82.0125
3084.84769	-56.4125
3087.22515	-76.1125
3089.60118	-60.6125
3091.97576	-76.2125
3094.3489	-63.4125
3096.72061	-69.1125
3099.09087	-81.2125
3101.4597	-68.9125
3103.82709	-72.7125
3106.19305	-84.1125
3108.55757	-75.0125
3110.92066	-80.6125
3113.28232	-67.6125
3115.64255	-63.7125
3118.00134	-59.4125
3120.35871	-77.0125
3122.71466	-85.0125
3125.06917	-71.7125
3127.42226	-72.0125
3129.77393	-89.5125
3132.12417	-70.5125
3134.47299	-62.5125
3136.82039	-77.7125
3139.16636	-99.4125
3141.51092	-71.7125
3143.85406	-69.1125
3146.19579	-82.9125
3148.53609	-81.1125
3150.87499	-73.2125
3153.21246	-79.3125
3155.54853	-72.9125
3157.88318	-70.2125
3160.21642	-70.2125
3162.54826	-77.5125
3164.87868	-68.7125
3167.2077	-102.2125
3169.5353	-76.9125
3171.86151	-64.8125
3174.18631	-76.7125
3176.5097	-74.3125
3178.83169	-68.2125
3181.15228	-63.6125
3183.47147	-79.5125
3185.78926	-91.2125
3188.10565	-70.6125
3190.42065	-89.2125
3192.73424	-73.2125
3195.04645	-76.5125
3197.35725	-88.4125
3199.66667	-70.5125
3201.97469	-77.4125
3204.28132	-85.6125
3206.58656	-72.3125
3208.8904	-68.0125
3211.19287	-77.8125
3213.49394	-88.2125
3215.79363	-88.7125
3218.09193	-73.9125
3220.38884	-56.3125
3222.68438	-40.8125
3224.97853	-78.9125
3227.2713	-61.0125
3229.56269	-76.9125
3231.8527	-71.5125
3234.14133	-81.6125
3236.42858	-75.6125
3238.71446	-95.3125
3240.99896	-71.7125
3243.28209	-87.0125
3245.56384	-71.9125
3247.84423	-81.9125
3250.12324	-71.6125
3252.40088	-72.2125
3254.67715	-80.0125
3256.95205	-87.4125
3259.22558	-72.5125
3261.49775	-74.2125
3263.76855	-81.1125
3266.03799	-71.6125
3268.30606	-73.5125
3270.57277	-69.5125
3272.83812	-83.6125
3275.10211	-76.8125
3277.36474	-58.5125
3279.62601	-62.1125
3281.88593	-79.4125
3284.14448	-95.1125
3286.40168	-70.6125
3288.65753	-83.5125
3290.91202	-82.8125
3293.16516	-93.4125
3295.41695	-68.1125
3297.66738	-61.4125
3299.91647	-77.5125
3302.16421	-60.8125
3304.4106	-89.3125
3306.65564	-57.8125
3308.89933	-74.7125
3311.14169	-53.0125
3313.38269	-36.4125
3315.62236	-54.3125
3317.86068	-58.3125
3320.09766	-47.6125
3322.3333	-65.7125
3324.5676	-42.3125
3326.80056	-14.6125
3329.03219	-29.8125
3331.26248	-1.0125
3333.49143	0.2875
3335.71905	1.0875
