Data from AgNPs_UA_5uM_CRN_500uM_SU_RamanShift__81__11-42-53-155.txt Node

Date: Thu Aug 04 11:42:53 BST 2022
User: TCL
Spectrometer: QEP01345
Trigger mode: 4
Integration Time (sec): 1.000000E0
Scans to average: 10
Electric dark correction enabled: true
Nonlinearity correction enabled: false
Boxcar width: 0
XAxis mode: Raman Shifts
Number of Pixels in Spectrum: 1044
>>>>>Begin Spectral Data<<<<<
46.04893	0.3
50.45542	-0.3
54.85868	-0.2
59.25871	-1.1
63.6555	-61.6
68.04907	-43.8
72.43941	-76
76.82654	-60.6
81.21044	-61.5
85.59113	-55
89.96862	-79.1
94.34289	-62.2
98.71396	-83.4
103.08183	-65
107.4465	-56.4
111.80798	-61.7
116.16626	-51.6
120.52136	-82.1
124.87327	-58.8
129.222	-68.7
133.56755	-58.8
137.90993	-73.1
142.24913	-62.4
146.58517	-55.8
150.91804	-56.7
155.24774	-50
159.57429	-33.3
163.89768	-40.3
168.21792	-6
172.53501	-7.3
176.84895	48
181.15975	138.7
185.46741	224.8
189.77193	331.3
194.07331	525.2
198.37157	698.5
202.6667	864.1
206.9587	1064.5
211.24758	1255
215.53334	1457.2
219.81599	1653.2
224.09553	1901.2
228.37195	2149
232.64527	2413.2
236.91549	2680.3
241.18261	2899.9
245.44663	3122.8
249.70755	3285.7
253.96539	3460.9
258.22014	3615.7
262.4718	3713.2
266.72039	3789
270.96589	3793
275.20832	3742.3
279.44768	3695.1
283.68397	3628.3
287.91719	3575.4
292.14735	3550.7
296.37445	3595.6
300.59849	3707.7
304.81948	3810.1
309.03742	3974.3
313.25231	4104.9
317.46415	4105.8
321.67296	3918
325.87872	3725
330.08145	3638.9
334.28114	3644.7
338.47781	3702.7
342.67145	3792
346.86207	3914.1
351.04966	4125.9
355.23424	4317.1
359.4158	4431.2
363.59435	4405.6
367.76989	4374.5
371.94243	4318.2
376.11196	4274.7
380.27849	4271
384.44203	4250
388.60257	4255.5
392.76012	4268.4
396.91468	4358.5
401.06626	4451
405.21485	4456.1
409.36047	4418.4
413.50311	4319.2
417.64277	4209.4
421.77947	4132.3
425.9132	4102.2
430.04396	4114.1
434.17176	4131.6
438.2966	4194
442.41849	4236.8
446.53742	4303.5
450.6534	4340.6
454.76644	4380.8
458.87653	4420.9
462.98368	4417.5
467.08789	4401.7
471.18916	4378
475.2875	4354.6
479.38291	4351.7
483.4754	4340.2
487.56496	4332.4
491.6516	4320.9
495.73531	4326.9
499.81612	4336.3
503.89401	4402.5
507.96899	4423.2
512.04106	4459
516.11023	4528.9
520.1765	4541.1
524.23987	4583.3
528.30034	4595.2
532.35792	4565.6
536.41261	4563
540.46441	4526.6
544.51333	4533.8
548.55936	4531.1
552.60252	4607.7
556.64279	4649.9
560.6802	4714.2
564.71473	4818.4
568.7464	4947.6
572.7752	4935.3
576.80114	4771.1
580.82422	4646.2
584.84444	4600.7
588.86181	4607.9
592.87633	4616.2
596.888	4679.5
600.89682	4827.1
604.9028	5204.8
608.90594	6031.6
612.90624	7042.8
616.90371	6711
620.89834	5473
624.89015	4958.5
628.87913	4892.7
632.86528	4980.6
636.84862	5071.9
640.82913	4986.3
644.80683	4860.3
648.78172	4806.9
652.75379	4843.9
656.72306	4948.2
660.68952	5053.9
664.65319	5033.9
668.61405	4920.1
672.57211	4909.8
676.52738	4935.5
680.47986	4916.6
684.42955	4891.8
688.37646	4908.9
692.32058	4910.4
696.26192	4937.4
700.20048	4993.5
704.13626	5014.6
708.06928	4997.1
711.99952	5013.6
715.927	5003.2
719.85171	5040.5
723.77365	5094.4
727.69284	5054.6
731.60928	5072.8
735.52295	5056.4
739.43388	5093.3
743.34206	5110.3
747.24749	5128.3
751.15017	5145.8
755.05012	5143.8
758.94733	5343.6
762.8418	5685.3
766.73354	6190.6
770.62254	6471.5
774.50882	6398.8
778.39237	6246.2
782.27321	5954.4
786.15132	5651.2
790.02671	5404
793.89938	5246.7
797.76935	5233
801.6366	5197.1
805.50115	5172.2
809.36299	5187.2
813.22213	5209.8
817.07857	5209.1
820.93231	5217.2
824.78336	5237.3
828.63172	5258.7
832.47738	5271.6
836.32036	5303.6
840.16066	5269.7
843.99827	5288
847.8332	5272.8
851.66546	5276.5
855.49504	5271.8
859.32195	5300.6
863.1462	5300.9
866.96777	5311.5
870.78668	5299.7
874.60293	5334.2
878.41652	5352
882.22745	5399.5
886.03573	5411
889.84136	5399.6
893.64433	5427.2
897.44466	5415.7
901.24235	5418.3
905.0374	5427.3
908.8298	5404.2
912.61957	5390.3
916.40671	5342.9
920.19121	5359.9
923.97308	5424
927.75233	5405.2
931.52895	5481.2
935.30295	5479.4
939.07433	5420.4
942.84309	5358.6
946.60924	5354.5
950.37278	5328.7
954.13371	5320.4
957.89203	5331.7
961.64774	5345.6
965.40086	5333.6
969.15137	5302.5
972.89929	5336.6
976.64461	5307.3
980.38733	5343.1
984.12747	5325.5
987.86502	5350.2
991.59999	5336.9
995.33237	5376.8
999.06217	5426.1
1002.78939	5437
1006.51404	5492.6
1010.23611	5527.2
1013.95561	5533
1017.67255	5530.2
1021.38692	5519.8
1025.09872	5514.4
1028.80796	5469.4
1032.51465	5497.4
1036.21877	5462.4
1039.92035	5512.8
1043.61937	5532.1
1047.31584	5545.3
1051.00976	5578.1
1054.70114	5584.6
1058.38998	5572
1062.07627	5553.2
1065.76003	5575.7
1069.44126	5625.8
1073.11995	5664.5
1076.79611	5730.6
1080.46974	5814.8
1084.14085	5893.1
1087.80943	5947.8
1091.47549	5929.5
1095.13903	5907.8
1098.80005	5873
1102.45857	5815.2
1106.11456	5804.1
1109.76805	5766.9
1113.41903	5816.1
1117.06751	5885
1120.71348	5968.5
1124.35696	6145.2
1127.99793	6260.4
1131.63641	6182.6
1135.2724	6025
1138.90589	5902.8
1142.5369	5801.8
1146.16542	5764.8
1149.79145	5710.4
1153.415	5680.2
1157.03607	5681.4
1160.65467	5698.4
1164.27079	5781.1
1167.88443	5848.3
1171.49561	6024.7
1175.10432	6226
1178.71056	6574
1182.31434	6803.7
1185.91565	6858.7
1189.51451	6730.9
1193.11091	6567.6
1196.70485	6460.5
1200.29634	6387
1203.88538	6284.7
1207.47197	6137.5
1211.05612	6024.2
1214.63782	5909
1218.21708	5874.9
1221.79391	5819.1
1225.36829	5800.5
1228.94024	5807.3
1232.50976	5795.1
1236.07685	5827.3
1239.6415	5861.8
1243.20374	5856.4
1246.76355	5896.2
1250.32093	5950.3
1253.8759	5959.4
1257.42845	6053.4
1260.97859	6148
1264.52631	6265.1
1268.07163	6282.3
1271.61453	6323.7
1275.15503	6302.3
1278.69312	6278.8
1282.22882	6293
1285.76211	6389.4
1289.29301	6485.9
1292.82151	6580.2
1296.34761	6609.4
1299.87133	6731.7
1303.39266	6990.9
1306.9116	7394.3
1310.42815	7934.6
1313.94233	8188.8
1317.45412	7845.7
1320.96354	7337.3
1324.47058	6911
1327.97525	6622.6
1331.47754	6428.8
1334.97747	6352.4
1338.47502	6359.9
1341.97022	6498.2
1345.46305	6814.7
1348.95352	7167.4
1352.44163	7553.6
1355.92738	7919.1
1359.41078	8543.2
1362.89183	9274
1366.37053	9090.4
1369.84688	8021.1
1373.32088	7045.2
1376.79254	6584.1
1380.26186	6347.3
1383.72883	6183.9
1387.19347	5999.2
1390.65578	5828.3
1394.11575	5747.4
1397.57339	5718.9
1401.0287	5679.2
1404.48168	5679.8
1407.93234	5693.4
1411.38068	5681.1
1414.82669	5732.6
1418.27039	5788.3
1421.71177	5788.2
1425.15083	5744.9
1428.58758	5750.3
1432.02203	5784.7
1435.45416	5802
1438.88399	5778.5
1442.31151	5692.2
1445.73673	5721.5
1449.15965	5682.2
1452.58027	5674.2
1455.9986	5673.8
1459.41463	5664.6
1462.82837	5686.5
1466.23982	5733.8
1469.64898	5791
1473.05586	5801
1476.46045	5824.5
1479.86276	5844.8
1483.26279	5907.4
1486.66054	6015.8
1490.05602	6104.2
1493.44922	6334.1
1496.84016	6610.8
1500.22882	7087.6
1503.61521	7694.9
1506.99934	8426.1
1510.38121	9096.5
1513.76081	9299.6
1517.13816	8833.5
1520.51324	7946.1
1523.88607	7159.1
1527.25665	6634.6
1530.62498	6351.4
1533.99105	6201.7
1537.35488	6117.5
1540.71647	6054.3
1544.07581	6024.9
1547.4329	6023.6
1550.78776	6038.8
1554.14038	6066.4
1557.49077	6102.2
1560.83892	6219.5
1564.18484	6339.6
1567.52853	6511.9
1570.86999	6636.2
1574.20922	6635.9
1577.54624	6589.2
1580.88103	6372
1584.2136	6112.6
1587.54395	5998
1590.87208	6001.7
1594.19801	6007.1
1597.52172	6143.5
1600.84321	6177.7
1604.16251	6095.5
1607.47959	5986.7
1610.79447	5941.6
1614.10715	5835.7
1617.41763	5782.8
1620.7259	5712.3
1624.03199	5690.8
1627.33587	5666.9
1630.63757	5685.4
1633.93707	5791.1
1637.23439	5930.5
1640.52951	6226.8
1643.82246	6639.4
1647.11321	7190.7
1650.40179	7539.3
1653.68819	7468.8
1656.97241	6911.2
1660.25446	6326.1
1663.53433	5920.3
1666.81203	5674
1670.08756	5569.1
1673.36092	5519.5
1676.63211	5455.7
1679.90115	5435.8
1683.16801	5390.5
1686.43272	5351.6
1689.69527	5357.6
1692.95567	5312.9
1696.2139	5317.7
1699.46999	5262.3
1702.72392	5293.1
1705.97571	5310.7
1709.22535	5285.5
1712.47284	5330.9
1715.71819	5335.9
1718.96139	5357.9
1722.20246	5335.8
1725.44139	5333.7
1728.67818	5338.1
1731.91284	5306.2
1735.14537	5299.9
1738.37576	5285.5
1741.60403	5287.5
1744.83017	5264
1748.05418	5286.1
1751.27607	5269.7
1754.49584	5233.2
1757.71349	5206.5
1760.92903	5231.9
1764.14244	5174.7
1767.35375	5185.6
1770.56294	5179.1
1773.77002	5192.8
1776.97499	5207.3
1780.17785	5180.1
1783.37861	5190.8
1786.57727	5219.8
1789.77382	5153.3
1792.96828	5198.4
1796.16064	5201
1799.3509	5176.1
1802.53907	5189.6
1805.72514	5164.6
1808.90913	5159.6
1812.09102	5142
1815.27083	5144.7
1818.44856	5135.9
1821.6242	5139.9
1824.79776	5116.4
1827.96924	5125.4
1831.13864	5098.4
1834.30597	5123.3
1837.47122	5091.8
1840.6344	5080.6
1843.7955	5080.4
1846.95454	5072.3
1850.11151	5098.1
1853.26642	5060.7
1856.41926	5061.6
1859.57004	5079.9
1862.71876	5077.1
1865.86542	5086.6
1869.01003	5094
1872.15258	5067.8
1875.29308	5075.4
1878.43152	5083.9
1881.56792	5051.1
1884.70227	5027.1
1887.83457	5040.6
1890.96482	5010.5
1894.09304	5017.6
1897.21921	5034.1
1900.34335	5018
1903.46544	4994.1
1906.58551	5013.2
1909.70353	5020.4
1912.81953	4995.7
1915.93349	4986.1
1919.04543	4964
1922.15534	4967.7
1925.26322	4972.1
1928.36908	4952.6
1931.47292	4961.3
1934.57473	4951.1
1937.67453	4924.7
1940.77232	4920.1
1943.86808	4900
1946.96184	4921.1
1950.05358	4892.7
1953.14331	4873.1
1956.23103	4866.8
1959.31675	4833.9
1962.40046	4783.5
1965.48217	4803
1968.56188	4792.7
1971.63959	4792.2
1974.7153	4792.2
1977.78901	4786.1
1980.86073	4746
1983.93046	4713
1986.99819	4650.8
1990.06394	4657.9
1993.1277	4720
1996.18947	4681.2
1999.24925	4651.2
2002.30706	4668.2
2005.36288	4654.5
2008.41672	4644.2
2011.46859	4602.8
2014.51848	4615.8
2017.56639	4593.2
2020.61233	4570.5
2023.6563	4578.5
2026.6983	4543.5
2029.73833	4521.3
2032.7764	4543.2
2035.8125	4497.8
2038.84664	4511.2
2041.87881	4497.4
2044.90903	4495.3
2047.93729	4483.2
2050.96359	4451.3
2053.98794	4471.5
2057.01034	4489.6
2060.03078	4462.2
2063.04927	4453.6
2066.06582	4457.7
2069.08042	4443.1
2072.09307	4469.3
2075.10378	4441.8
2078.11255	4454.9
2081.11938	4451.4
2084.12426	4443.6
2087.12722	4444.8
2090.12824	4438.5
2093.12732	4458.7
2096.12447	4462.2
2099.11969	4456.8
2102.11299	4432.4
2105.10435	4457.7
2108.09379	4447.3
2111.08131	4453.5
2114.0669	4446.9
2117.05057	4444
2120.03233	4441.9
2123.01216	4455.4
2125.99008	4458.8
2128.96609	4455.4
2131.94018	4484.5
2134.91236	4470.7
2137.88263	4473.1
2140.851	4492.2
2143.81746	4498.1
2146.78201	4487.8
2149.74466	4478.9
2152.7054	4501.6
2155.66425	4493.9
2158.6212	4481.2
2161.57625	4454.9
2164.52941	4445.1
2167.48067	4473.2
2170.43004	4457.5
2173.37752	4469.3
2176.32311	4458.6
2179.26681	4461.7
2182.20863	4468.9
2185.14856	4474.8
2188.08661	4468.1
2191.02278	4470.6
2193.95707	4473.9
2196.88948	4428.4
2199.82001	4448.7
2202.74867	4438
2205.67545	4443.8
2208.60037	4466.5
2211.52341	4439.9
2214.44458	4411.6
2217.36388	4418.8
2220.28132	4398.4
2223.1969	4382.7
2226.11061	4385.6
2229.02246	4378.9
2231.93245	4377.8
2234.84058	4364.5
2237.74686	4352.3
2240.65128	4346
2243.55385	4354
2246.45456	4329.7
2249.35343	4336.1
2252.25044	4329.9
2255.14561	4339.5
2258.03893	4347.5
2260.93041	4329.7
2263.82004	4299.9
2266.70783	4305.3
2269.59378	4275.3
2272.4779	4271.4
2275.36017	4277.3
2278.24061	4266.1
2281.11922	4219.8
2283.996	4237
2286.87094	4213.6
2289.74405	4240.3
2292.61534	4223.7
2295.4848	4217.9
2298.35243	4202.3
2301.21824	4194.3
2304.08223	4193.3
2306.94439	4208.5
2309.80474	4209.1
2312.66327	4195
2315.51999	4175.7
2318.37489	4178.9
2321.22797	4162.8
2324.07925	4159.7
2326.92871	4142.9
2329.77637	4145.2
2332.62222	4139.8
2335.46626	4097.4
2338.3085	4106.1
2341.14893	4112
2343.98756	4128.4
2346.8244	4095.3
2349.65943	4083.2
2352.49267	4088.7
2355.32411	4100.2
2358.15376	4088.4
2360.98161	4080
2363.80768	4065.5
2366.63195	4076.8
2369.45444	4093.9
2372.27514	4083.4
2375.09405	4076.3
2377.91118	4057.2
2380.72652	4037.3
2383.54009	4037.4
2386.35187	4049
2389.16188	4015.8
2391.97011	4027.1
2394.77657	4010.3
2397.58125	4010.4
2400.38416	4003.3
2403.18529	3990.2
2405.98466	3958.6
2408.78226	3978.4
2411.57809	3961.8
2414.37216	3957.9
2417.16446	3962
2419.955	3928.8
2422.74378	3954
2425.5308	3925.3
2428.31606	3941.7
2431.09956	3943.9
2433.88131	3924
2436.6613	3925.1
2439.43954	3901.9
2442.21603	3915.5
2444.99077	3897.7
2447.76377	3909.3
2450.53501	3897.2
2453.30451	3891
2456.07226	3886
2458.83827	3880.2
2461.60254	3844
2464.36507	3872.3
2467.12586	3848.3
2469.88492	3856.4
2472.64224	3864.3
2475.39782	3831.5
2478.15167	3841
2480.90379	3832.4
2483.65417	3841.3
2486.40283	3854.7
2489.14976	3850.3
2491.89497	3833.9
2494.63845	3821.1
2497.3802	3815.9
2500.12024	3799.8
2502.85855	3808.7
2505.59514	3810.2
2508.33002	3805.9
2511.06318	3777.5
2513.79462	3782.2
2516.52435	3750.3
2519.25237	3733
2521.97867	3742.7
2524.70327	3748.7
2527.42616	3752.9
2530.14734	3769.7
2532.86681	3723.4
2535.58458	3735.8
2538.30065	3714.8
2541.01501	3731
2543.72768	3705.7
2546.43864	3712.4
2549.14791	3695.4
2551.85548	3669.4
2554.56136	3675.2
2557.26554	3688
2559.96803	3662.6
2562.66883	3664.6
2565.36794	3653.5
2568.06536	3617.8
2570.7611	3645.4
2573.45514	3629.9
2576.14751	3622.8
2578.83819	3613.2
2581.52719	3604.2
2584.21451	3599
2586.90015	3593.4
2589.58411	3556.2
2592.2664	3587.6
2594.94701	3579.3
2597.62594	3565.5
2600.30321	3495.2
2602.9788	3524.6
2605.65273	3514.1
2608.32498	3525.2
2610.99557	3529.9
2613.66449	3490.1
2616.33175	3518.4
2618.99734	3508.6
2621.66128	3508.1
2624.32355	3500.2
2626.98416	3469.3
2629.64311	3462
2632.30041	3471.7
2634.95605	3444.5
2637.61004	3425.7
2640.26238	3412.8
2642.91306	3435.7
2645.56209	3460.6
2648.20948	3438.4
2650.85521	3420.2
2653.4993	3433.3
2656.14175	3415.6
2658.78255	3410.7
2661.42171	3390.2
2664.05923	3427.6
2666.6951	3408.3
2669.32934	3430.3
2671.96194	3429.2
2674.59291	3415.3
2677.22224	3422.8
2679.84993	3413.3
2682.476	3414.5
2685.10043	3403.6
2687.72324	3396.6
2690.34441	3394
2692.96396	3391.7
2695.58188	3401.6
2698.19818	3393.3
2700.81285	3386.2
2703.4259	3382.5
2706.03733	3343
2708.64714	3348.2
2711.25533	3388.6
2713.86191	3385.2
2716.46687	3368.7
2719.07021	3371.6
2721.67194	3372
2724.27206	3377.4
2726.87057	3372.3
2729.46747	3352.1
2732.06276	3354.7
2734.65644	3366.5
2737.24852	3351.9
2739.83899	3329.4
2742.42786	3338.3
2745.01513	3355.8
2747.60079	3330.2
2750.18486	3303.8
2752.76733	3323.9
2755.3482	3311.6
2757.92747	3316.7
2760.50515	3291.2
2763.08123	3289.3
2765.65573	3300.1
2768.22863	3284.3
2770.79994	3267.5
2773.36967	3265.4
2775.9378	3263.3
2778.50435	3243.8
2781.06932	3248.7
2783.6327	3228.3
2786.1945	3246.8
2788.75471	3235
2791.31335	3235.8
2793.87041	3220.9
2796.42589	3207.8
2798.97979	3197.7
2801.53212	3193.1
2804.08288	3223.8
2806.63206	3181.6
2809.17967	3159.9
2811.72571	3181.2
2814.27018	3167.8
2816.81308	3156.9
2819.35442	3104.3
2821.89419	3128.6
2824.43239	3115.6
2826.96904	3158.7
2829.50412	3111.8
2832.03763	3123.6
2834.56959	3123.7
2837.1	3109.8
2839.62884	3108.9
2842.15613	3113.9
2844.68186	3109.8
2847.20604	3087.9
2849.72867	3083.1
2852.24974	3083.2
2854.76927	3046.3
2857.28724	3001.8
2859.80367	3064.2
2862.31855	3064.3
2864.83189	3060
2867.34368	3042.6
2869.85393	3064.4
2872.36264	3019
2874.8698	3037.2
2877.37543	3032.2
2879.87952	3028.9
2882.38207	3017.7
2884.88308	3022.8
2887.38256	3018
2889.88051	3014.7
2892.37692	3027.5
2894.8718	2996.6
2897.36515	3022.4
2899.85698	3002.8
2902.34727	2994.1
2904.83604	2999.2
2907.32328	3007
2909.809	3006.9
2912.29319	2999.8
2914.77587	2996.7
2917.25702	3007.7
2919.73665	3011.7
2922.21476	3009.8
2924.69136	3018.1
2927.16644	2993
2929.64	2996.4
2932.11205	2991.4
2934.58258	2974.2
2937.05161	2979.9
2939.51912	2982.9
2941.98513	3002.6
2944.44962	2986.3
2946.91261	2955.9
2949.37409	2976.9
2951.83407	2960.5
2954.29254	2968.4
2956.74951	2963.4
2959.20498	2953.2
2961.65895	2948.8
2964.11142	2948.3
2966.56239	2962.5
2969.01186	2951.5
2971.45984	2958.1
2973.90632	2932
2976.35131	2950.3
2978.7948	2945
2981.23681	2943.5
2983.67732	2932.9
2986.11635	2927.1
2988.55388	2907.8
2990.98993	2910.7
2993.4245	2897.1
2995.85758	2890.6
2998.28917	2902
3000.71928	2880.7
3003.14791	2879.5
3005.57506	2861.2
3008.00073	2853.5
3010.42493	2803.3
3012.84764	2850.5
3015.26888	2857.1
3017.68865	2848.5
3020.10694	2814.6
3022.52376	2812.8
3024.9391	2812.7
3027.35298	2805.4
3029.76539	2794.7
3032.17632	2809.5
3034.5858	2801.4
3036.9938	2802.7
3039.40034	2790.3
3041.80542	2793.3
3044.20903	2779.9
3046.61118	2771.2
3049.01187	2781.9
3051.4111	2761.8
3053.80888	2741.6
3056.20519	2751.6
3058.60005	2720.9
3060.99345	2744.7
3063.3854	2730.1
3065.7759	2705.8
3068.16494	2697.6
3070.55254	2699.5
3072.93868	2714.8
3075.32338	2702.2
3077.70662	2691.8
3080.08842	2681.9
3082.46878	2662.4
3084.84769	2689.2
3087.22515	2663.8
3089.60118	2681
3091.97576	2668.1
3094.3489	2674.5
3096.72061	2679.1
3099.09087	2671.5
3101.4597	2671.6
3103.82709	2662.5
3106.19305	2666.8
3108.55757	2660.2
3110.92066	2652.8
3113.28232	2669.2
3115.64255	2665.6
3118.00134	2650.4
3120.35871	2638.9
3122.71466	2624.6
3125.06917	2625.1
3127.42226	2597.5
3129.77393	2593
3132.12417	2615.5
3134.47299	2629.3
3136.82039	2580.8
3139.16636	2555.7
3141.51092	2596.1
3143.85406	2612.1
3146.19579	2585.7
3148.53609	2578.7
3150.87499	2591.5
3153.21246	2577.6
3155.54853	2598.8
3157.88318	2596.5
3160.21642	2602.6
3162.54826	2593.8
3164.87868	2595
3167.2077	2556
3169.5353	2581
3171.86151	2594.8
3174.18631	2579.5
3176.5097	2568.9
3178.83169	2565.5
3181.15228	2565.1
3183.47147	2552.6
3185.78926	2526.1
3188.10565	2552.6
3190.42065	2525.9
3192.73424	2532.8
3195.04645	2526.1
3197.35725	2511.4
3199.66667	2530.1
3201.97469	2520.8
3204.28132	2505
3206.58656	2529
3208.8904	2538.2
3211.19287	2519.5
3213.49394	2511.1
3215.79363	2514.2
3218.09193	2522.9
3220.38884	2518.2
3222.68438	2521.6
3224.97853	2498
3227.2713	2516.2
3229.56269	2502
3231.8527	2504.2
3234.14133	2488
3236.42858	2500.3
3238.71446	2464.8
3240.99896	2482.4
3243.28209	2457.4
3245.56384	2469.6
3247.84423	2457.7
3250.12324	2461.5
3252.40088	2460.5
3254.67715	2453.3
3256.95205	2442.6
3259.22558	2449.9
3261.49775	2446
3263.76855	2453.2
3266.03799	2460.5
3268.30606	2447.6
3270.57277	2455.4
3272.83812	2436.5
3275.10211	2421.2
3277.36474	2454.2
3279.62601	2436.4
3281.88593	2399.4
3284.14448	2386.9
3286.40168	2404
3288.65753	2393.3
3290.91202	2400.7
3293.16516	2375.7
3295.41695	2405.9
3297.66738	2391
3299.91647	2365.2
3302.16421	2359.8
3304.4106	2315.9
3306.65564	2332.8
3308.89933	2305.4
3311.14169	2286.9
3313.38269	2269.4
3315.62236	2258.3
3317.86068	2234.1
3320.09766	2235.6
3322.3333	2189
3324.5676	2179.1
3326.80056	2145.4
3329.03219	2148.3
3331.26248	-0.9
3333.49143	-0
3335.71905	1.9
