Data from AgNPs_UA_5uM_CRN_500uM_SU_RamanShift__89__11-44-13-157.txt Node

Date: Thu Aug 04 11:44:13 BST 2022
User: TCL
Spectrometer: QEP01345
Trigger mode: 4
Integration Time (sec): 1.000000E0
Scans to average: 10
Electric dark correction enabled: true
Nonlinearity correction enabled: false
Boxcar width: 0
XAxis mode: Raman Shifts
Number of Pixels in Spectrum: 1044
>>>>>Begin Spectral Data<<<<<
46.04893	0.8625
50.45542	-0.6375
54.85868	-0.8375
59.25871	-0.4375
63.6555	-64.5375
68.04907	-46.5375
72.43941	-76.2375
76.82654	-62.8375
81.21044	-63.4375
85.59113	-56.1375
89.96862	-82.0375
94.34289	-64.3375
98.71396	-85.6375
103.08183	-66.1375
107.4465	-59.5375
111.80798	-64.7375
116.16626	-53.6375
120.52136	-84.4375
124.87327	-61.7375
129.222	-73.8375
133.56755	-64.0375
137.90993	-76.3375
142.24913	-68.4375
146.58517	-64.2375
150.91804	-65.0375
155.24774	-59.7375
159.57429	-47.1375
163.89768	-57.8375
168.21792	-30.9375
172.53501	-37.6375
176.84895	0.1625
181.15975	70.5625
185.46741	135.5625
189.77193	198.6625
194.07331	346.3625
198.37157	462.0625
202.6667	582.2625
206.9587	726.5625
211.24758	849.8625
215.53334	971.8625
219.81599	1105.6625
224.09553	1276.1625
228.37195	1440.7625
232.64527	1618.1625
236.91549	1815.9625
241.18261	1972.5625
245.44663	2159.6625
249.70755	2298.0625
253.96539	2436.0625
258.22014	2546.7625
262.4718	2633.9625
266.72039	2686.7625
270.96589	2707.5625
275.20832	2692.9625
279.44768	2660.5625
283.68397	2610.2625
287.91719	2570.1625
292.14735	2548.2625
296.37445	2559.1625
300.59849	2612.0625
304.81948	2637.4625
309.03742	2705.0625
313.25231	2750.9625
317.46415	2777.1625
321.67296	2688.2625
325.87872	2603.2625
330.08145	2579.8625
334.28114	2597.2625
338.47781	2619.8625
342.67145	2673.3625
346.86207	2744.1625
351.04966	2846.5625
355.23424	2931.4625
359.4158	3021.0625
363.59435	3026.0625
367.76989	3020.8625
371.94243	3016.3625
376.11196	3013.4625
380.27849	3031.7625
384.44203	3032.5625
388.60257	3048.5625
392.76012	3068.7625
396.91468	3126.7625
401.06626	3186.1625
405.21485	3173.9625
409.36047	3175.4625
413.50311	3152.4625
417.64277	3130.7625
421.77947	3080.4625
425.9132	3091.0625
430.04396	3089.2625
434.17176	3128.6625
438.2966	3168.8625
442.41849	3193.9625
446.53742	3238.0625
450.6534	3259.6625
454.76644	3292.5625
458.87653	3327.8625
462.98368	3310.9625
467.08789	3315.3625
471.18916	3310.6625
475.2875	3319.7625
479.38291	3344.1625
483.4754	3332.2625
487.56496	3345.0625
491.6516	3334.2625
495.73531	3340.6625
499.81612	3346.6625
503.89401	3395.4625
507.96899	3401.3625
512.04106	3422.8625
516.11023	3462.8625
520.1765	3487.7625
524.23987	3507.5625
528.30034	3521.5625
532.35792	3486.0625
536.41261	3507.7625
540.46441	3511.8625
544.51333	3507.5625
548.55936	3517.7625
552.60252	3584.4625
556.64279	3582.6625
560.6802	3643.7625
564.71473	3676.5625
568.7464	3731.2625
572.7752	3743.5625
576.80114	3663.2625
580.82422	3635.8625
584.84444	3620.0625
588.86181	3614.2625
592.87633	3630.2625
596.888	3669.9625
600.89682	3745.3625
604.9028	3944.1625
608.90594	4310.9625
612.90624	4762.2625
616.90371	4597.9625
620.89834	4062.2625
624.89015	3847.1625
628.87913	3818.9625
632.86528	3866.4625
636.84862	3910.3625
640.82913	3906.2625
644.80683	3835.8625
648.78172	3819.0625
652.75379	3849.2625
656.72306	3911.0625
660.68952	3959.5625
664.65319	3963.7625
668.61405	3923.3625
672.57211	3917.1625
676.52738	3947.4625
680.47986	3944.9625
684.42955	3932.0625
688.37646	3952.3625
692.32058	3959.2625
696.26192	3985.3625
700.20048	4021.7625
704.13626	4028.4625
708.06928	4012.3625
711.99952	4043.7625
715.927	4037.8625
719.85171	4057.5625
723.77365	4077.5625
727.69284	4084.9625
731.60928	4094.9625
735.52295	4079.0625
739.43388	4106.3625
743.34206	4127.9625
747.24749	4144.4625
751.15017	4163.2625
755.05012	4164.4625
758.94733	4245.8625
762.8418	4406.9625
766.73354	4618.6625
770.62254	4791.4625
774.50882	4748.9625
778.39237	4661.7625
782.27321	4573.8625
786.15132	4424.8625
790.02671	4325.6625
793.89938	4214.4625
797.76935	4255.7625
801.6366	4244.1625
805.50115	4229.2625
809.36299	4257.2625
813.22213	4269.3625
817.07857	4280.8625
820.93231	4268.6625
824.78336	4283.7625
828.63172	4294.0625
832.47738	4297.0625
836.32036	4338.9625
840.16066	4332.8625
843.99827	4340.6625
847.8332	4331.9625
851.66546	4338.8625
855.49504	4344.3625
859.32195	4377.9625
863.1462	4376.4625
866.96777	4385.8625
870.78668	4380.7625
874.60293	4403.4625
878.41652	4408.2625
882.22745	4450.5625
886.03573	4451.0625
889.84136	4437.2625
893.64433	4469.1625
897.44466	4462.9625
901.24235	4469.4625
905.0374	4497.9625
908.8298	4459.1625
912.61957	4456.5625
916.40671	4427.5625
920.19121	4457.6625
923.97308	4495.1625
927.75233	4489.3625
931.52895	4493.9625
935.30295	4526.4625
939.07433	4502.2625
942.84309	4449.1625
946.60924	4471.8625
950.37278	4449.9625
954.13371	4474.1625
957.89203	4468.5625
961.64774	4489.9625
965.40086	4478.2625
969.15137	4448.3625
972.89929	4491.4625
976.64461	4465.5625
980.38733	4487.8625
984.12747	4479.7625
987.86502	4491.7625
991.59999	4484.1625
995.33237	4526.8625
999.06217	4544.3625
1002.78939	4558.0625
1006.51404	4590.0625
1010.23611	4610.3625
1013.95561	4638.8625
1017.67255	4624.6625
1021.38692	4626.2625
1025.09872	4629.8625
1028.80796	4606.7625
1032.51465	4613.9625
1036.21877	4609.4625
1039.92035	4631.3625
1043.61937	4629.9625
1047.31584	4668.1625
1051.00976	4680.9625
1054.70114	4705.7625
1058.38998	4707.4625
1062.07627	4717.0625
1065.76003	4714.5625
1069.44126	4751.5625
1073.11995	4747.4625
1076.79611	4814.5625
1080.46974	4837.1625
1084.14085	4870.5625
1087.80943	4896.6625
1091.47549	4922.7625
1095.13903	4886.6625
1098.80005	4885.7625
1102.45857	4875.9625
1106.11456	4867.5625
1109.76805	4809.3625
1113.41903	4856.8625
1117.06751	4868.8625
1120.71348	4911.8625
1124.35696	4993.6625
1127.99793	5053.3625
1131.63641	5024.4625
1135.2724	4937.9625
1138.90589	4901.7625
1142.5369	4843.7625
1146.16542	4833.9625
1149.79145	4809.4625
1153.415	4798.0625
1157.03607	4776.4625
1160.65467	4802.4625
1164.27079	4845.0625
1167.88443	4852.1625
1171.49561	4974.0625
1175.10432	5068.4625
1178.71056	5225.7625
1182.31434	5357.2625
1185.91565	5383.2625
1189.51451	5371.0625
1193.11091	5286.4625
1196.70485	5285.1625
1200.29634	5227.2625
1203.88538	5193.8625
1207.47197	5102.3625
1211.05612	5042.0625
1214.63782	4988.7625
1218.21708	4970.7625
1221.79391	4944.0625
1225.36829	4902.1625
1228.94024	4938.0625
1232.50976	4936.5625
1236.07685	4960.3625
1239.6415	4960.3625
1243.20374	4967.8625
1246.76355	4993.9625
1250.32093	5040.5625
1253.8759	5046.7625
1257.42845	5104.4625
1260.97859	5134.7625
1264.52631	5203.4625
1268.07163	5200.4625
1271.61453	5229.6625
1275.15503	5227.8625
1278.69312	5195.3625
1282.22882	5216.8625
1285.76211	5276.0625
1289.29301	5291.1625
1292.82151	5349.1625
1296.34761	5362.7625
1299.87133	5418.5625
1303.39266	5534.3625
1306.9116	5717.2625
1310.42815	5963.0625
1313.94233	6095.6625
1317.45412	5933.2625
1320.96354	5752.5625
1324.47058	5547.1625
1327.97525	5402.7625
1331.47754	5314.8625
1334.97747	5290.6625
1338.47502	5294.4625
1341.97022	5335.0625
1345.46305	5490.9625
1348.95352	5658.7625
1352.44163	5850.0625
1355.92738	5983.2625
1359.41078	6260.5625
1362.89183	6546.7625
1366.37053	6484.0625
1369.84688	5988.9625
1373.32088	5550.2625
1376.79254	5340.1625
1380.26186	5201.7625
1383.72883	5131.1625
1387.19347	5021.1625
1390.65578	4953.9625
1394.11575	4898.3625
1397.57339	4870.8625
1401.0287	4863.4625
1404.48168	4875.7625
1407.93234	4865.1625
1411.38068	4869.1625
1414.82669	4878.1625
1418.27039	4914.2625
1421.71177	4909.7625
1425.15083	4885.5625
1428.58758	4872.2625
1432.02203	4876.4625
1435.45416	4914.4625
1438.88399	4878.1625
1442.31151	4847.4625
1445.73673	4851.0625
1449.15965	4830.4625
1452.58027	4828.7625
1455.9986	4843.1625
1459.41463	4820.6625
1462.82837	4853.6625
1466.23982	4879.4625
1469.64898	4921.0625
1473.05586	4917.4625
1476.46045	4929.6625
1479.86276	4951.2625
1483.26279	4976.7625
1486.66054	5041.8625
1490.05602	5078.3625
1493.44922	5191.9625
1496.84016	5323.1625
1500.22882	5537.1625
1503.61521	5817.1625
1506.99934	6153.4625
1510.38121	6412.2625
1513.76081	6515.1625
1517.13816	6305.1625
1520.51324	5929.8625
1523.88607	5582.8625
1527.25665	5373.7625
1530.62498	5230.9625
1533.99105	5188.6625
1537.35488	5170.0625
1540.71647	5163.2625
1544.07581	5138.4625
1547.4329	5146.2625
1550.78776	5152.3625
1554.14038	5141.0625
1557.49077	5172.7625
1560.83892	5222.1625
1564.18484	5272.1625
1567.52853	5342.6625
1570.86999	5379.8625
1574.20922	5395.3625
1577.54624	5379.8625
1580.88103	5309.5625
1584.2136	5181.5625
1587.54395	5133.7625
1590.87208	5153.7625
1594.19801	5131.1625
1597.52172	5204.7625
1600.84321	5229.2625
1604.16251	5207.1625
1607.47959	5141.5625
1610.79447	5115.2625
1614.10715	5056.2625
1617.41763	5029.2625
1620.7259	4992.6625
1624.03199	4971.4625
1627.33587	4946.5625
1630.63757	4951.6625
1633.93707	4983.2625
1637.23439	5077.2625
1640.52951	5216.6625
1643.82246	5380.3625
1647.11321	5610.3625
1650.40179	5739.1625
1653.68819	5696.0625
1656.97241	5483.1625
1660.25446	5208.3625
1663.53433	5019.3625
1666.81203	4912.8625
1670.08756	4855.5625
1673.36092	4856.2625
1676.63211	4810.7625
1679.90115	4800.5625
1683.16801	4790.8625
1686.43272	4752.0625
1689.69527	4757.6625
1692.95567	4726.8625
1696.2139	4743.2625
1699.46999	4680.8625
1702.72392	4726.4625
1705.97571	4719.1625
1709.22535	4727.1625
1712.47284	4757.4625
1715.71819	4777.2625
1718.96139	4776.9625
1722.20246	4772.6625
1725.44139	4770.2625
1728.67818	4774.9625
1731.91284	4755.1625
1735.14537	4756.5625
1738.37576	4741.7625
1741.60403	4715.2625
1744.83017	4714.7625
1748.05418	4723.9625
1751.27607	4729.1625
1754.49584	4704.9625
1757.71349	4676.5625
1760.92903	4679.9625
1764.14244	4651.0625
1767.35375	4675.1625
1770.56294	4666.9625
1773.77002	4679.2625
1776.97499	4698.8625
1780.17785	4690.8625
1783.37861	4696.8625
1786.57727	4708.0625
1789.77382	4651.4625
1792.96828	4691.2625
1796.16064	4706.0625
1799.3509	4697.1625
1802.53907	4710.1625
1805.72514	4669.6625
1808.90913	4660.0625
1812.09102	4664.8625
1815.27083	4660.1625
1818.44856	4653.5625
1821.6242	4636.4625
1824.79776	4634.0625
1827.96924	4649.6625
1831.13864	4621.5625
1834.30597	4636.1625
1837.47122	4624.7625
1840.6344	4623.2625
1843.7955	4584.6625
1846.95454	4606.2625
1850.11151	4630.9625
1853.26642	4602.1625
1856.41926	4616.7625
1859.57004	4599.8625
1862.71876	4594.5625
1865.86542	4610.5625
1869.01003	4609.0625
1872.15258	4576.3625
1875.29308	4609.8625
1878.43152	4603.3625
1881.56792	4583.2625
1884.70227	4559.3625
1887.83457	4583.4625
1890.96482	4542.8625
1894.09304	4549.5625
1897.21921	4554.8625
1900.34335	4563.7625
1903.46544	4551.1625
1906.58551	4546.4625
1909.70353	4541.5625
1912.81953	4540.2625
1915.93349	4535.5625
1919.04543	4539.9625
1922.15534	4520.2625
1925.26322	4524.9625
1928.36908	4507.8625
1931.47292	4522.4625
1934.57473	4525.8625
1937.67453	4498.8625
1940.77232	4473.3625
1943.86808	4453.0625
1946.96184	4457.7625
1950.05358	4451.2625
1953.14331	4437.9625
1956.23103	4439.4625
1959.31675	4402.5625
1962.40046	4373.4625
1965.48217	4386.0625
1968.56188	4396.0625
1971.63959	4372.1625
1974.7153	4383.7625
1977.78901	4351.7625
1980.86073	4352.5625
1983.93046	4299.1625
1986.99819	4231.3625
1990.06394	4279.2625
1993.1277	4290.8625
1996.18947	4272.4625
1999.24925	4236.5625
2002.30706	4254.2625
2005.36288	4258.2625
2008.41672	4244.9625
2011.46859	4206.1625
2014.51848	4206.8625
2017.56639	4195.8625
2020.61233	4188.5625
2023.6563	4180.6625
2026.6983	4127.3625
2029.73833	4153.1625
2032.7764	4169.6625
2035.8125	4099.6625
2038.84664	4120.1625
2041.87881	4106.9625
2044.90903	4136.3625
2047.93729	4116.4625
2050.96359	4074.9625
2053.98794	4092.6625
2057.01034	4110.8625
2060.03078	4096.4625
2063.04927	4083.6625
2066.06582	4086.8625
2069.08042	4071.4625
2072.09307	4091.5625
2075.10378	4079.7625
2078.11255	4067.3625
2081.11938	4086.6625
2084.12426	4083.5625
2087.12722	4066.6625
2090.12824	4091.4625
2093.12732	4074.4625
2096.12447	4096.2625
2099.11969	4072.7625
2102.11299	4073.0625
2105.10435	4085.3625
2108.09379	4084.0625
2111.08131	4088.7625
2114.0669	4075.8625
2117.05057	4090.3625
2120.03233	4064.3625
2123.01216	4083.7625
2125.99008	4097.9625
2128.96609	4096.5625
2131.94018	4114.0625
2134.91236	4104.9625
2137.88263	4101.9625
2140.851	4122.2625
2143.81746	4138.8625
2146.78201	4130.4625
2149.74466	4108.3625
2152.7054	4146.0625
2155.66425	4114.5625
2158.6212	4108.2625
2161.57625	4093.4625
2164.52941	4090.7625
2167.48067	4091.4625
2170.43004	4085.5625
2173.37752	4127.7625
2176.32311	4105.3625
2179.26681	4113.6625
2182.20863	4121.7625
2185.14856	4115.8625
2188.08661	4111.2625
2191.02278	4131.4625
2193.95707	4107.9625
2196.88948	4099.1625
2199.82001	4108.6625
2202.74867	4092.8625
2205.67545	4108.7625
2208.60037	4104.2625
2211.52341	4076.8625
2214.44458	4074.2625
2217.36388	4074.5625
2220.28132	4052.6625
2223.1969	4035.4625
2226.11061	4040.5625
2229.02246	4035.6625
2231.93245	4038.6625
2234.84058	4017.8625
2237.74686	4015.8625
2240.65128	4023.5625
2243.55385	4005.6625
2246.45456	3990.5625
2249.35343	4002.6625
2252.25044	3987.6625
2255.14561	3988.3625
2258.03893	3990.9625
2260.93041	3974.3625
2263.82004	3961.7625
2266.70783	3956.6625
2269.59378	3945.8625
2272.4779	3920.1625
2275.36017	3933.6625
2278.24061	3899.5625
2281.11922	3877.6625
2283.996	3891.6625
2286.87094	3864.8625
2289.74405	3893.8625
2292.61534	3889.4625
2295.4848	3881.5625
2298.35243	3883.8625
2301.21824	3851.2625
2304.08223	3873.9625
2306.94439	3878.1625
2309.80474	3886.4625
2312.66327	3865.8625
2315.51999	3864.0625
2318.37489	3855.4625
2321.22797	3839.0625
2324.07925	3831.9625
2326.92871	3828.1625
2329.77637	3820.8625
2332.62222	3812.5625
2335.46626	3785.5625
2338.3085	3793.6625
2341.14893	3804.7625
2343.98756	3798.9625
2346.8244	3779.1625
2349.65943	3774.9625
2352.49267	3765.1625
2355.32411	3763.5625
2358.15376	3762.0625
2360.98161	3779.1625
2363.80768	3746.3625
2366.63195	3770.2625
2369.45444	3757.9625
2372.27514	3757.6625
2375.09405	3763.0625
2377.91118	3728.5625
2380.72652	3722.5625
2383.54009	3718.9625
2386.35187	3721.5625
2389.16188	3713.7625
2391.97011	3699.5625
2394.77657	3690.7625
2397.58125	3717.0625
2400.38416	3687.4625
2403.18529	3692.1625
2405.98466	3667.6625
2408.78226	3684.3625
2411.57809	3663.6625
2414.37216	3641.3625
2417.16446	3651.0625
2419.955	3636.1625
2422.74378	3641.2625
2425.5308	3631.1625
2428.31606	3642.8625
2431.09956	3637.5625
2433.88131	3609.1625
2436.6613	3631.4625
2439.43954	3620.2625
2442.21603	3603.7625
2444.99077	3596.9625
2447.76377	3606.6625
2450.53501	3598.7625
2453.30451	3586.8625
2456.07226	3588.0625
2458.83827	3575.4625
2461.60254	3530.9625
2464.36507	3565.8625
2467.12586	3551.5625
2469.88492	3563.8625
2472.64224	3558.7625
2475.39782	3521.2625
2478.15167	3560.6625
2480.90379	3533.3625
2483.65417	3534.0625
2486.40283	3534.4625
2489.14976	3538.7625
2491.89497	3513.5625
2494.63845	3523.2625
2497.3802	3514.4625
2500.12024	3498.7625
2502.85855	3509.4625
2505.59514	3516.8625
2508.33002	3497.9625
2511.06318	3481.8625
2513.79462	3491.7625
2516.52435	3466.4625
2519.25237	3437.9625
2521.97867	3449.4625
2524.70327	3447.3625
2527.42616	3452.8625
2530.14734	3469.5625
2532.86681	3435.4625
2535.58458	3439.4625
2538.30065	3441.6625
2541.01501	3434.1625
2543.72768	3420.8625
2546.43864	3426.0625
2549.14791	3416.0625
2551.85548	3398.5625
2554.56136	3386.3625
2557.26554	3388.6625
2559.96803	3368.3625
2562.66883	3375.2625
2565.36794	3362.1625
2568.06536	3334.5625
2570.7611	3359.1625
2573.45514	3337.7625
2576.14751	3337.2625
2578.83819	3328.7625
2581.52719	3316.1625
2584.21451	3312.8625
2586.90015	3300.2625
2589.58411	3283.1625
2592.2664	3299.6625
2594.94701	3279.6625
2597.62594	3283.5625
2600.30321	3238.4625
2602.9788	3246.6625
2605.65273	3237.2625
2608.32498	3243.6625
2610.99557	3242.7625
2613.66449	3223.7625
2616.33175	3245.5625
2618.99734	3236.3625
2621.66128	3226.8625
2624.32355	3236.1625
2626.98416	3193.5625
2629.64311	3182.4625
2632.30041	3204.9625
2634.95605	3173.7625
2637.61004	3166.8625
2640.26238	3145.5625
2642.91306	3155.5625
2645.56209	3181.5625
2648.20948	3170.2625
2650.85521	3154.3625
2653.4993	3172.6625
2656.14175	3155.8625
2658.78255	3140.2625
2661.42171	3098.5625
2664.05923	3158.0625
2666.6951	3158.2625
2669.32934	3151.1625
2671.96194	3158.5625
2674.59291	3146.1625
2677.22224	3161.3625
2679.84993	3141.3625
2682.476	3133.8625
2685.10043	3134.0625
2687.72324	3112.0625
2690.34441	3132.1625
2692.96396	3133.4625
2695.58188	3137.8625
2698.19818	3136.4625
2700.81285	3119.1625
2703.4259	3120.0625
2706.03733	3079.2625
2708.64714	3080.5625
2711.25533	3117.7625
2713.86191	3106.5625
2716.46687	3108.7625
2719.07021	3111.5625
2721.67194	3106.1625
2724.27206	3122.6625
2726.87057	3108.1625
2729.46747	3091.0625
2732.06276	3102.3625
2734.65644	3086.8625
2737.24852	3094.9625
2739.83899	3076.0625
2742.42786	3093.2625
2745.01513	3098.9625
2747.60079	3060.9625
2750.18486	3065.8625
2752.76733	3062.6625
2755.3482	3058.4625
2757.92747	3046.1625
2760.50515	3038.5625
2763.08123	3030.4625
2765.65573	3032.4625
2768.22863	3024.7625
2770.79994	3025.0625
2773.36967	3011.8625
2775.9378	2996.7625
2778.50435	3004.6625
2781.06932	2991.4625
2783.6327	2987.2625
2786.1945	3003.0625
2788.75471	2979.6625
2791.31335	2983.9625
2793.87041	2965.4625
2796.42589	2948.0625
2798.97979	2929.0625
2801.53212	2945.8625
2804.08288	2960.0625
2806.63206	2925.9625
2809.17967	2916.3625
2811.72571	2920.8625
2814.27018	2905.5625
2816.81308	2886.9625
2819.35442	2864.1625
2821.89419	2871.7625
2824.43239	2863.4625
2826.96904	2885.3625
2829.50412	2856.5625
2832.03763	2860.1625
2834.56959	2871.4625
2837.1	2858.5625
2839.62884	2864.2625
2842.15613	2859.4625
2844.68186	2868.5625
2847.20604	2829.8625
2849.72867	2827.0625
2852.24974	2827.9625
2854.76927	2791.0625
2857.28724	2759.0625
2859.80367	2810.1625
2862.31855	2808.0625
2864.83189	2799.9625
2867.34368	2797.1625
2869.85393	2796.4625
2872.36264	2765.5625
2874.8698	2779.2625
2877.37543	2786.5625
2879.87952	2790.2625
2882.38207	2755.4625
2884.88308	2766.2625
2887.38256	2779.0625
2889.88051	2766.9625
2892.37692	2777.6625
2894.8718	2753.9625
2897.36515	2773.7625
2899.85698	2752.8625
2902.34727	2755.2625
2904.83604	2739.9625
2907.32328	2761.2625
2909.809	2750.1625
2912.29319	2746.7625
2914.77587	2755.0625
2917.25702	2751.3625
2919.73665	2761.3625
2922.21476	2760.2625
2924.69136	2760.5625
2927.16644	2744.9625
2929.64	2751.6625
2932.11205	2737.1625
2934.58258	2747.6625
2937.05161	2734.4625
2939.51912	2740.4625
2941.98513	2749.0625
2944.44962	2748.4625
2946.91261	2699.2625
2949.37409	2721.5625
2951.83407	2708.0625
2954.29254	2718.5625
2956.74951	2730.1625
2959.20498	2708.5625
2961.65895	2716.1625
2964.11142	2702.3625
2966.56239	2715.5625
2969.01186	2714.5625
2971.45984	2716.4625
2973.90632	2687.8625
2976.35131	2699.8625
2978.7948	2708.4625
2981.23681	2690.1625
2983.67732	2702.5625
2986.11635	2686.4625
2988.55388	2660.5625
2990.98993	2669.4625
2993.4245	2661.0625
2995.85758	2650.4625
2998.28917	2643.9625
3000.71928	2631.6625
3003.14791	2637.3625
3005.57506	2620.9625
3008.00073	2611.4625
3010.42493	2561.9625
3012.84764	2614.8625
3015.26888	2622.5625
3017.68865	2607.2625
3020.10694	2577.5625
3022.52376	2595.2625
3024.9391	2582.7625
3027.35298	2580.1625
3029.76539	2568.6625
3032.17632	2567.6625
3034.5858	2568.0625
3036.9938	2581.4625
3039.40034	2565.8625
3041.80542	2566.9625
3044.20903	2551.0625
3046.61118	2552.8625
3049.01187	2551.5625
3051.4111	2539.2625
3053.80888	2524.7625
3056.20519	2532.6625
3058.60005	2504.4625
3060.99345	2531.2625
3063.3854	2502.0625
3065.7759	2488.5625
3068.16494	2487.5625
3070.55254	2469.8625
3072.93868	2497.6625
3075.32338	2474.2625
3077.70662	2481.0625
3080.08842	2465.5625
3082.46878	2463.6625
3084.84769	2470.7625
3087.22515	2456.0625
3089.60118	2471.9625
3091.97576	2453.3625
3094.3489	2472.8625
3096.72061	2461.1625
3099.09087	2452.9625
3101.4597	2454.3625
3103.82709	2445.5625
3106.19305	2440.5625
3108.55757	2447.3625
3110.92066	2433.8625
3113.28232	2460.1625
3115.64255	2437.3625
3118.00134	2432.5625
3120.35871	2414.6625
3122.71466	2405.5625
3125.06917	2421.4625
3127.42226	2395.4625
3129.77393	2387.8625
3132.12417	2395.7625
3134.47299	2397.4625
3136.82039	2386.9625
3139.16636	2361.7625
3141.51092	2384.5625
3143.85406	2395.3625
3146.19579	2371.8625
3148.53609	2367.2625
3150.87499	2375.0625
3153.21246	2374.7625
3155.54853	2387.6625
3157.88318	2379.4625
3160.21642	2386.7625
3162.54826	2374.8625
3164.87868	2387.7625
3167.2077	2347.5625
3169.5353	2364.3625
3171.86151	2386.8625
3174.18631	2368.2625
3176.5097	2368.9625
3178.83169	2363.9625
3181.15228	2364.8625
3183.47147	2344.3625
3185.78926	2321.3625
3188.10565	2341.8625
3190.42065	2313.8625
3192.73424	2333.1625
3195.04645	2330.5625
3197.35725	2310.4625
3199.66667	2319.2625
3201.97469	2321.4625
3204.28132	2307.4625
3206.58656	2318.9625
3208.8904	2330.2625
3211.19287	2327.6625
3213.49394	2314.1625
3215.79363	2304.7625
3218.09193	2315.6625
3220.38884	2312.0625
3222.68438	2315.2625
3224.97853	2292.9625
3227.2713	2308.9625
3229.56269	2304.1625
3231.8527	2298.0625
3234.14133	2290.9625
3236.42858	2285.9625
3238.71446	2272.4625
3240.99896	2281.7625
3243.28209	2267.2625
3245.56384	2281.0625
3247.84423	2244.6625
3250.12324	2263.8625
3252.40088	2255.5625
3254.67715	2245.6625
3256.95205	2241.3625
3259.22558	2258.4625
3261.49775	2254.7625
3263.76855	2256.7625
3266.03799	2255.0625
3268.30606	2254.5625
3270.57277	2249.2625
3272.83812	2235.7625
3275.10211	2231.9625
3277.36474	2248.7625
3279.62601	2232.5625
3281.88593	2204.7625
3284.14448	2188.6625
3286.40168	2209.1625
3288.65753	2189.3625
3290.91202	2193.6625
3293.16516	2176.8625
3295.41695	2203.3625
3297.66738	2193.8625
3299.91647	2176.6625
3302.16421	2168.0625
3304.4106	2127.8625
3306.65564	2146.6625
3308.89933	2112.1625
3311.14169	2103.9625
3313.38269	2092.0625
3315.62236	2083.4625
3317.86068	2054.2625
3320.09766	2047.3625
3322.3333	2009.9625
3324.5676	2005.0625
3326.80056	1968.9625
3329.03219	1965.7625
3331.26248	-0.3375
3333.49143	0.1625
3335.71905	0.8625
