Data from AgNPs_UA_5uM_CRN_500uM_SU_RamanShift__90__11-44-23-157.txt Node

Date: Thu Aug 04 11:44:23 BST 2022
User: TCL
Spectrometer: QEP01345
Trigger mode: 4
Integration Time (sec): 1.000000E0
Scans to average: 10
Electric dark correction enabled: true
Nonlinearity correction enabled: false
Boxcar width: 0
XAxis mode: Raman Shifts
Number of Pixels in Spectrum: 1044
>>>>>Begin Spectral Data<<<<<
46.04893	-0.1375
50.45542	-0.6375
54.85868	0.7625
59.25871	-0.5375
63.6555	-64.8375
68.04907	-46.8375
72.43941	-78.0375
76.82654	-64.4375
81.21044	-62.5375
85.59113	-57.6375
89.96862	-83.2375
94.34289	-62.9375
98.71396	-83.8375
103.08183	-65.3375
107.4465	-57.3375
111.80798	-64.1375
116.16626	-56.2375
120.52136	-83.6375
124.87327	-61.2375
129.222	-76.3375
133.56755	-63.9375
137.90993	-77.6375
142.24913	-69.3375
146.58517	-65.0375
150.91804	-64.5375
155.24774	-60.6375
159.57429	-49.3375
163.89768	-59.5375
168.21792	-33.1375
172.53501	-41.7375
176.84895	-2.0375
181.15975	65.4625
185.46741	124.8625
189.77193	186.0625
194.07331	330.7625
198.37157	442.5625
202.6667	550.2625
206.9587	693.7625
211.24758	812.8625
215.53334	938.6625
219.81599	1068.1625
224.09553	1226.7625
228.37195	1384.2625
232.64527	1557.0625
236.91549	1744.9625
241.18261	1903.5625
245.44663	2074.0625
249.70755	2218.8625
253.96539	2341.9625
258.22014	2462.0625
262.4718	2546.5625
266.72039	2607.6625
270.96589	2608.7625
275.20832	2603.9625
279.44768	2565.5625
283.68397	2522.6625
287.91719	2478.1625
292.14735	2468.4625
296.37445	2490.4625
300.59849	2527.2625
304.81948	2554.8625
309.03742	2606.2625
313.25231	2650.9625
317.46415	2680.3625
321.67296	2596.7625
325.87872	2533.8625
330.08145	2516.8625
334.28114	2517.9625
338.47781	2541.9625
342.67145	2580.9625
346.86207	2645.9625
351.04966	2749.8625
355.23424	2841.5625
359.4158	2916.7625
363.59435	2911.7625
367.76989	2909.4625
371.94243	2919.0625
376.11196	2916.8625
380.27849	2922.4625
384.44203	2916.5625
388.60257	2947.0625
392.76012	2962.8625
396.91468	3024.6625
401.06626	3079.4625
405.21485	3083.7625
409.36047	3073.2625
413.50311	3037.9625
417.64277	3016.5625
421.77947	2990.5625
425.9132	2995.3625
430.04396	3007.2625
434.17176	3029.8625
438.2966	3074.6625
442.41849	3115.7625
446.53742	3140.2625
450.6534	3163.7625
454.76644	3202.8625
458.87653	3222.5625
462.98368	3225.6625
467.08789	3217.6625
471.18916	3226.7625
475.2875	3240.5625
479.38291	3235.2625
483.4754	3247.3625
487.56496	3252.8625
491.6516	3235.3625
495.73531	3248.4625
499.81612	3262.3625
503.89401	3298.8625
507.96899	3296.9625
512.04106	3337.6625
516.11023	3364.0625
520.1765	3394.9625
524.23987	3392.5625
528.30034	3422.6625
532.35792	3394.0625
536.41261	3409.2625
540.46441	3423.1625
544.51333	3406.7625
548.55936	3427.5625
552.60252	3460.3625
556.64279	3483.4625
560.6802	3542.3625
564.71473	3584.5625
568.7464	3610.5625
572.7752	3624.2625
576.80114	3562.6625
580.82422	3544.4625
584.84444	3514.0625
588.86181	3535.5625
592.87633	3546.5625
596.888	3576.2625
600.89682	3653.6625
604.9028	3837.1625
608.90594	4157.5625
612.90624	4559.9625
616.90371	4440.2625
620.89834	3954.1625
624.89015	3751.0625
628.87913	3717.4625
632.86528	3772.0625
636.84862	3813.3625
640.82913	3809.5625
644.80683	3743.1625
648.78172	3730.1625
652.75379	3768.2625
656.72306	3806.0625
660.68952	3857.2625
664.65319	3860.3625
668.61405	3819.1625
672.57211	3825.8625
676.52738	3853.5625
680.47986	3836.2625
684.42955	3845.0625
688.37646	3855.8625
692.32058	3863.8625
696.26192	3888.3625
700.20048	3914.1625
704.13626	3931.7625
708.06928	3927.8625
711.99952	3962.9625
715.927	3940.3625
719.85171	3956.4625
723.77365	3992.2625
727.69284	3983.4625
731.60928	4011.7625
735.52295	3995.1625
739.43388	4008.3625
743.34206	4035.2625
747.24749	4066.1625
751.15017	4080.3625
755.05012	4063.3625
758.94733	4155.6625
762.8418	4286.8625
766.73354	4485.4625
770.62254	4639.3625
774.50882	4601.1625
778.39237	4551.1625
782.27321	4445.9625
786.15132	4321.7625
790.02671	4222.1625
793.89938	4134.3625
797.76935	4160.0625
801.6366	4142.3625
805.50115	4132.0625
809.36299	4152.0625
813.22213	4165.5625
817.07857	4171.3625
820.93231	4173.3625
824.78336	4196.4625
828.63172	4200.9625
832.47738	4211.2625
836.32036	4242.6625
840.16066	4230.9625
843.99827	4226.7625
847.8332	4233.2625
851.66546	4248.2625
855.49504	4229.0625
859.32195	4287.5625
863.1462	4291.3625
866.96777	4297.1625
870.78668	4280.7625
874.60293	4312.8625
878.41652	4306.5625
882.22745	4359.2625
886.03573	4372.3625
889.84136	4361.2625
893.64433	4384.1625
897.44466	4382.8625
901.24235	4365.9625
905.0374	4402.4625
908.8298	4376.4625
912.61957	4384.3625
916.40671	4326.3625
920.19121	4353.5625
923.97308	4393.1625
927.75233	4391.2625
931.52895	4399.3625
935.30295	4445.8625
939.07433	4421.2625
942.84309	4372.0625
946.60924	4405.6625
950.37278	4367.1625
954.13371	4364.6625
957.89203	4361.2625
961.64774	4386.9625
965.40086	4374.9625
969.15137	4360.8625
972.89929	4388.4625
976.64461	4379.5625
980.38733	4396.1625
984.12747	4405.0625
987.86502	4380.0625
991.59999	4405.0625
995.33237	4450.9625
999.06217	4455.7625
1002.78939	4472.3625
1006.51404	4506.3625
1010.23611	4519.5625
1013.95561	4531.9625
1017.67255	4535.2625
1021.38692	4544.3625
1025.09872	4539.6625
1028.80796	4494.6625
1032.51465	4536.3625
1036.21877	4509.4625
1039.92035	4551.0625
1043.61937	4550.1625
1047.31584	4563.9625
1051.00976	4589.8625
1054.70114	4615.3625
1058.38998	4629.1625
1062.07627	4618.8625
1065.76003	4628.6625
1069.44126	4658.9625
1073.11995	4660.5625
1076.79611	4694.9625
1080.46974	4737.7625
1084.14085	4787.9625
1087.80943	4785.9625
1091.47549	4798.0625
1095.13903	4808.0625
1098.80005	4796.0625
1102.45857	4746.5625
1106.11456	4766.2625
1109.76805	4720.3625
1113.41903	4754.1625
1117.06751	4778.3625
1120.71348	4808.1625
1124.35696	4890.2625
1127.99793	4934.1625
1131.63641	4916.1625
1135.2724	4861.7625
1138.90589	4809.2625
1142.5369	4736.4625
1146.16542	4738.2625
1149.79145	4719.5625
1153.415	4697.1625
1157.03607	4693.1625
1160.65467	4711.2625
1164.27079	4766.0625
1167.88443	4782.2625
1171.49561	4864.5625
1175.10432	4964.9625
1178.71056	5092.5625
1182.31434	5234.3625
1185.91565	5266.4625
1189.51451	5224.2625
1193.11091	5180.8625
1196.70485	5150.7625
1200.29634	5128.1625
1203.88538	5085.5625
1207.47197	4995.9625
1211.05612	4949.0625
1214.63782	4890.8625
1218.21708	4883.5625
1221.79391	4862.3625
1225.36829	4825.4625
1228.94024	4827.2625
1232.50976	4863.2625
1236.07685	4874.9625
1239.6415	4862.1625
1243.20374	4886.1625
1246.76355	4897.1625
1250.32093	4950.8625
1253.8759	4934.6625
1257.42845	5015.4625
1260.97859	5026.9625
1264.52631	5094.0625
1268.07163	5099.7625
1271.61453	5131.9625
1275.15503	5122.2625
1278.69312	5100.6625
1282.22882	5109.3625
1285.76211	5170.2625
1289.29301	5184.2625
1292.82151	5238.3625
1296.34761	5266.1625
1299.87133	5308.4625
1303.39266	5422.4625
1306.9116	5591.7625
1310.42815	5802.3625
1313.94233	5916.7625
1317.45412	5787.3625
1320.96354	5594.3625
1324.47058	5431.2625
1327.97525	5277.6625
1331.47754	5211.9625
1334.97747	5162.4625
1338.47502	5162.7625
1341.97022	5235.6625
1345.46305	5371.1625
1348.95352	5537.5625
1352.44163	5703.7625
1355.92738	5838.0625
1359.41078	6070.6625
1362.89183	6347.2625
1366.37053	6270.9625
1369.84688	5832.9625
1373.32088	5435.0625
1376.79254	5213.5625
1380.26186	5105.6625
1383.72883	5017.3625
1387.19347	4940.6625
1390.65578	4856.8625
1394.11575	4817.8625
1397.57339	4797.9625
1401.0287	4780.4625
1404.48168	4761.0625
1407.93234	4793.6625
1411.38068	4758.5625
1414.82669	4802.5625
1418.27039	4819.7625
1421.71177	4831.1625
1425.15083	4791.2625
1428.58758	4770.8625
1432.02203	4793.7625
1435.45416	4817.0625
1438.88399	4789.1625
1442.31151	4751.5625
1445.73673	4760.3625
1449.15965	4764.8625
1452.58027	4743.4625
1455.9986	4755.3625
1459.41463	4764.4625
1462.82837	4772.2625
1466.23982	4793.3625
1469.64898	4821.7625
1473.05586	4828.4625
1476.46045	4859.2625
1479.86276	4860.0625
1483.26279	4894.1625
1486.66054	4939.2625
1490.05602	4987.7625
1493.44922	5079.2625
1496.84016	5208.8625
1500.22882	5428.7625
1503.61521	5665.4625
1506.99934	5971.0625
1510.38121	6210.2625
1513.76081	6282.6625
1517.13816	6122.3625
1520.51324	5755.1625
1523.88607	5441.1625
1527.25665	5268.9625
1530.62498	5127.8625
1533.99105	5097.3625
1537.35488	5080.0625
1540.71647	5051.5625
1544.07581	5049.3625
1547.4329	5049.2625
1550.78776	5048.4625
1554.14038	5049.3625
1557.49077	5051.6625
1560.83892	5108.7625
1564.18484	5162.1625
1567.52853	5222.2625
1570.86999	5301.1625
1574.20922	5300.5625
1577.54624	5281.8625
1580.88103	5195.5625
1584.2136	5054.2625
1587.54395	5043.5625
1590.87208	5046.8625
1594.19801	5023.9625
1597.52172	5113.1625
1600.84321	5131.4625
1604.16251	5101.3625
1607.47959	5053.3625
1610.79447	5024.1625
1614.10715	4980.1625
1617.41763	4951.2625
1620.7259	4903.5625
1624.03199	4899.4625
1627.33587	4876.3625
1630.63757	4881.2625
1633.93707	4904.8625
1637.23439	4977.2625
1640.52951	5104.2625
1643.82246	5289.2625
1647.11321	5480.4625
1650.40179	5611.6625
1653.68819	5546.8625
1656.97241	5346.7625
1660.25446	5112.9625
1663.53433	4942.6625
1666.81203	4835.2625
1670.08756	4781.5625
1673.36092	4792.0625
1676.63211	4744.6625
1679.90115	4738.1625
1683.16801	4731.5625
1686.43272	4671.8625
1689.69527	4695.4625
1692.95567	4647.5625
1696.2139	4656.1625
1699.46999	4637.0625
1702.72392	4650.3625
1705.97571	4663.5625
1709.22535	4655.9625
1712.47284	4691.9625
1715.71819	4698.3625
1718.96139	4700.5625
1722.20246	4710.6625
1725.44139	4695.3625
1728.67818	4722.2625
1731.91284	4685.0625
1735.14537	4683.3625
1738.37576	4663.6625
1741.60403	4677.1625
1744.83017	4651.6625
1748.05418	4667.7625
1751.27607	4682.0625
1754.49584	4631.4625
1757.71349	4623.1625
1760.92903	4629.0625
1764.14244	4594.4625
1767.35375	4614.9625
1770.56294	4609.8625
1773.77002	4605.6625
1776.97499	4628.4625
1780.17785	4613.5625
1783.37861	4629.4625
1786.57727	4648.3625
1789.77382	4588.7625
1792.96828	4634.3625
1796.16064	4631.5625
1799.3509	4622.5625
1802.53907	4643.2625
1805.72514	4614.6625
1808.90913	4591.9625
1812.09102	4596.4625
1815.27083	4604.2625
1818.44856	4581.7625
1821.6242	4585.1625
1824.79776	4583.9625
1827.96924	4567.3625
1831.13864	4567.4625
1834.30597	4583.8625
1837.47122	4561.0625
1840.6344	4545.0625
1843.7955	4537.1625
1846.95454	4543.9625
1850.11151	4570.2625
1853.26642	4532.0625
1856.41926	4550.9625
1859.57004	4551.3625
1862.71876	4543.0625
1865.86542	4558.4625
1869.01003	4538.6625
1872.15258	4518.8625
1875.29308	4535.3625
1878.43152	4540.8625
1881.56792	4533.1625
1884.70227	4491.6625
1887.83457	4507.2625
1890.96482	4494.2625
1894.09304	4497.5625
1897.21921	4497.2625
1900.34335	4522.1625
1903.46544	4478.9625
1906.58551	4485.3625
1909.70353	4498.2625
1912.81953	4472.2625
1915.93349	4468.2625
1919.04543	4463.8625
1922.15534	4451.2625
1925.26322	4453.4625
1928.36908	4466.7625
1931.47292	4447.9625
1934.57473	4463.2625
1937.67453	4447.8625
1940.77232	4429.2625
1943.86808	4420.5625
1946.96184	4425.3625
1950.05358	4381.2625
1953.14331	4379.4625
1956.23103	4382.1625
1959.31675	4354.7625
1962.40046	4301.0625
1965.48217	4334.3625
1968.56188	4317.9625
1971.63959	4316.6625
1974.7153	4314.2625
1977.78901	4294.0625
1980.86073	4279.3625
1983.93046	4246.3625
1986.99819	4192.2625
1990.06394	4215.7625
1993.1277	4236.5625
1996.18947	4227.3625
1999.24925	4207.9625
2002.30706	4208.8625
2005.36288	4207.0625
2008.41672	4192.3625
2011.46859	4158.8625
2014.51848	4149.3625
2017.56639	4153.1625
2020.61233	4132.9625
2023.6563	4128.4625
2026.6983	4098.7625
2029.73833	4088.4625
2032.7764	4105.0625
2035.8125	4069.4625
2038.84664	4065.6625
2041.87881	4063.8625
2044.90903	4068.7625
2047.93729	4056.9625
2050.96359	4034.7625
2053.98794	4052.4625
2057.01034	4053.0625
2060.03078	4033.1625
2063.04927	4035.2625
2066.06582	4046.1625
2069.08042	4031.5625
2072.09307	4037.9625
2075.10378	4040.1625
2078.11255	4031.5625
2081.11938	4024.1625
2084.12426	4028.3625
2087.12722	4030.0625
2090.12824	4027.0625
2093.12732	4028.9625
2096.12447	4025.4625
2099.11969	4030.9625
2102.11299	4025.4625
2105.10435	4037.3625
2108.09379	4034.9625
2111.08131	4032.6625
2114.0669	4031.0625
2117.05057	4028.8625
2120.03233	4008.8625
2123.01216	4054.4625
2125.99008	4049.2625
2128.96609	4054.0625
2131.94018	4059.8625
2134.91236	4051.9625
2137.88263	4057.5625
2140.851	4055.3625
2143.81746	4082.1625
2146.78201	4064.1625
2149.74466	4061.4625
2152.7054	4092.3625
2155.66425	4080.8625
2158.6212	4064.8625
2161.57625	4033.9625
2164.52941	4027.8625
2167.48067	4057.1625
2170.43004	4053.9625
2173.37752	4066.2625
2176.32311	4052.7625
2179.26681	4062.2625
2182.20863	4073.4625
2185.14856	4062.7625
2188.08661	4055.1625
2191.02278	4063.4625
2193.95707	4065.7625
2196.88948	4042.1625
2199.82001	4038.0625
2202.74867	4041.3625
2205.67545	4042.3625
2208.60037	4047.1625
2211.52341	4030.9625
2214.44458	4020.3625
2217.36388	4026.3625
2220.28132	4024.7625
2223.1969	3980.6625
2226.11061	3992.6625
2229.02246	3982.7625
2231.93245	3995.2625
2234.84058	3968.3625
2237.74686	3959.1625
2240.65128	3960.1625
2243.55385	3969.0625
2246.45456	3936.7625
2249.35343	3954.6625
2252.25044	3939.6625
2255.14561	3939.0625
2258.03893	3934.2625
2260.93041	3932.3625
2263.82004	3919.0625
2266.70783	3920.9625
2269.59378	3903.8625
2272.4779	3871.6625
2275.36017	3881.0625
2278.24061	3873.1625
2281.11922	3839.9625
2283.996	3865.0625
2286.87094	3836.5625
2289.74405	3853.9625
2292.61534	3843.5625
2295.4848	3840.2625
2298.35243	3831.6625
2301.21824	3828.9625
2304.08223	3827.8625
2306.94439	3837.1625
2309.80474	3835.1625
2312.66327	3825.8625
2315.51999	3796.6625
2318.37489	3804.4625
2321.22797	3784.2625
2324.07925	3791.8625
2326.92871	3781.3625
2329.77637	3774.1625
2332.62222	3764.6625
2335.46626	3742.5625
2338.3085	3743.9625
2341.14893	3748.0625
2343.98756	3763.4625
2346.8244	3738.0625
2349.65943	3714.8625
2352.49267	3725.4625
2355.32411	3722.9625
2358.15376	3712.8625
2360.98161	3716.1625
2363.80768	3699.7625
2366.63195	3707.5625
2369.45444	3712.8625
2372.27514	3719.8625
2375.09405	3713.3625
2377.91118	3675.0625
2380.72652	3679.2625
2383.54009	3674.2625
2386.35187	3680.7625
2389.16188	3661.9625
2391.97011	3655.1625
2394.77657	3652.3625
2397.58125	3652.1625
2400.38416	3649.4625
2403.18529	3633.9625
2405.98466	3621.4625
2408.78226	3627.1625
2411.57809	3619.2625
2414.37216	3607.1625
2417.16446	3606.3625
2419.955	3584.2625
2422.74378	3609.9625
2425.5308	3592.7625
2428.31606	3597.4625
2431.09956	3596.2625
2433.88131	3558.8625
2436.6613	3576.6625
2439.43954	3579.1625
2442.21603	3552.5625
2444.99077	3544.8625
2447.76377	3569.2625
2450.53501	3551.2625
2453.30451	3545.0625
2456.07226	3547.6625
2458.83827	3531.5625
2461.60254	3502.9625
2464.36507	3518.5625
2467.12586	3491.6625
2469.88492	3506.9625
2472.64224	3512.8625
2475.39782	3492.6625
2478.15167	3487.7625
2480.90379	3473.2625
2483.65417	3500.9625
2486.40283	3482.1625
2489.14976	3499.3625
2491.89497	3464.4625
2494.63845	3466.3625
2497.3802	3456.3625
2500.12024	3461.0625
2502.85855	3459.2625
2505.59514	3454.9625
2508.33002	3459.5625
2511.06318	3442.6625
2513.79462	3449.7625
2516.52435	3424.3625
2519.25237	3399.4625
2521.97867	3415.1625
2524.70327	3417.7625
2527.42616	3406.5625
2530.14734	3423.2625
2532.86681	3387.7625
2535.58458	3394.5625
2538.30065	3393.3625
2541.01501	3395.9625
2543.72768	3363.9625
2546.43864	3374.1625
2549.14791	3376.7625
2551.85548	3360.5625
2554.56136	3343.1625
2557.26554	3349.0625
2559.96803	3344.9625
2562.66883	3332.4625
2565.36794	3325.1625
2568.06536	3292.0625
2570.7611	3324.7625
2573.45514	3296.5625
2576.14751	3293.6625
2578.83819	3282.4625
2581.52719	3274.9625
2584.21451	3294.9625
2586.90015	3260.4625
2589.58411	3240.6625
2592.2664	3246.4625
2594.94701	3246.3625
2597.62594	3251.2625
2600.30321	3182.9625
2602.9788	3206.0625
2605.65273	3195.3625
2608.32498	3205.6625
2610.99557	3212.7625
2613.66449	3180.9625
2616.33175	3195.9625
2618.99734	3193.5625
2621.66128	3194.3625
2624.32355	3184.4625
2626.98416	3157.9625
2629.64311	3154.1625
2632.30041	3159.5625
2634.95605	3134.0625
2637.61004	3141.0625
2640.26238	3109.5625
2642.91306	3118.2625
2645.56209	3140.4625
2648.20948	3116.9625
2650.85521	3102.2625
2653.4993	3130.6625
2656.14175	3105.8625
2658.78255	3115.2625
2661.42171	3076.1625
2664.05923	3108.9625
2666.6951	3115.1625
2669.32934	3116.5625
2671.96194	3129.0625
2674.59291	3109.3625
2677.22224	3102.3625
2679.84993	3113.9625
2682.476	3102.5625
2685.10043	3098.5625
2687.72324	3080.2625
2690.34441	3090.1625
2692.96396	3084.5625
2695.58188	3100.2625
2698.19818	3101.0625
2700.81285	3084.4625
2703.4259	3063.0625
2706.03733	3036.4625
2708.64714	3056.2625
2711.25533	3080.0625
2713.86191	3078.7625
2716.46687	3080.4625
2719.07021	3067.1625
2721.67194	3055.8625
2724.27206	3068.4625
2726.87057	3068.5625
2729.46747	3059.0625
2732.06276	3058.8625
2734.65644	3051.7625
2737.24852	3059.9625
2739.83899	3045.1625
2742.42786	3046.4625
2745.01513	3042.1625
2747.60079	3025.7625
2750.18486	3016.7625
2752.76733	3031.3625
2755.3482	3011.3625
2757.92747	3028.3625
2760.50515	2996.4625
2763.08123	2999.3625
2765.65573	2982.3625
2768.22863	2993.5625
2770.79994	2971.2625
2773.36967	2979.5625
2775.9378	2965.2625
2778.50435	2960.2625
2781.06932	2971.8625
2783.6327	2932.8625
2786.1945	2972.1625
2788.75471	2957.9625
2791.31335	2935.8625
2793.87041	2939.9625
2796.42589	2909.7625
2798.97979	2899.6625
2801.53212	2905.7625
2804.08288	2914.3625
2806.63206	2897.6625
2809.17967	2884.1625
2811.72571	2881.1625
2814.27018	2872.3625
2816.81308	2867.4625
2819.35442	2821.5625
2821.89419	2842.9625
2824.43239	2830.7625
2826.96904	2857.3625
2829.50412	2837.1625
2832.03763	2834.9625
2834.56959	2830.5625
2837.1	2821.5625
2839.62884	2819.0625
2842.15613	2820.2625
2844.68186	2823.4625
2847.20604	2801.1625
2849.72867	2784.2625
2852.24974	2796.4625
2854.76927	2762.6625
2857.28724	2717.1625
2859.80367	2776.1625
2862.31855	2773.9625
2864.83189	2758.1625
2867.34368	2762.2625
2869.85393	2777.3625
2872.36264	2722.5625
2874.8698	2739.7625
2877.37543	2753.1625
2879.87952	2740.9625
2882.38207	2720.8625
2884.88308	2738.2625
2887.38256	2738.1625
2889.88051	2739.0625
2892.37692	2735.2625
2894.8718	2722.2625
2897.36515	2736.7625
2899.85698	2720.4625
2902.34727	2709.9625
2904.83604	2719.3625
2907.32328	2728.9625
2909.809	2728.8625
2912.29319	2712.2625
2914.77587	2715.5625
2917.25702	2722.0625
2919.73665	2741.1625
2922.21476	2725.5625
2924.69136	2720.2625
2927.16644	2724.8625
2929.64	2711.5625
2932.11205	2706.1625
2934.58258	2719.6625
2937.05161	2682.5625
2939.51912	2702.2625
2941.98513	2708.9625
2944.44962	2698.0625
2946.91261	2666.9625
2949.37409	2691.0625
2951.83407	2685.4625
2954.29254	2687.7625
2956.74951	2688.4625
2959.20498	2663.3625
2961.65895	2678.6625
2964.11142	2674.0625
2966.56239	2678.0625
2969.01186	2685.3625
2971.45984	2677.1625
2973.90632	2670.5625
2976.35131	2665.7625
2978.7948	2667.6625
2981.23681	2658.7625
2983.67732	2667.2625
2986.11635	2658.4625
2988.55388	2623.0625
2990.98993	2633.8625
2993.4245	2618.2625
2995.85758	2614.5625
2998.28917	2614.5625
3000.71928	2593.7625
3003.14791	2597.8625
3005.57506	2585.2625
3008.00073	2582.2625
3010.42493	2528.2625
3012.84764	2577.8625
3015.26888	2581.9625
3017.68865	2575.0625
3020.10694	2539.4625
3022.52376	2556.7625
3024.9391	2549.4625
3027.35298	2541.1625
3029.76539	2537.1625
3032.17632	2539.0625
3034.5858	2531.4625
3036.9938	2541.9625
3039.40034	2533.0625
3041.80542	2521.9625
3044.20903	2510.1625
3046.61118	2510.1625
3049.01187	2517.7625
3051.4111	2510.5625
3053.80888	2505.3625
3056.20519	2493.4625
3058.60005	2480.7625
3060.99345	2496.9625
3063.3854	2464.0625
3065.7759	2465.4625
3068.16494	2461.2625
3070.55254	2438.5625
3072.93868	2454.3625
3075.32338	2442.2625
3077.70662	2435.1625
3080.08842	2433.0625
3082.46878	2424.7625
3084.84769	2442.6625
3087.22515	2430.8625
3089.60118	2442.1625
3091.97576	2418.6625
3094.3489	2429.3625
3096.72061	2433.1625
3099.09087	2423.0625
3101.4597	2424.1625
3103.82709	2421.4625
3106.19305	2413.7625
3108.55757	2403.3625
3110.92066	2407.5625
3113.28232	2418.5625
3115.64255	2423.1625
3118.00134	2406.6625
3120.35871	2387.1625
3122.71466	2368.1625
3125.06917	2384.5625
3127.42226	2376.5625
3129.77393	2354.2625
3132.12417	2370.0625
3134.47299	2371.9625
3136.82039	2350.7625
3139.16636	2339.9625
3141.51092	2361.6625
3143.85406	2359.1625
3146.19579	2345.3625
3148.53609	2338.1625
3150.87499	2352.3625
3153.21246	2346.6625
3155.54853	2351.6625
3157.88318	2349.7625
3160.21642	2355.9625
3162.54826	2348.3625
3164.87868	2365.8625
3167.2077	2320.1625
3169.5353	2340.6625
3171.86151	2354.7625
3174.18631	2326.7625
3176.5097	2337.3625
3178.83169	2333.8625
3181.15228	2330.4625
3183.47147	2308.4625
3185.78926	2296.8625
3188.10565	2312.1625
3190.42065	2286.9625
3192.73424	2297.4625
3195.04645	2306.8625
3197.35725	2276.1625
3199.66667	2292.9625
3201.97469	2294.2625
3204.28132	2278.1625
3206.58656	2295.9625
3208.8904	2302.1625
3211.19287	2301.1625
3213.49394	2280.5625
3215.79363	2271.7625
3218.09193	2284.3625
3220.38884	2279.4625
3222.68438	2276.8625
3224.97853	2261.5625
3227.2713	2281.3625
3229.56269	2268.8625
3231.8527	2268.3625
3234.14133	2257.1625
3236.42858	2256.1625
3238.71446	2231.5625
3240.99896	2257.7625
3243.28209	2235.4625
3245.56384	2241.5625
3247.84423	2229.4625
3250.12324	2241.0625
3252.40088	2227.4625
3254.67715	2208.8625
3256.95205	2213.1625
3259.22558	2230.7625
3261.49775	2229.8625
3263.76855	2218.2625
3266.03799	2234.9625
3268.30606	2226.9625
3270.57277	2217.3625
3272.83812	2205.2625
3275.10211	2202.2625
3277.36474	2207.2625
3279.62601	2204.0625
3281.88593	2179.2625
3284.14448	2155.5625
3286.40168	2175.8625
3288.65753	2173.7625
3290.91202	2170.4625
3293.16516	2138.9625
3295.41695	2175.0625
3297.66738	2168.3625
3299.91647	2143.1625
3302.16421	2127.3625
3304.4106	2102.5625
3306.65564	2121.1625
3308.89933	2082.2625
3311.14169	2071.4625
3313.38269	2050.8625
3315.62236	2042.4625
3317.86068	2022.8625
3320.09766	2026.2625
3322.3333	1990.9625
3324.5676	1979.9625
3326.80056	1948.0625
3329.03219	1943.8625
3331.26248	-0.6375
3333.49143	-0.2375
3335.71905	1.1625
