Data from AgNPs_UA_5uM_CRN_500uM_SU_RamanShift__94__11-45-03-158.txt Node

Date: Thu Aug 04 11:45:03 BST 2022
User: TCL
Spectrometer: QEP01345
Trigger mode: 4
Integration Time (sec): 1.000000E0
Scans to average: 10
Electric dark correction enabled: true
Nonlinearity correction enabled: false
Boxcar width: 0
XAxis mode: Raman Shifts
Number of Pixels in Spectrum: 1044
>>>>>Begin Spectral Data<<<<<
46.04893	-0.3375
50.45542	-1.2375
54.85868	1.3625
59.25871	-1.2375
63.6555	-64.6375
68.04907	-47.5375
72.43941	-79.4375
76.82654	-64.6375
81.21044	-62.8375
85.59113	-57.3375
89.96862	-83.5375
94.34289	-64.3375
98.71396	-86.3375
103.08183	-67.6375
107.4465	-60.2375
111.80798	-68.1375
116.16626	-55.1375
120.52136	-86.0375
124.87327	-63.2375
129.222	-77.8375
133.56755	-63.4375
137.90993	-78.9375
142.24913	-70.0375
146.58517	-67.4375
150.91804	-67.9375
155.24774	-64.1375
159.57429	-53.9375
163.89768	-62.6375
168.21792	-41.5375
172.53501	-52.0375
176.84895	-19.7375
181.15975	45.3625
185.46741	94.5625
189.77193	138.9625
194.07331	269.1625
198.37157	366.1625
202.6667	456.5625
206.9587	576.9625
211.24758	679.0625
215.53334	789.4625
219.81599	891.6625
224.09553	1030.6625
228.37195	1155.7625
232.64527	1300.2625
236.91549	1470.7625
241.18261	1602.9625
245.44663	1761.0625
249.70755	1878.6625
253.96539	1991.0625
258.22014	2099.3625
262.4718	2176.0625
266.72039	2227.7625
270.96589	2231.7625
275.20832	2231.0625
279.44768	2208.3625
283.68397	2153.6625
287.91719	2127.0625
292.14735	2116.5625
296.37445	2110.4625
300.59849	2153.8625
304.81948	2172.9625
309.03742	2195.9625
313.25231	2235.8625
317.46415	2249.6625
321.67296	2192.3625
325.87872	2147.1625
330.08145	2135.0625
334.28114	2146.0625
338.47781	2169.9625
342.67145	2205.2625
346.86207	2248.9625
351.04966	2331.1625
355.23424	2397.3625
359.4158	2454.4625
363.59435	2460.8625
367.76989	2481.5625
371.94243	2482.0625
376.11196	2477.5625
380.27849	2499.7625
384.44203	2502.2625
388.60257	2514.8625
392.76012	2528.1625
396.91468	2592.8625
401.06626	2639.3625
405.21485	2623.0625
409.36047	2633.8625
413.50311	2609.4625
417.64277	2604.7625
421.77947	2591.1625
425.9132	2607.1625
430.04396	2602.5625
434.17176	2626.1625
438.2966	2665.4625
442.41849	2688.6625
446.53742	2717.4625
450.6534	2740.9625
454.76644	2788.8625
458.87653	2793.4625
462.98368	2791.4625
467.08789	2783.0625
471.18916	2808.2625
475.2875	2827.4625
479.38291	2831.9625
483.4754	2819.6625
487.56496	2851.5625
491.6516	2830.2625
495.73531	2838.3625
499.81612	2849.7625
503.89401	2889.7625
507.96899	2888.7625
512.04106	2923.4625
516.11023	2942.2625
520.1765	2960.0625
524.23987	2974.3625
528.30034	2991.0625
532.35792	2965.6625
536.41261	2976.3625
540.46441	2978.9625
544.51333	2989.1625
548.55936	3003.9625
552.60252	3056.1625
556.64279	3061.6625
560.6802	3106.5625
564.71473	3128.6625
568.7464	3162.1625
572.7752	3162.4625
576.80114	3124.1625
580.82422	3114.9625
584.84444	3096.0625
588.86181	3104.0625
592.87633	3123.1625
596.888	3156.9625
600.89682	3203.2625
604.9028	3335.5625
608.90594	3588.9625
612.90624	3885.8625
616.90371	3776.1625
620.89834	3435.7625
624.89015	3294.8625
628.87913	3274.9625
632.86528	3324.1625
636.84862	3360.9625
640.82913	3346.7625
644.80683	3299.2625
648.78172	3308.1625
652.75379	3317.3625
656.72306	3371.5625
660.68952	3406.3625
664.65319	3401.3625
668.61405	3383.2625
672.57211	3384.3625
676.52738	3420.2625
680.47986	3403.7625
684.42955	3419.5625
688.37646	3423.2625
692.32058	3427.2625
696.26192	3456.1625
700.20048	3485.7625
704.13626	3487.0625
708.06928	3473.8625
711.99952	3501.0625
715.927	3495.5625
719.85171	3502.9625
723.77365	3539.9625
727.69284	3528.5625
731.60928	3562.5625
735.52295	3552.3625
739.43388	3577.4625
743.34206	3566.7625
747.24749	3608.3625
751.15017	3631.4625
755.05012	3613.2625
758.94733	3691.6625
762.8418	3784.6625
766.73354	3924.5625
770.62254	4035.8625
774.50882	4026.2625
778.39237	3992.2625
782.27321	3902.9625
786.15132	3816.1625
790.02671	3768.2625
793.89938	3683.9625
797.76935	3716.3625
801.6366	3695.6625
805.50115	3689.3625
809.36299	3724.3625
813.22213	3721.7625
817.07857	3726.1625
820.93231	3726.4625
824.78336	3759.2625
828.63172	3760.3625
832.47738	3755.1625
836.32036	3801.9625
840.16066	3800.8625
843.99827	3795.0625
847.8332	3788.3625
851.66546	3782.9625
855.49504	3794.9625
859.32195	3835.4625
863.1462	3841.9625
866.96777	3852.0625
870.78668	3831.8625
874.60293	3873.1625
878.41652	3880.3625
882.22745	3898.2625
886.03573	3916.4625
889.84136	3911.0625
893.64433	3930.1625
897.44466	3926.8625
901.24235	3934.5625
905.0374	3952.4625
908.8298	3932.8625
912.61957	3939.0625
916.40671	3888.0625
920.19121	3928.1625
923.97308	3954.4625
927.75233	3939.1625
931.52895	3955.2625
935.30295	3985.4625
939.07433	3957.9625
942.84309	3923.2625
946.60924	3951.4625
950.37278	3931.5625
954.13371	3950.8625
957.89203	3949.5625
961.64774	3960.2625
965.40086	3943.7625
969.15137	3911.9625
972.89929	3959.8625
976.64461	3940.4625
980.38733	3961.3625
984.12747	3946.1625
987.86502	3965.2625
991.59999	3971.0625
995.33237	4001.3625
999.06217	4032.3625
1002.78939	4038.2625
1006.51404	4052.4625
1010.23611	4061.5625
1013.95561	4083.2625
1017.67255	4095.1625
1021.38692	4102.6625
1025.09872	4082.2625
1028.80796	4049.9625
1032.51465	4090.2625
1036.21877	4080.5625
1039.92035	4097.5625
1043.61937	4104.2625
1047.31584	4118.8625
1051.00976	4158.5625
1054.70114	4180.8625
1058.38998	4168.2625
1062.07627	4153.8625
1065.76003	4184.0625
1069.44126	4214.0625
1073.11995	4218.3625
1076.79611	4235.8625
1080.46974	4266.8625
1084.14085	4297.6625
1087.80943	4298.1625
1091.47549	4297.7625
1095.13903	4319.1625
1098.80005	4308.8625
1102.45857	4281.0625
1106.11456	4281.3625
1109.76805	4237.4625
1113.41903	4283.8625
1117.06751	4295.5625
1120.71348	4322.7625
1124.35696	4384.4625
1127.99793	4423.6625
1131.63641	4414.7625
1135.2724	4363.8625
1138.90589	4327.9625
1142.5369	4281.0625
1146.16542	4278.5625
1149.79145	4260.9625
1153.415	4241.5625
1157.03607	4242.6625
1160.65467	4259.1625
1164.27079	4293.4625
1167.88443	4313.4625
1171.49561	4388.6625
1175.10432	4455.6625
1178.71056	4551.4625
1182.31434	4657.3625
1185.91565	4691.5625
1189.51451	4661.2625
1193.11091	4638.7625
1196.70485	4624.1625
1200.29634	4592.2625
1203.88538	4553.3625
1207.47197	4509.9625
1211.05612	4445.6625
1214.63782	4398.7625
1218.21708	4410.0625
1221.79391	4404.0625
1225.36829	4372.0625
1228.94024	4385.7625
1232.50976	4393.4625
1236.07685	4412.4625
1239.6415	4422.0625
1243.20374	4423.1625
1246.76355	4427.3625
1250.32093	4476.9625
1253.8759	4469.4625
1257.42845	4521.7625
1260.97859	4535.6625
1264.52631	4593.0625
1268.07163	4589.0625
1271.61453	4608.0625
1275.15503	4615.2625
1278.69312	4582.2625
1282.22882	4615.3625
1285.76211	4650.0625
1289.29301	4644.2625
1292.82151	4685.1625
1296.34761	4703.2625
1299.87133	4748.9625
1303.39266	4831.6625
1306.9116	4970.0625
1310.42815	5119.8625
1313.94233	5184.9625
1317.45412	5107.8625
1320.96354	4983.7625
1324.47058	4848.6625
1327.97525	4722.4625
1331.47754	4683.8625
1334.97747	4670.1625
1338.47502	4661.4625
1341.97022	4706.5625
1345.46305	4796.0625
1348.95352	4910.9625
1352.44163	5028.6625
1355.92738	5135.7625
1359.41078	5335.0625
1362.89183	5507.9625
1366.37053	5441.2625
1369.84688	5123.1625
1373.32088	4831.4625
1376.79254	4691.4625
1380.26186	4575.6625
1383.72883	4513.8625
1387.19347	4442.7625
1390.65578	4375.3625
1394.11575	4378.7625
1397.57339	4337.6625
1401.0287	4335.2625
1404.48168	4333.9625
1407.93234	4353.6625
1411.38068	4336.6625
1414.82669	4334.7625
1418.27039	4368.2625
1421.71177	4375.4625
1425.15083	4344.5625
1428.58758	4332.4625
1432.02203	4348.2625
1435.45416	4378.8625
1438.88399	4334.0625
1442.31151	4298.1625
1445.73673	4316.3625
1449.15965	4306.9625
1452.58027	4302.9625
1455.9986	4320.8625
1459.41463	4311.4625
1462.82837	4322.4625
1466.23982	4346.9625
1469.64898	4363.9625
1473.05586	4376.2625
1476.46045	4383.4625
1479.86276	4400.8625
1483.26279	4420.2625
1486.66054	4473.1625
1490.05602	4500.2625
1493.44922	4591.8625
1496.84016	4660.9625
1500.22882	4827.8625
1503.61521	5001.0625
1506.99934	5216.7625
1510.38121	5412.2625
1513.76081	5470.6625
1517.13816	5321.4625
1520.51324	5067.0625
1523.88607	4860.2625
1527.25665	4719.4625
1530.62498	4632.0625
1533.99105	4615.3625
1537.35488	4609.6625
1540.71647	4582.4625
1544.07581	4595.7625
1547.4329	4591.4625
1550.78776	4599.9625
1554.14038	4588.8625
1557.49077	4597.8625
1560.83892	4631.2625
1564.18484	4684.6625
1567.52853	4711.3625
1570.86999	4755.9625
1574.20922	4762.8625
1577.54624	4752.0625
1580.88103	4680.0625
1584.2136	4584.5625
1587.54395	4591.9625
1590.87208	4595.6625
1594.19801	4557.1625
1597.52172	4640.4625
1600.84321	4654.3625
1604.16251	4634.5625
1607.47959	4589.6625
1610.79447	4571.0625
1614.10715	4555.9625
1617.41763	4509.7625
1620.7259	4488.5625
1624.03199	4479.3625
1627.33587	4449.3625
1630.63757	4453.9625
1633.93707	4486.6625
1637.23439	4533.8625
1640.52951	4631.2625
1643.82246	4732.2625
1647.11321	4888.4625
1650.40179	4991.4625
1653.68819	4926.7625
1656.97241	4787.4625
1660.25446	4626.3625
1663.53433	4501.7625
1666.81203	4399.6625
1670.08756	4386.9625
1673.36092	4368.0625
1676.63211	4358.3625
1679.90115	4339.6625
1683.16801	4334.2625
1686.43272	4301.0625
1689.69527	4299.2625
1692.95567	4284.1625
1696.2139	4277.3625
1699.46999	4263.2625
1702.72392	4268.5625
1705.97571	4277.0625
1709.22535	4268.3625
1712.47284	4327.5625
1715.71819	4316.9625
1718.96139	4315.9625
1722.20246	4319.8625
1725.44139	4318.0625
1728.67818	4322.9625
1731.91284	4291.9625
1735.14537	4312.4625
1738.37576	4297.9625
1741.60403	4300.0625
1744.83017	4278.1625
1748.05418	4286.5625
1751.27607	4298.5625
1754.49584	4267.2625
1757.71349	4250.6625
1760.92903	4264.6625
1764.14244	4235.9625
1767.35375	4239.4625
1770.56294	4243.3625
1773.77002	4232.7625
1776.97499	4260.9625
1780.17785	4260.6625
1783.37861	4249.0625
1786.57727	4280.9625
1789.77382	4235.8625
1792.96828	4251.5625
1796.16064	4284.1625
1799.3509	4260.0625
1802.53907	4276.0625
1805.72514	4232.1625
1808.90913	4225.4625
1812.09102	4237.3625
1815.27083	4244.6625
1818.44856	4235.7625
1821.6242	4241.7625
1824.79776	4223.0625
1827.96924	4223.7625
1831.13864	4196.1625
1834.30597	4217.6625
1837.47122	4219.2625
1840.6344	4200.2625
1843.7955	4202.9625
1846.95454	4183.8625
1850.11151	4214.7625
1853.26642	4194.1625
1856.41926	4192.2625
1859.57004	4196.0625
1862.71876	4200.9625
1865.86542	4208.0625
1869.01003	4188.1625
1872.15258	4184.2625
1875.29308	4187.7625
1878.43152	4196.7625
1881.56792	4177.3625
1884.70227	4154.9625
1887.83457	4165.4625
1890.96482	4149.8625
1894.09304	4143.0625
1897.21921	4164.0625
1900.34335	4159.0625
1903.46544	4136.2625
1906.58551	4151.2625
1909.70353	4151.2625
1912.81953	4133.1625
1915.93349	4128.8625
1919.04543	4128.6625
1922.15534	4111.5625
1925.26322	4128.0625
1928.36908	4107.4625
1931.47292	4126.6625
1934.57473	4114.4625
1937.67453	4096.7625
1940.77232	4070.3625
1943.86808	4075.2625
1946.96184	4086.2625
1950.05358	4065.0625
1953.14331	4041.4625
1956.23103	4047.6625
1959.31675	4027.3625
1962.40046	3978.2625
1965.48217	3997.6625
1968.56188	3993.4625
1971.63959	3966.5625
1974.7153	3971.9625
1977.78901	3969.1625
1980.86073	3953.6625
1983.93046	3930.1625
1986.99819	3860.1625
1990.06394	3890.3625
1993.1277	3919.7625
1996.18947	3898.2625
1999.24925	3869.7625
2002.30706	3888.5625
2005.36288	3877.8625
2008.41672	3868.7625
2011.46859	3835.2625
2014.51848	3845.5625
2017.56639	3822.6625
2020.61233	3818.7625
2023.6563	3824.2625
2026.6983	3775.3625
2029.73833	3784.2625
2032.7764	3798.7625
2035.8125	3752.5625
2038.84664	3753.3625
2041.87881	3749.4625
2044.90903	3757.5625
2047.93729	3750.3625
2050.96359	3720.6625
2053.98794	3736.7625
2057.01034	3739.4625
2060.03078	3719.7625
2063.04927	3715.5625
2066.06582	3733.2625
2069.08042	3724.8625
2072.09307	3739.3625
2075.10378	3746.7625
2078.11255	3716.6625
2081.11938	3720.7625
2084.12426	3705.8625
2087.12722	3705.6625
2090.12824	3719.4625
2093.12732	3724.7625
2096.12447	3738.0625
2099.11969	3728.2625
2102.11299	3715.1625
2105.10435	3730.1625
2108.09379	3729.2625
2111.08131	3721.6625
2114.0669	3720.8625
2117.05057	3718.5625
2120.03233	3729.9625
2123.01216	3728.3625
2125.99008	3740.5625
2128.96609	3734.7625
2131.94018	3761.9625
2134.91236	3747.9625
2137.88263	3753.9625
2140.851	3750.0625
2143.81746	3774.6625
2146.78201	3765.3625
2149.74466	3766.1625
2152.7054	3787.6625
2155.66425	3768.4625
2158.6212	3747.5625
2161.57625	3747.5625
2164.52941	3724.5625
2167.48067	3755.8625
2170.43004	3748.4625
2173.37752	3762.3625
2176.32311	3748.9625
2179.26681	3746.6625
2182.20863	3754.5625
2185.14856	3760.4625
2188.08661	3740.2625
2191.02278	3759.3625
2193.95707	3736.8625
2196.88948	3744.7625
2199.82001	3745.5625
2202.74867	3743.5625
2205.67545	3742.6625
2208.60037	3741.4625
2211.52341	3742.4625
2214.44458	3715.6625
2217.36388	3720.3625
2220.28132	3718.2625
2223.1969	3682.9625
2226.11061	3692.0625
2229.02246	3685.0625
2231.93245	3680.5625
2234.84058	3674.4625
2237.74686	3662.5625
2240.65128	3658.9625
2243.55385	3667.7625
2246.45456	3642.4625
2249.35343	3665.3625
2252.25044	3646.9625
2255.14561	3652.7625
2258.03893	3623.9625
2260.93041	3622.5625
2263.82004	3625.9625
2266.70783	3626.5625
2269.59378	3594.3625
2272.4779	3580.2625
2275.36017	3585.2625
2278.24061	3584.4625
2281.11922	3545.8625
2283.996	3564.5625
2286.87094	3534.1625
2289.74405	3567.9625
2292.61534	3555.3625
2295.4848	3562.3625
2298.35243	3549.9625
2301.21824	3524.4625
2304.08223	3534.3625
2306.94439	3539.2625
2309.80474	3538.5625
2312.66327	3536.5625
2315.51999	3518.6625
2318.37489	3525.4625
2321.22797	3498.7625
2324.07925	3497.8625
2326.92871	3509.6625
2329.77637	3492.2625
2332.62222	3493.2625
2335.46626	3459.9625
2338.3085	3449.4625
2341.14893	3467.3625
2343.98756	3480.5625
2346.8244	3440.4625
2349.65943	3444.2625
2352.49267	3441.5625
2355.32411	3454.9625
2358.15376	3425.9625
2360.98161	3438.4625
2363.80768	3413.8625
2366.63195	3419.8625
2369.45444	3431.8625
2372.27514	3421.1625
2375.09405	3424.6625
2377.91118	3388.5625
2380.72652	3388.9625
2383.54009	3383.9625
2386.35187	3410.8625
2389.16188	3382.1625
2391.97011	3383.4625
2394.77657	3369.7625
2397.58125	3374.7625
2400.38416	3391.0625
2403.18529	3345.0625
2405.98466	3342.6625
2408.78226	3338.2625
2411.57809	3336.4625
2414.37216	3336.0625
2417.16446	3339.6625
2419.955	3317.7625
2422.74378	3328.9625
2425.5308	3316.6625
2428.31606	3313.2625
2431.09956	3324.2625
2433.88131	3301.5625
2436.6613	3302.7625
2439.43954	3290.6625
2442.21603	3274.4625
2444.99077	3282.9625
2447.76377	3286.9625
2450.53501	3273.3625
2453.30451	3259.6625
2456.07226	3283.0625
2458.83827	3261.9625
2461.60254	3217.9625
2464.36507	3235.8625
2467.12586	3227.1625
2469.88492	3233.1625
2472.64224	3231.4625
2475.39782	3210.7625
2478.15167	3232.6625
2480.90379	3212.3625
2483.65417	3225.8625
2486.40283	3223.3625
2489.14976	3232.8625
2491.89497	3198.6625
2494.63845	3208.7625
2497.3802	3193.8625
2500.12024	3196.5625
2502.85855	3190.8625
2505.59514	3180.2625
2508.33002	3204.8625
2511.06318	3170.3625
2513.79462	3178.2625
2516.52435	3141.7625
2519.25237	3142.8625
2521.97867	3140.6625
2524.70327	3150.0625
2527.42616	3150.9625
2530.14734	3161.2625
2532.86681	3147.2625
2535.58458	3134.4625
2538.30065	3111.5625
2541.01501	3138.8625
2543.72768	3125.8625
2546.43864	3120.3625
2549.14791	3110.4625
2551.85548	3098.2625
2554.56136	3100.8625
2557.26554	3090.8625
2559.96803	3076.5625
2562.66883	3085.3625
2565.36794	3059.7625
2568.06536	3040.4625
2570.7611	3052.3625
2573.45514	3049.9625
2576.14751	3036.5625
2578.83819	3029.9625
2581.52719	3009.4625
2584.21451	3020.7625
2586.90015	3010.5625
2589.58411	2989.7625
2592.2664	2998.3625
2594.94701	2999.9625
2597.62594	3000.5625
2600.30321	2933.9625
2602.9788	2958.8625
2605.65273	2943.0625
2608.32498	2953.4625
2610.99557	2969.6625
2613.66449	2939.1625
2616.33175	2951.0625
2618.99734	2941.4625
2621.66128	2953.0625
2624.32355	2925.3625
2626.98416	2924.2625
2629.64311	2904.3625
2632.30041	2906.9625
2634.95605	2898.9625
2637.61004	2884.8625
2640.26238	2882.4625
2642.91306	2882.9625
2645.56209	2891.4625
2648.20948	2885.2625
2650.85521	2861.8625
2653.4993	2886.6625
2656.14175	2865.3625
2658.78255	2862.0625
2661.42171	2828.4625
2664.05923	2869.6625
2666.6951	2863.3625
2669.32934	2865.9625
2671.96194	2877.9625
2674.59291	2854.0625
2677.22224	2874.3625
2679.84993	2857.1625
2682.476	2854.1625
2685.10043	2856.0625
2687.72324	2847.7625
2690.34441	2837.6625
2692.96396	2844.0625
2695.58188	2852.6625
2698.19818	2842.2625
2700.81285	2846.5625
2703.4259	2825.1625
2706.03733	2794.2625
2708.64714	2805.5625
2711.25533	2836.1625
2713.86191	2836.7625
2716.46687	2831.2625
2719.07021	2823.7625
2721.67194	2821.3625
2724.27206	2839.7625
2726.87057	2817.9625
2729.46747	2818.4625
2732.06276	2831.3625
2734.65644	2813.3625
2737.24852	2820.2625
2739.83899	2789.8625
2742.42786	2784.6625
2745.01513	2822.0625
2747.60079	2798.7625
2750.18486	2770.4625
2752.76733	2783.3625
2755.3482	2771.4625
2757.92747	2775.4625
2760.50515	2761.7625
2763.08123	2758.7625
2765.65573	2766.7625
2768.22863	2751.9625
2770.79994	2748.9625
2773.36967	2741.5625
2775.9378	2728.0625
2778.50435	2719.1625
2781.06932	2712.6625
2783.6327	2705.3625
2786.1945	2719.8625
2788.75471	2715.7625
2791.31335	2697.9625
2793.87041	2702.4625
2796.42589	2683.9625
2798.97979	2668.7625
2801.53212	2671.1625
2804.08288	2688.9625
2806.63206	2669.5625
2809.17967	2644.7625
2811.72571	2665.6625
2814.27018	2640.8625
2816.81308	2614.3625
2819.35442	2594.2625
2821.89419	2610.7625
2824.43239	2589.9625
2826.96904	2616.7625
2829.50412	2600.0625
2832.03763	2604.4625
2834.56959	2599.8625
2837.1	2599.0625
2839.62884	2602.9625
2842.15613	2597.1625
2844.68186	2598.3625
2847.20604	2580.7625
2849.72867	2569.9625
2852.24974	2563.4625
2854.76927	2535.1625
2857.28724	2491.2625
2859.80367	2546.6625
2862.31855	2558.8625
2864.83189	2540.6625
2867.34368	2547.6625
2869.85393	2552.1625
2872.36264	2523.4625
2874.8698	2523.7625
2877.37543	2524.4625
2879.87952	2534.1625
2882.38207	2510.1625
2884.88308	2516.4625
2887.38256	2520.0625
2889.88051	2514.4625
2892.37692	2512.6625
2894.8718	2495.5625
2897.36515	2512.2625
2899.85698	2494.0625
2902.34727	2501.0625
2904.83604	2499.2625
2907.32328	2501.9625
2909.809	2487.9625
2912.29319	2497.8625
2914.77587	2489.9625
2917.25702	2498.7625
2919.73665	2497.8625
2922.21476	2505.4625
2924.69136	2499.8625
2927.16644	2495.3625
2929.64	2483.6625
2932.11205	2480.4625
2934.58258	2490.0625
2937.05161	2474.8625
2939.51912	2483.2625
2941.98513	2505.8625
2944.44962	2481.0625
2946.91261	2445.5625
2949.37409	2476.0625
2951.83407	2459.0625
2954.29254	2467.0625
2956.74951	2461.3625
2959.20498	2459.0625
2961.65895	2470.0625
2964.11142	2447.9625
2966.56239	2445.9625
2969.01186	2446.9625
2971.45984	2463.8625
2973.90632	2451.9625
2976.35131	2461.3625
2978.7948	2453.3625
2981.23681	2440.8625
2983.67732	2449.6625
2986.11635	2443.7625
2988.55388	2414.4625
2990.98993	2426.5625
2993.4245	2410.2625
2995.85758	2396.1625
2998.28917	2399.6625
3000.71928	2381.1625
3003.14791	2382.3625
3005.57506	2369.6625
3008.00073	2364.1625
3010.42493	2312.8625
3012.84764	2373.0625
3015.26888	2370.8625
3017.68865	2361.5625
3020.10694	2317.3625
3022.52376	2335.6625
3024.9391	2340.0625
3027.35298	2336.6625
3029.76539	2332.0625
3032.17632	2330.0625
3034.5858	2327.4625
3036.9938	2340.5625
3039.40034	2328.4625
3041.80542	2319.2625
3044.20903	2310.9625
3046.61118	2298.3625
3049.01187	2312.9625
3051.4111	2301.7625
3053.80888	2287.8625
3056.20519	2286.5625
3058.60005	2270.0625
3060.99345	2298.7625
3063.3854	2266.2625
3065.7759	2245.0625
3068.16494	2251.1625
3070.55254	2240.3625
3072.93868	2255.2625
3075.32338	2236.3625
3077.70662	2233.5625
3080.08842	2226.6625
3082.46878	2213.7625
3084.84769	2236.7625
3087.22515	2231.5625
3089.60118	2230.3625
3091.97576	2232.9625
3094.3489	2224.6625
3096.72061	2230.1625
3099.09087	2209.3625
3101.4597	2232.5625
3103.82709	2219.8625
3106.19305	2207.5625
3108.55757	2213.7625
3110.92066	2209.7625
3113.28232	2225.2625
3115.64255	2210.7625
3118.00134	2215.4625
3120.35871	2186.8625
3122.71466	2179.4625
3125.06917	2191.8625
3127.42226	2170.9625
3129.77393	2158.0625
3132.12417	2171.8625
3134.47299	2179.2625
3136.82039	2155.4625
3139.16636	2136.1625
3141.51092	2163.2625
3143.85406	2169.5625
3146.19579	2147.2625
3148.53609	2142.8625
3150.87499	2142.2625
3153.21246	2150.0625
3155.54853	2148.9625
3157.88318	2153.6625
3160.21642	2169.1625
3162.54826	2155.7625
3164.87868	2164.7625
3167.2077	2124.5625
3169.5353	2152.2625
3171.86151	2159.3625
3174.18631	2144.8625
3176.5097	2146.6625
3178.83169	2135.3625
3181.15228	2144.6625
3183.47147	2117.7625
3185.78926	2099.0625
3188.10565	2113.0625
3190.42065	2108.3625
3192.73424	2109.5625
3195.04645	2111.1625
3197.35725	2091.6625
3199.66667	2110.7625
3201.97469	2100.2625
3204.28132	2079.3625
3206.58656	2103.7625
3208.8904	2100.1625
3211.19287	2094.3625
3213.49394	2085.2625
3215.79363	2086.9625
3218.09193	2102.0625
3220.38884	2088.7625
3222.68438	2087.9625
3224.97853	2072.7625
3227.2713	2097.2625
3229.56269	2073.4625
3231.8527	2078.1625
3234.14133	2064.7625
3236.42858	2064.5625
3238.71446	2044.9625
3240.99896	2058.7625
3243.28209	2045.2625
3245.56384	2055.0625
3247.84423	2040.2625
3250.12324	2045.7625
3252.40088	2040.2625
3254.67715	2033.0625
3256.95205	2027.8625
3259.22558	2039.5625
3261.49775	2036.7625
3263.76855	2033.1625
3266.03799	2041.3625
3268.30606	2038.3625
3270.57277	2037.8625
3272.83812	2013.0625
3275.10211	2019.5625
3277.36474	2026.7625
3279.62601	2016.3625
3281.88593	1995.6625
3284.14448	1983.9625
3286.40168	1998.5625
3288.65753	1976.9625
3290.91202	1984.1625
3293.16516	1957.0625
3295.41695	1987.1625
3297.66738	1982.0625
3299.91647	1962.8625
3302.16421	1963.9625
3304.4106	1917.5625
3306.65564	1935.9625
3308.89933	1900.6625
3311.14169	1902.5625
3313.38269	1879.0625
3315.62236	1868.6625
3317.86068	1854.6625
3320.09766	1850.6625
3322.3333	1824.2625
3324.5676	1812.1625
3326.80056	1783.8625
3329.03219	1787.7625
3331.26248	0.3625
3333.49143	-0.8375
3335.71905	1.0625
