Data from AgNPs_UA_5uM_CRN_500uM_SU_RamanShift__233__12-08-13-186.txt Node

Date: Thu Aug 04 12:08:13 BST 2022
User: TCL
Spectrometer: QEP01345
Trigger mode: 4
Integration Time (sec): 1.000000E0
Scans to average: 10
Electric dark correction enabled: true
Nonlinearity correction enabled: false
Boxcar width: 0
XAxis mode: Raman Shifts
Number of Pixels in Spectrum: 1044
>>>>>Begin Spectral Data<<<<<
46.04893	-0.2375
50.45542	-0.3375
54.85868	-0.3375
59.25871	-0.6375
63.6555	-57.5375
68.04907	-39.2375
72.43941	-72.7375
76.82654	-55.4375
81.21044	-56.1375
85.59113	-51.4375
89.96862	-76.3375
94.34289	-55.3375
98.71396	-77.3375
103.08183	-59.6375
107.4465	-49.9375
111.80798	-56.8375
116.16626	-43.8375
120.52136	-73.0375
124.87327	-50.3375
129.222	-63.4375
133.56755	-50.7375
137.90993	-63.3375
142.24913	-51.9375
146.58517	-45.4375
150.91804	-40.9375
155.24774	-29.2375
159.57429	-10.3375
163.89768	-7.6375
168.21792	35.7625
172.53501	56.6625
176.84895	142.8625
181.15975	270.1625
185.46741	419.7625
189.77193	598.3625
194.07331	885.9625
198.37157	1168.1625
202.6667	1452.4625
206.9587	1766.1625
211.24758	2072.7625
215.53334	2395.4625
219.81599	2752.2625
224.09553	3170.0625
228.37195	3587.7625
232.64527	4059.2625
236.91549	4521.3625
241.18261	4875.8625
245.44663	5147.1625
249.70755	5308.3625
253.96539	5448.6625
258.22014	5545.3625
262.4718	5622.0625
266.72039	5676.7625
270.96589	5625.0625
275.20832	5533.3625
279.44768	5425.0625
283.68397	5312.1625
287.91719	5260.7625
292.14735	5302.5625
296.37445	5474.1625
300.59849	5763.4625
304.81948	6106.7625
309.03742	6471.2625
313.25231	6724.1625
317.46415	6702.9625
321.67296	6286.9625
325.87872	5878.3625
330.08145	5683.5625
334.28114	5624.2625
338.47781	5706.2625
342.67145	5825.8625
346.86207	6071.6625
351.04966	6438.8625
355.23424	6841.3625
359.4158	7101.6625
363.59435	7148.9625
367.76989	7069.6625
371.94243	6911.3625
376.11196	6814.8625
380.27849	6713.4625
384.44203	6653.2625
388.60257	6621.8625
392.76012	6634.3625
396.91468	6764.7625
401.06626	6893.8625
405.21485	6931.2625
409.36047	6745.5625
413.50311	6453.4625
417.64277	6159.5625
421.77947	5942.3625
425.9132	5878.0625
430.04396	5864.3625
434.17176	5911.7625
438.2966	5981.8625
442.41849	6086.2625
446.53742	6210.2625
450.6534	6289.8625
454.76644	6366.0625
458.87653	6368.0625
462.98368	6341.1625
467.08789	6291.3625
471.18916	6182.2625
475.2875	6078.4625
479.38291	5965.3625
483.4754	5845.2625
487.56496	5821.7625
491.6516	5781.2625
495.73531	5786.3625
499.81612	5824.0625
503.89401	5908.1625
507.96899	5940.3625
512.04106	6056.5625
516.11023	6154.3625
520.1765	6242.3625
524.23987	6253.7625
528.30034	6271.0625
532.35792	6173.3625
536.41261	6105.6625
540.46441	6005.5625
544.51333	5974.0625
548.55936	6002.0625
552.60252	6137.7625
556.64279	6255.1625
560.6802	6359.1625
564.71473	6512.1625
568.7464	6698.4625
572.7752	6699.0625
576.80114	6362.0625
580.82422	6119.7625
584.84444	6051.8625
588.86181	6009.0625
592.87633	6053.8625
596.888	6171.0625
600.89682	6538.1625
604.9028	7509.6625
608.90594	9598.2625
612.90624	11983.2625
616.90371	11124.1625
620.89834	8021.9625
624.89015	6660.0625
628.87913	6455.3625
632.86528	6609.2625
636.84862	6766.6625
640.82913	6656.7625
644.80683	6280.8625
648.78172	6098.5625
652.75379	6121.6625
656.72306	6381.6625
660.68952	6611.1625
664.65319	6505.3625
668.61405	6283.0625
672.57211	6204.5625
676.52738	6209.4625
680.47986	6103.4625
684.42955	6022.0625
688.37646	5960.9625
692.32058	5973.7625
696.26192	6058.7625
700.20048	6155.4625
704.13626	6186.7625
708.06928	6133.9625
711.99952	6101.8625
715.927	6083.0625
719.85171	6114.1625
723.77365	6180.8625
727.69284	6140.6625
731.60928	6133.6625
735.52295	6100.8625
739.43388	6142.0625
743.34206	6143.4625
747.24749	6180.4625
751.15017	6219.1625
755.05012	6269.7625
758.94733	6648.4625
762.8418	7505.9625
766.73354	8883.0625
770.62254	9898.9625
774.50882	10012.3625
778.39237	9451.7625
782.27321	8496.6625
786.15132	7446.2625
790.02671	6744.8625
793.89938	6362.3625
797.76935	6234.0625
801.6366	6145.1625
805.50115	6108.9625
809.36299	6083.3625
813.22213	6098.4625
817.07857	6070.2625
820.93231	6088.6625
824.78336	6113.8625
828.63172	6129.7625
832.47738	6136.6625
836.32036	6149.2625
840.16066	6105.2625
843.99827	6092.9625
847.8332	6106.7625
851.66546	6084.5625
855.49504	6086.4625
859.32195	6123.9625
863.1462	6098.7625
866.96777	6099.7625
870.78668	6082.1625
874.60293	6128.7625
878.41652	6143.2625
882.22745	6213.4625
886.03573	6235.4625
889.84136	6247.4625
893.64433	6248.7625
897.44466	6213.6625
901.24235	6223.3625
905.0374	6206.8625
908.8298	6161.7625
912.61957	6117.3625
916.40671	6088.1625
920.19121	6134.6625
923.97308	6214.5625
927.75233	6290.5625
931.52895	6356.9625
935.30295	6316.4625
939.07433	6175.8625
942.84309	6045.8625
946.60924	6016.6625
950.37278	5979.7625
954.13371	5954.9625
957.89203	5956.8625
961.64774	5982.8625
965.40086	5954.2625
969.15137	5954.7625
972.89929	5962.7625
976.64461	5966.6625
980.38733	5982.4625
984.12747	5979.4625
987.86502	6012.0625
991.59999	6022.2625
995.33237	6087.0625
999.06217	6184.9625
1002.78939	6253.8625
1006.51404	6374.1625
1010.23611	6476.8625
1013.95561	6542.7625
1017.67255	6526.8625
1021.38692	6516.2625
1025.09872	6448.9625
1028.80796	6358.8625
1032.51465	6361.1625
1036.21877	6345.2625
1039.92035	6397.2625
1043.61937	6438.1625
1047.31584	6482.2625
1051.00976	6538.3625
1054.70114	6524.5625
1058.38998	6514.3625
1062.07627	6530.1625
1065.76003	6551.4625
1069.44126	6636.4625
1073.11995	6717.0625
1076.79611	6845.0625
1080.46974	6996.5625
1084.14085	7170.9625
1087.80943	7316.0625
1091.47549	7350.1625
1095.13903	7237.8625
1098.80005	7127.3625
1102.45857	7015.9625
1106.11456	6971.8625
1109.76805	6938.3625
1113.41903	7052.5625
1117.06751	7232.1625
1120.71348	7507.5625
1124.35696	7863.3625
1127.99793	8178.7625
1131.63641	8003.8625
1135.2724	7589.9625
1138.90589	7305.2625
1142.5369	7094.3625
1146.16542	6964.9625
1149.79145	6878.7625
1153.415	6828.5625
1157.03607	6835.1625
1160.65467	6929.4625
1164.27079	7129.7625
1167.88443	7408.5625
1171.49561	7822.2625
1175.10432	8475.0625
1178.71056	9381.5625
1182.31434	10197.1625
1185.91565	10456.7625
1189.51451	10297.9625
1193.11091	10046.2625
1196.70485	9783.8625
1200.29634	9520.3625
1203.88538	9247.7625
1207.47197	8784.5625
1211.05612	8303.7625
1214.63782	7898.0625
1218.21708	7630.9625
1221.79391	7492.7625
1225.36829	7421.0625
1228.94024	7406.6625
1232.50976	7427.3625
1236.07685	7458.6625
1239.6415	7446.8625
1243.20374	7485.9625
1246.76355	7529.2625
1250.32093	7584.2625
1253.8759	7658.2625
1257.42845	7835.1625
1260.97859	8034.6625
1264.52631	8276.0625
1268.07163	8447.3625
1271.61453	8566.0625
1275.15503	8624.8625
1278.69312	8634.2625
1282.22882	8719.4625
1285.76211	8905.0625
1289.29301	9147.7625
1292.82151	9431.9625
1296.34761	9649.1625
1299.87133	10041.6625
1303.39266	10769.5625
1306.9116	11914.0625
1310.42815	13174.2625
1313.94233	13628.3625
1317.45412	12852.0625
1320.96354	11656.9625
1324.47058	10659.7625
1327.97525	9881.6625
1331.47754	9461.2625
1334.97747	9350.6625
1338.47502	9468.9625
1341.97022	9831.4625
1345.46305	10574.7625
1348.95352	11707.2625
1352.44163	13028.0625
1355.92738	14423.4625
1359.41078	16097.5625
1362.89183	17644.7625
1366.37053	17016.5625
1369.84688	14124.4625
1373.32088	11384.9625
1376.79254	9926.6625
1380.26186	9259.2625
1383.72883	8815.6625
1387.19347	8431.6625
1390.65578	8030.2625
1394.11575	7819.2625
1397.57339	7627.6625
1401.0287	7522.3625
1404.48168	7500.3625
1407.93234	7495.1625
1411.38068	7511.2625
1414.82669	7601.5625
1418.27039	7675.2625
1421.71177	7647.4625
1425.15083	7563.9625
1428.58758	7480.8625
1432.02203	7512.3625
1435.45416	7607.2625
1438.88399	7608.6625
1442.31151	7567.8625
1445.73673	7639.4625
1449.15965	7679.4625
1452.58027	7715.7625
1455.9986	7712.1625
1459.41463	7717.1625
1462.82837	7815.8625
1466.23982	8011.8625
1469.64898	8207.5625
1473.05586	8354.8625
1476.46045	8455.2625
1479.86276	8537.4625
1483.26279	8646.6625
1486.66054	8861.5625
1490.05602	9167.8625
1493.44922	9730.6625
1496.84016	10597.4625
1500.22882	12014.6625
1503.61521	13749.7625
1506.99934	15581.1625
1510.38121	16821.1625
1513.76081	16688.2625
1517.13816	15075.4625
1520.51324	12917.9625
1523.88607	11149.3625
1527.25665	10138.7625
1530.62498	9629.9625
1533.99105	9417.4625
1537.35488	9319.7625
1540.71647	9194.5625
1544.07581	9055.1625
1547.4329	8912.5625
1550.78776	8797.4625
1554.14038	8714.7625
1557.49077	8694.8625
1560.83892	8797.2625
1564.18484	9008.9625
1567.52853	9364.6625
1570.86999	9673.2625
1574.20922	9822.0625
1577.54624	9716.5625
1580.88103	9193.3625
1584.2136	8509.7625
1587.54395	8116.3625
1590.87208	8042.1625
1594.19801	8205.0625
1597.52172	8569.7625
1600.84321	8700.2625
1604.16251	8567.7625
1607.47959	8365.9625
1610.79447	8178.9625
1614.10715	7892.8625
1617.41763	7600.1625
1620.7259	7317.0625
1624.03199	7161.3625
1627.33587	7085.9625
1630.63757	7152.6625
1633.93707	7363.7625
1637.23439	7794.0625
1640.52951	8472.2625
1643.82246	9482.0625
1647.11321	10671.5625
1650.40179	11399.5625
1653.68819	11075.4625
1656.97241	9803.5625
1660.25446	8394.6625
1663.53433	7362.7625
1666.81203	6781.2625
1670.08756	6412.7625
1673.36092	6241.4625
1676.63211	6104.9625
1679.90115	6008.7625
1683.16801	5908.0625
1686.43272	5840.7625
1689.69527	5781.5625
1692.95567	5733.7625
1696.2139	5709.7625
1699.46999	5660.8625
1702.72392	5647.9625
1705.97571	5660.5625
1709.22535	5633.7625
1712.47284	5663.1625
1715.71819	5686.7625
1718.96139	5681.5625
1722.20246	5663.9625
1725.44139	5633.9625
1728.67818	5597.9625
1731.91284	5559.2625
1735.14537	5515.1625
1738.37576	5487.8625
1741.60403	5477.1625
1744.83017	5433.9625
1748.05418	5438.5625
1751.27607	5438.2625
1754.49584	5422.0625
1757.71349	5387.3625
1760.92903	5393.2625
1764.14244	5341.7625
1767.35375	5345.5625
1770.56294	5309.2625
1773.77002	5292.1625
1776.97499	5326.9625
1780.17785	5295.0625
1783.37861	5282.2625
1786.57727	5289.4625
1789.77382	5221.2625
1792.96828	5269.3625
1796.16064	5272.7625
1799.3509	5252.5625
1802.53907	5263.9625
1805.72514	5224.8625
1808.90913	5187.9625
1812.09102	5194.8625
1815.27083	5195.7625
1818.44856	5167.1625
1821.6242	5161.7625
1824.79776	5147.9625
1827.96924	5140.9625
1831.13864	5117.0625
1834.30597	5137.9625
1837.47122	5103.9625
1840.6344	5095.7625
1843.7955	5065.4625
1846.95454	5077.6625
1850.11151	5089.1625
1853.26642	5047.2625
1856.41926	5052.2625
1859.57004	5045.3625
1862.71876	5039.1625
1865.86542	5051.6625
1869.01003	5030.4625
1872.15258	5017.2625
1875.29308	5046.4625
1878.43152	5037.2625
1881.56792	5014.4625
1884.70227	4988.4625
1887.83457	4990.9625
1890.96482	4974.1625
1894.09304	4972.0625
1897.21921	4958.9625
1900.34335	4973.9625
1903.46544	4943.8625
1906.58551	4963.1625
1909.70353	4956.9625
1912.81953	4936.9625
1915.93349	4929.8625
1919.04543	4931.8625
1922.15534	4902.5625
1925.26322	4911.3625
1928.36908	4886.7625
1931.47292	4879.4625
1934.57473	4886.9625
1937.67453	4867.2625
1940.77232	4824.6625
1943.86808	4831.5625
1946.96184	4822.5625
1950.05358	4782.9625
1953.14331	4769.5625
1956.23103	4787.0625
1959.31675	4758.3625
1962.40046	4716.5625
1965.48217	4722.0625
1968.56188	4715.2625
1971.63959	4702.0625
1974.7153	4686.4625
1977.78901	4698.5625
1980.86073	4664.5625
1983.93046	4624.2625
1986.99819	4570.1625
1990.06394	4557.1625
1993.1277	4609.6625
1996.18947	4576.4625
1999.24925	4549.0625
2002.30706	4537.1625
2005.36288	4522.8625
2008.41672	4523.4625
2011.46859	4468.4625
2014.51848	4465.5625
2017.56639	4439.2625
2020.61233	4439.8625
2023.6563	4449.9625
2026.6983	4385.5625
2029.73833	4397.2625
2032.7764	4407.0625
2035.8125	4362.1625
2038.84664	4372.5625
2041.87881	4353.6625
2044.90903	4355.5625
2047.93729	4346.9625
2050.96359	4322.9625
2053.98794	4331.9625
2057.01034	4344.2625
2060.03078	4315.9625
2063.04927	4289.1625
2066.06582	4294.9625
2069.08042	4291.5625
2072.09307	4284.5625
2075.10378	4295.7625
2078.11255	4285.0625
2081.11938	4285.6625
2084.12426	4271.6625
2087.12722	4264.9625
2090.12824	4258.9625
2093.12732	4266.2625
2096.12447	4261.2625
2099.11969	4280.7625
2102.11299	4240.6625
2105.10435	4288.6625
2108.09379	4268.6625
2111.08131	4248.0625
2114.0669	4260.3625
2117.05057	4262.1625
2120.03233	4261.4625
2123.01216	4273.8625
2125.99008	4269.7625
2128.96609	4267.6625
2131.94018	4287.0625
2134.91236	4283.7625
2137.88263	4275.8625
2140.851	4267.5625
2143.81746	4301.5625
2146.78201	4286.1625
2149.74466	4274.3625
2152.7054	4288.7625
2155.66425	4276.0625
2158.6212	4266.0625
2161.57625	4241.8625
2164.52941	4211.2625
2167.48067	4230.1625
2170.43004	4223.9625
2173.37752	4260.1625
2176.32311	4230.8625
2179.26681	4242.9625
2182.20863	4228.7625
2185.14856	4239.3625
2188.08661	4232.7625
2191.02278	4230.0625
2193.95707	4214.7625
2196.88948	4202.8625
2199.82001	4208.3625
2202.74867	4203.8625
2205.67545	4203.6625
2208.60037	4205.8625
2211.52341	4193.8625
2214.44458	4172.7625
2217.36388	4162.9625
2220.28132	4144.0625
2223.1969	4137.2625
2226.11061	4118.0625
2229.02246	4122.9625
2231.93245	4124.6625
2234.84058	4108.5625
2237.74686	4084.1625
2240.65128	4080.6625
2243.55385	4088.7625
2246.45456	4064.8625
2249.35343	4079.7625
2252.25044	4061.6625
2255.14561	4064.9625
2258.03893	4058.9625
2260.93041	4053.1625
2263.82004	4044.3625
2266.70783	4038.7625
2269.59378	4017.0625
2272.4779	4003.5625
2275.36017	4014.7625
2278.24061	3996.6625
2281.11922	3967.9625
2283.996	3971.3625
2286.87094	3947.6625
2289.74405	3958.7625
2292.61534	3952.9625
2295.4848	3942.5625
2298.35243	3936.8625
2301.21824	3929.7625
2304.08223	3924.1625
2306.94439	3939.6625
2309.80474	3945.3625
2312.66327	3917.3625
2315.51999	3906.9625
2318.37489	3905.7625
2321.22797	3883.6625
2324.07925	3866.6625
2326.92871	3867.9625
2329.77637	3852.5625
2332.62222	3866.1625
2335.46626	3839.2625
2338.3085	3812.9625
2341.14893	3846.2625
2343.98756	3849.0625
2346.8244	3814.0625
2349.65943	3783.1625
2352.49267	3822.7625
2355.32411	3827.5625
2358.15376	3820.5625
2360.98161	3832.9625
2363.80768	3792.5625
2366.63195	3819.5625
2369.45444	3820.0625
2372.27514	3822.2625
2375.09405	3822.6625
2377.91118	3787.5625
2380.72652	3791.8625
2383.54009	3772.3625
2386.35187	3781.1625
2389.16188	3749.4625
2391.97011	3761.8625
2394.77657	3738.7625
2397.58125	3730.1625
2400.38416	3721.0625
2403.18529	3714.5625
2405.98466	3686.6625
2408.78226	3695.3625
2411.57809	3683.7625
2414.37216	3675.8625
2417.16446	3679.8625
2419.955	3667.8625
2422.74378	3680.7625
2425.5308	3648.4625
2428.31606	3654.6625
2431.09956	3660.0625
2433.88131	3630.3625
2436.6613	3636.4625
2439.43954	3635.9625
2442.21603	3640.9625
2444.99077	3622.2625
2447.76377	3630.3625
2450.53501	3626.4625
2453.30451	3612.4625
2456.07226	3622.7625
2458.83827	3602.4625
2461.60254	3571.4625
2464.36507	3597.4625
2467.12586	3577.1625
2469.88492	3585.6625
2472.64224	3587.5625
2475.39782	3571.6625
2478.15167	3581.0625
2480.90379	3567.5625
2483.65417	3602.6625
2486.40283	3581.2625
2489.14976	3591.2625
2491.89497	3588.9625
2494.63845	3586.9625
2497.3802	3563.4625
2500.12024	3566.3625
2502.85855	3550.6625
2505.59514	3565.3625
2508.33002	3553.4625
2511.06318	3527.9625
2513.79462	3526.9625
2516.52435	3499.6625
2519.25237	3477.3625
2521.97867	3485.7625
2524.70327	3467.2625
2527.42616	3457.5625
2530.14734	3487.5625
2532.86681	3446.1625
2535.58458	3462.9625
2538.30065	3441.9625
2541.01501	3463.3625
2543.72768	3434.7625
2546.43864	3447.2625
2549.14791	3440.5625
2551.85548	3423.2625
2554.56136	3404.1625
2557.26554	3426.7625
2559.96803	3403.5625
2562.66883	3418.1625
2565.36794	3387.2625
2568.06536	3351.3625
2570.7611	3378.2625
2573.45514	3370.0625
2576.14751	3367.9625
2578.83819	3339.2625
2581.52719	3328.7625
2584.21451	3339.5625
2586.90015	3320.7625
2589.58411	3310.8625
2592.2664	3310.7625
2594.94701	3312.5625
2597.62594	3312.8625
2600.30321	3239.9625
2602.9788	3268.4625
2605.65273	3257.4625
2608.32498	3272.2625
2610.99557	3284.7625
2613.66449	3254.7625
2616.33175	3270.4625
2618.99734	3264.0625
2621.66128	3264.4625
2624.32355	3256.1625
2626.98416	3226.4625
2629.64311	3222.2625
2632.30041	3210.8625
2634.95605	3195.4625
2637.61004	3189.5625
2640.26238	3167.9625
2642.91306	3167.9625
2645.56209	3190.1625
2648.20948	3191.3625
2650.85521	3172.8625
2653.4993	3197.0625
2656.14175	3174.3625
2658.78255	3163.6625
2661.42171	3144.4625
2664.05923	3180.3625
2666.6951	3174.2625
2669.32934	3190.1625
2671.96194	3181.8625
2674.59291	3194.0625
2677.22224	3178.4625
2679.84993	3178.9625
2682.476	3165.4625
2685.10043	3159.7625
2687.72324	3157.6625
2690.34441	3154.1625
2692.96396	3153.8625
2695.58188	3161.4625
2698.19818	3153.7625
2700.81285	3158.2625
2703.4259	3129.0625
2706.03733	3111.7625
2708.64714	3115.9625
2711.25533	3139.5625
2713.86191	3156.0625
2716.46687	3155.0625
2719.07021	3142.5625
2721.67194	3142.5625
2724.27206	3153.0625
2726.87057	3128.2625
2729.46747	3129.7625
2732.06276	3138.2625
2734.65644	3113.7625
2737.24852	3114.6625
2739.83899	3092.9625
2742.42786	3111.2625
2745.01513	3120.2625
2747.60079	3087.3625
2750.18486	3078.1625
2752.76733	3079.3625
2755.3482	3072.6625
2757.92747	3077.2625
2760.50515	3061.4625
2763.08123	3050.9625
2765.65573	3046.7625
2768.22863	3048.5625
2770.79994	3027.0625
2773.36967	3029.8625
2775.9378	3032.7625
2778.50435	3013.6625
2781.06932	3012.3625
2783.6327	2998.0625
2786.1945	3021.9625
2788.75471	3002.6625
2791.31335	3001.0625
2793.87041	2998.9625
2796.42589	2981.0625
2798.97979	2957.9625
2801.53212	2958.0625
2804.08288	2996.1625
2806.63206	2966.9625
2809.17967	2950.3625
2811.72571	2957.1625
2814.27018	2949.0625
2816.81308	2940.6625
2819.35442	2905.4625
2821.89419	2920.6625
2824.43239	2907.2625
2826.96904	2935.7625
2829.50412	2924.9625
2832.03763	2922.1625
2834.56959	2911.7625
2837.1	2903.8625
2839.62884	2908.1625
2842.15613	2900.4625
2844.68186	2903.5625
2847.20604	2878.0625
2849.72867	2877.0625
2852.24974	2883.3625
2854.76927	2856.3625
2857.28724	2803.4625
2859.80367	2865.7625
2862.31855	2876.6625
2864.83189	2867.3625
2867.34368	2860.7625
2869.85393	2875.1625
2872.36264	2846.5625
2874.8698	2852.7625
2877.37543	2852.1625
2879.87952	2854.7625
2882.38207	2824.5625
2884.88308	2833.8625
2887.38256	2835.8625
2889.88051	2821.1625
2892.37692	2826.9625
2894.8718	2803.0625
2897.36515	2823.6625
2899.85698	2811.8625
2902.34727	2812.4625
2904.83604	2815.0625
2907.32328	2835.3625
2909.809	2831.3625
2912.29319	2828.1625
2914.77587	2835.6625
2917.25702	2845.1625
2919.73665	2850.1625
2922.21476	2846.7625
2924.69136	2836.0625
2927.16644	2842.0625
2929.64	2828.1625
2932.11205	2824.1625
2934.58258	2821.8625
2937.05161	2797.1625
2939.51912	2804.7625
2941.98513	2824.5625
2944.44962	2797.7625
2946.91261	2774.4625
2949.37409	2786.3625
2951.83407	2764.9625
2954.29254	2773.2625
2956.74951	2778.6625
2959.20498	2745.1625
2961.65895	2754.8625
2964.11142	2739.0625
2966.56239	2741.1625
2969.01186	2749.4625
2971.45984	2737.4625
2973.90632	2737.3625
2976.35131	2746.0625
2978.7948	2734.2625
2981.23681	2714.3625
2983.67732	2721.7625
2986.11635	2703.1625
2988.55388	2695.0625
2990.98993	2687.4625
2993.4245	2694.2625
2995.85758	2672.0625
2998.28917	2663.1625
3000.71928	2656.0625
3003.14791	2657.8625
3005.57506	2649.4625
3008.00073	2630.8625
3010.42493	2565.8625
3012.84764	2628.7625
3015.26888	2618.7625
3017.68865	2612.2625
3020.10694	2569.7625
3022.52376	2585.6625
3024.9391	2578.0625
3027.35298	2573.8625
3029.76539	2561.8625
3032.17632	2565.1625
3034.5858	2551.9625
3036.9938	2556.8625
3039.40034	2551.5625
3041.80542	2548.5625
3044.20903	2522.5625
3046.61118	2515.2625
3049.01187	2532.7625
3051.4111	2522.4625
3053.80888	2499.8625
3056.20519	2498.7625
3058.60005	2490.8625
3060.99345	2517.0625
3063.3854	2476.0625
3065.7759	2466.1625
3068.16494	2468.2625
3070.55254	2450.1625
3072.93868	2472.0625
3075.32338	2452.8625
3077.70662	2446.5625
3080.08842	2430.3625
3082.46878	2416.3625
3084.84769	2439.8625
3087.22515	2418.9625
3089.60118	2432.5625
3091.97576	2401.0625
3094.3489	2420.6625
3096.72061	2423.3625
3099.09087	2403.3625
3101.4597	2417.6625
3103.82709	2410.4625
3106.19305	2398.9625
3108.55757	2394.3625
3110.92066	2380.9625
3113.28232	2400.8625
3115.64255	2375.7625
3118.00134	2384.3625
3120.35871	2363.0625
3122.71466	2351.2625
3125.06917	2347.9625
3127.42226	2334.6625
3129.77393	2323.3625
3132.12417	2346.8625
3134.47299	2343.8625
3136.82039	2324.1625
3139.16636	2295.9625
3141.51092	2315.6625
3143.85406	2325.7625
3146.19579	2302.7625
3148.53609	2298.9625
3150.87499	2316.7625
3153.21246	2292.6625
3155.54853	2318.2625
3157.88318	2305.3625
3160.21642	2309.8625
3162.54826	2311.2625
3164.87868	2306.0625
3167.2077	2288.1625
3169.5353	2291.7625
3171.86151	2298.1625
3174.18631	2289.2625
3176.5097	2282.7625
3178.83169	2272.9625
3181.15228	2269.0625
3183.47147	2259.6625
3185.78926	2228.8625
3188.10565	2248.3625
3190.42065	2222.8625
3192.73424	2250.9625
3195.04645	2232.8625
3197.35725	2217.3625
3199.66667	2233.1625
3201.97469	2218.8625
3204.28132	2215.4625
3206.58656	2232.4625
3208.8904	2229.4625
3211.19287	2227.2625
3213.49394	2206.4625
3215.79363	2201.8625
3218.09193	2218.4625
3220.38884	2213.7625
3222.68438	2212.0625
3224.97853	2191.5625
3227.2713	2211.7625
3229.56269	2198.8625
3231.8527	2194.7625
3234.14133	2186.0625
3236.42858	2184.6625
3238.71446	2160.1625
3240.99896	2168.8625
3243.28209	2155.8625
3245.56384	2163.7625
3247.84423	2149.4625
3250.12324	2149.0625
3252.40088	2155.0625
3254.67715	2142.6625
3256.95205	2133.6625
3259.22558	2139.6625
3261.49775	2142.0625
3263.76855	2137.4625
3266.03799	2147.4625
3268.30606	2126.2625
3270.57277	2129.7625
3272.83812	2114.0625
3275.10211	2109.4625
3277.36474	2129.5625
3279.62601	2123.8625
3281.88593	2101.4625
3284.14448	2079.5625
3286.40168	2103.2625
3288.65753	2082.8625
3290.91202	2084.5625
3293.16516	2069.2625
3295.41695	2091.9625
3297.66738	2088.7625
3299.91647	2055.0625
3302.16421	2059.8625
3304.4106	2025.9625
3306.65564	2041.1625
3308.89933	2008.4625
3311.14169	2004.1625
3313.38269	1985.5625
3315.62236	1972.6625
3317.86068	1954.9625
3320.09766	1952.2625
3322.3333	1918.7625
3324.5676	1916.5625
3326.80056	1881.8625
3329.03219	1872.6625
3331.26248	0.0625
3333.49143	-0.3375
3335.71905	1.3625
