Data from AgNPs_UA_5uM_CRN_500uM_SU_RamanShift__87__11-43-53-156.txt Node

Date: Thu Aug 04 11:43:53 BST 2022
User: TCL
Spectrometer: QEP01345
Trigger mode: 4
Integration Time (sec): 1.000000E0
Scans to average: 10
Electric dark correction enabled: true
Nonlinearity correction enabled: false
Boxcar width: 0
XAxis mode: Raman Shifts
Number of Pixels in Spectrum: 1044
>>>>>Begin Spectral Data<<<<<
46.04893	-0.8
50.45542	0.2
54.85868	0.6
59.25871	-0.3
63.6555	-64.6
68.04907	-44.7
72.43941	-78.1
76.82654	-63.3
81.21044	-62.6
85.59113	-55.8
89.96862	-81.2
94.34289	-62.6
98.71396	-84.3
103.08183	-63.9
107.4465	-57.2
111.80798	-64.7
116.16626	-54
120.52136	-82.8
124.87327	-61.8
129.222	-73.6
133.56755	-62.5
137.90993	-76.4
142.24913	-67.3
146.58517	-62.2
150.91804	-63
155.24774	-56.6
159.57429	-44
163.89768	-52.7
168.21792	-28.2
172.53501	-34.5
176.84895	11.3
181.15975	85.7
185.46741	149.3
189.77193	226.3
194.07331	378
198.37157	510.8
202.6667	629.5
206.9587	780.6
211.24758	930.1
215.53334	1070.9
219.81599	1211.6
224.09553	1392.9
228.37195	1573.3
232.64527	1761.2
236.91549	1980.3
241.18261	2148
245.44663	2342.2
249.70755	2493.3
253.96539	2626.1
258.22014	2751.2
262.4718	2849.8
266.72039	2911.1
270.96589	2926.9
275.20832	2898
279.44768	2859.5
283.68397	2825
287.91719	2780
292.14735	2754.2
296.37445	2771.3
300.59849	2823.1
304.81948	2862.3
309.03742	2940.2
313.25231	3007.7
317.46415	3018.7
321.67296	2926.1
325.87872	2829.8
330.08145	2809.1
334.28114	2788.3
338.47781	2840.4
342.67145	2907
346.86207	2964.3
351.04966	3084.3
355.23424	3193.5
359.4158	3295.7
363.59435	3275.2
367.76989	3287.1
371.94243	3268.4
376.11196	3244.2
380.27849	3275.7
384.44203	3266.3
388.60257	3286.2
392.76012	3308.8
396.91468	3370.3
401.06626	3430.3
405.21485	3426.4
409.36047	3426.5
413.50311	3373.6
417.64277	3344.7
421.77947	3305.7
425.9132	3307.7
430.04396	3304.7
434.17176	3340.9
438.2966	3386.4
442.41849	3409.6
446.53742	3460.1
450.6534	3469.4
454.76644	3522.1
458.87653	3551.8
462.98368	3549.7
467.08789	3527.7
471.18916	3546.1
475.2875	3540.7
479.38291	3557.3
483.4754	3537
487.56496	3556
491.6516	3547.8
495.73531	3548.5
499.81612	3573.6
503.89401	3615.9
507.96899	3619.3
512.04106	3657.8
516.11023	3684.7
520.1765	3720.2
524.23987	3719.7
528.30034	3754.5
532.35792	3717.2
536.41261	3723.5
540.46441	3724.1
544.51333	3722.3
548.55936	3741.5
552.60252	3798.6
556.64279	3822.2
560.6802	3879.3
564.71473	3924.1
568.7464	3987.5
572.7752	3975.3
576.80114	3896.3
580.82422	3856.8
584.84444	3826.5
588.86181	3831.5
592.87633	3853.2
596.888	3900.9
600.89682	3972.8
604.9028	4195.1
608.90594	4653.1
612.90624	5169.6
616.90371	4993.4
620.89834	4361
624.89015	4088.5
628.87913	4043.4
632.86528	4107.7
636.84862	4155.5
640.82913	4135.7
644.80683	4050.5
648.78172	4039.4
652.75379	4068.1
656.72306	4135.9
660.68952	4206.3
664.65319	4182.4
668.61405	4139.3
672.57211	4128.7
676.52738	4157.7
680.47986	4159.3
684.42955	4150.4
688.37646	4162.5
692.32058	4172.9
696.26192	4204.1
700.20048	4222.9
704.13626	4256.7
708.06928	4233.1
711.99952	4258.2
715.927	4250.4
719.85171	4272.4
723.77365	4299.2
727.69284	4293.7
731.60928	4314.8
735.52295	4288.2
739.43388	4320.7
743.34206	4344.6
747.24749	4368.8
751.15017	4388.7
755.05012	4374.8
758.94733	4479.5
762.8418	4651.2
766.73354	4932.3
770.62254	5108.5
774.50882	5076.1
778.39237	4994
782.27321	4852.9
786.15132	4675.9
790.02671	4575.1
793.89938	4452.8
797.76935	4485.3
801.6366	4448
805.50115	4440.9
809.36299	4453.9
813.22213	4466
817.07857	4472.4
820.93231	4472.2
824.78336	4501.3
828.63172	4515.5
832.47738	4513.5
836.32036	4543.1
840.16066	4540.6
843.99827	4545.1
847.8332	4548.2
851.66546	4569.8
855.49504	4546.2
859.32195	4580.3
863.1462	4584.6
866.96777	4588.6
870.78668	4578.5
874.60293	4610.3
878.41652	4621
882.22745	4667.1
886.03573	4660.9
889.84136	4662.4
893.64433	4701.4
897.44466	4687.6
901.24235	4685.7
905.0374	4720.1
908.8298	4688.2
912.61957	4682.7
916.40671	4634.5
920.19121	4667.8
923.97308	4713.7
927.75233	4703.9
931.52895	4714.6
935.30295	4740.9
939.07433	4708
942.84309	4659.6
946.60924	4692.7
950.37278	4661.7
954.13371	4671.5
957.89203	4657.9
961.64774	4680.8
965.40086	4666.5
969.15137	4641
972.89929	4694.9
976.64461	4669
980.38733	4699.1
984.12747	4675.2
987.86502	4670.4
991.59999	4666.1
995.33237	4721.8
999.06217	4752.6
1002.78939	4754.2
1006.51404	4796.5
1010.23611	4817.6
1013.95561	4826
1017.67255	4827.2
1021.38692	4842.3
1025.09872	4838.2
1028.80796	4799.2
1032.51465	4828.8
1036.21877	4808.7
1039.92035	4839.7
1043.61937	4840.1
1047.31584	4869.4
1051.00976	4903.7
1054.70114	4902.5
1058.38998	4917.8
1062.07627	4915.4
1065.76003	4920.1
1069.44126	4955.8
1073.11995	4966.5
1076.79611	5010
1080.46974	5044.2
1084.14085	5091.4
1087.80943	5122.5
1091.47549	5141.5
1095.13903	5124.1
1098.80005	5120.3
1102.45857	5073.7
1106.11456	5080.3
1109.76805	5020.4
1113.41903	5068.4
1117.06751	5095.2
1120.71348	5139.6
1124.35696	5237.9
1127.99793	5298.5
1131.63641	5281.2
1135.2724	5186.2
1138.90589	5116.2
1142.5369	5057.3
1146.16542	5047.4
1149.79145	5006.6
1153.415	5014
1157.03607	4993.5
1160.65467	5004.8
1164.27079	5058.4
1167.88443	5087.2
1171.49561	5195.2
1175.10432	5306.3
1178.71056	5491.1
1182.31434	5657.5
1185.91565	5695.3
1189.51451	5628.5
1193.11091	5583
1196.70485	5528.1
1200.29634	5483.5
1203.88538	5432.4
1207.47197	5331.3
1211.05612	5255.8
1214.63782	5211.8
1218.21708	5178.2
1221.79391	5167.8
1225.36829	5134.9
1228.94024	5121.2
1232.50976	5149.3
1236.07685	5163.8
1239.6415	5171.2
1243.20374	5189.6
1246.76355	5202.5
1250.32093	5241
1253.8759	5248
1257.42845	5324.5
1260.97859	5365.6
1264.52631	5441.3
1268.07163	5441.1
1271.61453	5468.5
1275.15503	5447.4
1278.69312	5435.6
1282.22882	5467.4
1285.76211	5507.8
1289.29301	5547.6
1292.82151	5600.2
1296.34761	5632
1299.87133	5691.7
1303.39266	5829.1
1306.9116	6056.1
1310.42815	6322.1
1313.94233	6457.6
1317.45412	6304.9
1320.96354	6053.4
1324.47058	5831.3
1327.97525	5663.9
1331.47754	5555.5
1334.97747	5521.5
1338.47502	5516.4
1341.97022	5596.7
1345.46305	5764.4
1348.95352	5949.1
1352.44163	6184.7
1355.92738	6366.8
1359.41078	6682.2
1362.89183	7029.2
1366.37053	6918.2
1369.84688	6357.1
1373.32088	5852.5
1376.79254	5610.3
1380.26186	5449.2
1383.72883	5347.5
1387.19347	5237.9
1390.65578	5141.8
1394.11575	5111.6
1397.57339	5067
1401.0287	5055.9
1404.48168	5048.1
1407.93234	5047.5
1411.38068	5047.1
1414.82669	5059.7
1418.27039	5093.9
1421.71177	5120.7
1425.15083	5077.4
1428.58758	5069.8
1432.02203	5082.8
1435.45416	5124.1
1438.88399	5087.7
1442.31151	5024.4
1445.73673	5050.5
1449.15965	5035.7
1452.58027	5028.5
1455.9986	5040.4
1459.41463	5018.1
1462.82837	5061.1
1466.23982	5082.5
1469.64898	5108.2
1473.05586	5116.8
1476.46045	5137
1479.86276	5159.8
1483.26279	5178.8
1486.66054	5255.9
1490.05602	5303.4
1493.44922	5442.8
1496.84016	5592.5
1500.22882	5848.5
1503.61521	6161.2
1506.99934	6547.6
1510.38121	6877.5
1513.76081	6990.6
1517.13816	6752
1520.51324	6277.9
1523.88607	5882.7
1527.25665	5634.8
1530.62498	5496.2
1533.99105	5417.1
1537.35488	5372.9
1540.71647	5362.8
1544.07581	5356.7
1547.4329	5353.6
1550.78776	5363.4
1554.14038	5356.5
1557.49077	5351
1560.83892	5440.8
1564.18484	5494.6
1567.52853	5562.7
1570.86999	5640.9
1574.20922	5642.1
1577.54624	5618.3
1580.88103	5537.2
1584.2136	5387.7
1587.54395	5334.4
1590.87208	5321.8
1594.19801	5333
1597.52172	5408
1600.84321	5456.8
1604.16251	5391.3
1607.47959	5315.7
1610.79447	5307.5
1614.10715	5245.9
1617.41763	5212.2
1620.7259	5150.9
1624.03199	5131.9
1627.33587	5112.6
1630.63757	5118.3
1633.93707	5180.2
1637.23439	5265.8
1640.52951	5421.1
1643.82246	5620
1647.11321	5909.9
1650.40179	6084.3
1653.68819	6037.7
1656.97241	5748.4
1660.25446	5457.7
1663.53433	5219.2
1666.81203	5087.9
1670.08756	5047.7
1673.36092	5009.5
1676.63211	4957.7
1679.90115	4964.2
1683.16801	4951.6
1686.43272	4899.1
1689.69527	4900.5
1692.95567	4862.5
1696.2139	4871.7
1699.46999	4841
1702.72392	4855.6
1705.97571	4887.7
1709.22535	4874.2
1712.47284	4905.4
1715.71819	4913.8
1718.96139	4917.7
1722.20246	4919.8
1725.44139	4927.4
1728.67818	4927.5
1731.91284	4902.8
1735.14537	4885.6
1738.37576	4875
1741.60403	4875.2
1744.83017	4856.4
1748.05418	4854.1
1751.27607	4874.9
1754.49584	4843.4
1757.71349	4821.7
1760.92903	4846.6
1764.14244	4803.1
1767.35375	4816.9
1770.56294	4805.3
1773.77002	4803.8
1776.97499	4837.2
1780.17785	4827.2
1783.37861	4829.3
1786.57727	4846.2
1789.77382	4780.3
1792.96828	4828.5
1796.16064	4839.9
1799.3509	4822.1
1802.53907	4830.2
1805.72514	4808.8
1808.90913	4787.1
1812.09102	4780.4
1815.27083	4793.1
1818.44856	4779.2
1821.6242	4785.6
1824.79776	4770.7
1827.96924	4766.3
1831.13864	4746.6
1834.30597	4777.2
1837.47122	4742.9
1840.6344	4738.9
1843.7955	4727.6
1846.95454	4728.1
1850.11151	4760
1853.26642	4735.9
1856.41926	4720.8
1859.57004	4742.8
1862.71876	4733.2
1865.86542	4747.3
1869.01003	4738.1
1872.15258	4706.1
1875.29308	4735.2
1878.43152	4731.1
1881.56792	4700.2
1884.70227	4689.8
1887.83457	4693.1
1890.96482	4688.3
1894.09304	4687.2
1897.21921	4689.3
1900.34335	4693.6
1903.46544	4666.8
1906.58551	4687.5
1909.70353	4678.7
1912.81953	4666.5
1915.93349	4645.1
1919.04543	4641.2
1922.15534	4637.8
1925.26322	4661.5
1928.36908	4632.9
1931.47292	4636.7
1934.57473	4652.3
1937.67453	4614.9
1940.77232	4595.9
1943.86808	4601.7
1946.96184	4576.4
1950.05358	4576.3
1953.14331	4546.8
1956.23103	4556.1
1959.31675	4534
1962.40046	4485
1965.48217	4494.1
1968.56188	4491
1971.63959	4470.7
1974.7153	4477.9
1977.78901	4475.2
1980.86073	4453.6
1983.93046	4440.8
1986.99819	4368.8
1990.06394	4379.3
1993.1277	4390.9
1996.18947	4394.9
1999.24925	4369.8
2002.30706	4371.7
2005.36288	4378
2008.41672	4358
2011.46859	4329.1
2014.51848	4326.3
2017.56639	4282.8
2020.61233	4292.5
2023.6563	4295.7
2026.6983	4237.3
2029.73833	4270.7
2032.7764	4274
2035.8125	4210.5
2038.84664	4235.9
2041.87881	4217
2044.90903	4210.6
2047.93729	4208.2
2050.96359	4189.4
2053.98794	4205.3
2057.01034	4215.9
2060.03078	4190.1
2063.04927	4201
2066.06582	4197.2
2069.08042	4180.9
2072.09307	4198.8
2075.10378	4188.4
2078.11255	4185.5
2081.11938	4195.4
2084.12426	4186.8
2087.12722	4184.9
2090.12824	4176.6
2093.12732	4184.7
2096.12447	4195.2
2099.11969	4187.3
2102.11299	4178.8
2105.10435	4198.9
2108.09379	4189.1
2111.08131	4174.4
2114.0669	4189.9
2117.05057	4191.4
2120.03233	4161.2
2123.01216	4199.4
2125.99008	4202.6
2128.96609	4191.1
2131.94018	4218.9
2134.91236	4204.2
2137.88263	4199.6
2140.851	4213
2143.81746	4236.8
2146.78201	4232.5
2149.74466	4205.5
2152.7054	4247
2155.66425	4221.9
2158.6212	4238.1
2161.57625	4205.7
2164.52941	4181.2
2167.48067	4201
2170.43004	4202.7
2173.37752	4220.7
2176.32311	4200.8
2179.26681	4211.9
2182.20863	4216.8
2185.14856	4214.7
2188.08661	4208.8
2191.02278	4226.2
2193.95707	4205.7
2196.88948	4194.6
2199.82001	4203.3
2202.74867	4200.2
2205.67545	4199.1
2208.60037	4202.1
2211.52341	4192.4
2214.44458	4168.2
2217.36388	4175.2
2220.28132	4167.7
2223.1969	4140.8
2226.11061	4132.7
2229.02246	4124.5
2231.93245	4136.1
2234.84058	4121.7
2237.74686	4096.7
2240.65128	4105.4
2243.55385	4113.2
2246.45456	4079.9
2249.35343	4092.4
2252.25044	4078.2
2255.14561	4105.3
2258.03893	4095.3
2260.93041	4061.3
2263.82004	4074.5
2266.70783	4063.1
2269.59378	4036.9
2272.4779	4009.7
2275.36017	4036.4
2278.24061	4007.3
2281.11922	3990.6
2283.996	4001.1
2286.87094	3983.7
2289.74405	3999
2292.61534	4001.2
2295.4848	3978.8
2298.35243	3980.9
2301.21824	3976.2
2304.08223	3977.1
2306.94439	3965
2309.80474	3977.4
2312.66327	3969.7
2315.51999	3944.7
2318.37489	3945.1
2321.22797	3930.6
2324.07925	3929.4
2326.92871	3935.1
2329.77637	3912.3
2332.62222	3914.9
2335.46626	3888.2
2338.3085	3881.5
2341.14893	3895.1
2343.98756	3891.6
2346.8244	3865
2349.65943	3844.8
2352.49267	3871.1
2355.32411	3869.7
2358.15376	3858.3
2360.98161	3857
2363.80768	3838.9
2366.63195	3854.3
2369.45444	3852.4
2372.27514	3845.3
2375.09405	3846.4
2377.91118	3814.2
2380.72652	3815.4
2383.54009	3819.3
2386.35187	3822.1
2389.16188	3801.3
2391.97011	3807.7
2394.77657	3788.5
2397.58125	3793.2
2400.38416	3790
2403.18529	3762
2405.98466	3755.8
2408.78226	3759.2
2411.57809	3760
2414.37216	3733.4
2417.16446	3746
2419.955	3715.5
2422.74378	3747.2
2425.5308	3723.5
2428.31606	3729.5
2431.09956	3715.6
2433.88131	3700.6
2436.6613	3711
2439.43954	3707.8
2442.21603	3689.8
2444.99077	3682.8
2447.76377	3704.4
2450.53501	3686.3
2453.30451	3676.1
2456.07226	3690.3
2458.83827	3664
2461.60254	3631.1
2464.36507	3665.6
2467.12586	3634.2
2469.88492	3645.1
2472.64224	3635.9
2475.39782	3626.2
2478.15167	3626.5
2480.90379	3622.2
2483.65417	3639
2486.40283	3613
2489.14976	3623.4
2491.89497	3608.2
2494.63845	3615.6
2497.3802	3597.8
2500.12024	3598.9
2502.85855	3588.8
2505.59514	3604.6
2508.33002	3607
2511.06318	3565.8
2513.79462	3581.4
2516.52435	3538.4
2519.25237	3541.4
2521.97867	3541.6
2524.70327	3531.7
2527.42616	3536.9
2530.14734	3542.2
2532.86681	3528.9
2535.58458	3540.4
2538.30065	3518.4
2541.01501	3534.6
2543.72768	3509.3
2546.43864	3507.7
2549.14791	3501.9
2551.85548	3473.5
2554.56136	3488.6
2557.26554	3480.5
2559.96803	3462.8
2562.66883	3445.9
2565.36794	3450.3
2568.06536	3419
2570.7611	3454.3
2573.45514	3430
2576.14751	3422
2578.83819	3402.2
2581.52719	3399.8
2584.21451	3392.7
2586.90015	3376.5
2589.58411	3355.5
2592.2664	3373.4
2594.94701	3354.9
2597.62594	3375.9
2600.30321	3301.4
2602.9788	3329.1
2605.65273	3318.8
2608.32498	3329.3
2610.99557	3340.1
2613.66449	3295.7
2616.33175	3319
2618.99734	3312.9
2621.66128	3307.1
2624.32355	3291.1
2626.98416	3265.4
2629.64311	3278.1
2632.30041	3286.1
2634.95605	3254.7
2637.61004	3264.6
2640.26238	3231.4
2642.91306	3233.7
2645.56209	3269.2
2648.20948	3254.6
2650.85521	3222.8
2653.4993	3243.2
2656.14175	3241.3
2658.78255	3209.2
2661.42171	3189.7
2664.05923	3240.1
2666.6951	3231.5
2669.32934	3236.5
2671.96194	3251.6
2674.59291	3223.4
2677.22224	3242.1
2679.84993	3227.3
2682.476	3215
2685.10043	3219.6
2687.72324	3186.9
2690.34441	3212.1
2692.96396	3200.5
2695.58188	3201.9
2698.19818	3199.8
2700.81285	3204.8
2703.4259	3199.7
2706.03733	3163.4
2708.64714	3172.4
2711.25533	3192.5
2713.86191	3188.6
2716.46687	3196
2719.07021	3180.3
2721.67194	3185.5
2724.27206	3197.6
2726.87057	3180.9
2729.46747	3180.3
2732.06276	3187.8
2734.65644	3161.2
2737.24852	3169.9
2739.83899	3144.6
2742.42786	3165.1
2745.01513	3164.6
2747.60079	3147.4
2750.18486	3131
2752.76733	3151.1
2755.3482	3126.2
2757.92747	3145.7
2760.50515	3104.1
2763.08123	3092.1
2765.65573	3109.7
2768.22863	3112.1
2770.79994	3088.5
2773.36967	3093.6
2775.9378	3085.1
2778.50435	3080.7
2781.06932	3078.9
2783.6327	3067.4
2786.1945	3086.6
2788.75471	3059
2791.31335	3044.1
2793.87041	3054
2796.42589	3028.8
2798.97979	3013.1
2801.53212	3026.2
2804.08288	3030.9
2806.63206	3002
2809.17967	2996.6
2811.72571	2989.5
2814.27018	2986.1
2816.81308	2964
2819.35442	2937.8
2821.89419	2964.1
2824.43239	2941
2826.96904	2946.3
2829.50412	2944.5
2832.03763	2948.8
2834.56959	2948.3
2837.1	2931.7
2839.62884	2930.3
2842.15613	2939
2844.68186	2939.6
2847.20604	2913.6
2849.72867	2903.5
2852.24974	2904.1
2854.76927	2870.7
2857.28724	2826.2
2859.80367	2883.1
2862.31855	2882.2
2864.83189	2869.4
2867.34368	2872.1
2869.85393	2872.4
2872.36264	2850.8
2874.8698	2850.7
2877.37543	2865.3
2879.87952	2848.3
2882.38207	2836.1
2884.88308	2848.6
2887.38256	2854.9
2889.88051	2855.6
2892.37692	2839.1
2894.8718	2821.6
2897.36515	2852.4
2899.85698	2837.2
2902.34727	2826.9
2904.83604	2820.3
2907.32328	2833.4
2909.809	2831.7
2912.29319	2819.1
2914.77587	2824.5
2917.25702	2831
2919.73665	2837.6
2922.21476	2839.1
2924.69136	2834.3
2927.16644	2821.8
2929.64	2817.5
2932.11205	2821.9
2934.58258	2807.8
2937.05161	2792.4
2939.51912	2809.6
2941.98513	2817.5
2944.44962	2811.9
2946.91261	2770.2
2949.37409	2793.6
2951.83407	2794.1
2954.29254	2796.5
2956.74951	2792.5
2959.20498	2769.5
2961.65895	2788
2964.11142	2776.2
2966.56239	2787.4
2969.01186	2787.7
2971.45984	2794.3
2973.90632	2768.9
2976.35131	2777
2978.7948	2782
2981.23681	2764.5
2983.67732	2770.6
2986.11635	2771.2
2988.55388	2737.5
2990.98993	2738.1
2993.4245	2723.1
2995.85758	2713.1
2998.28917	2733.1
3000.71928	2717.3
3003.14791	2707.4
3005.57506	2688.6
3008.00073	2688.2
3010.42493	2635
3012.84764	2692.5
3015.26888	2697.9
3017.68865	2675.8
3020.10694	2639.9
3022.52376	2665.4
3024.9391	2672.2
3027.35298	2639.9
3029.76539	2632.8
3032.17632	2638.8
3034.5858	2623.2
3036.9938	2648.6
3039.40034	2632.6
3041.80542	2619.1
3044.20903	2618.9
3046.61118	2615.9
3049.01187	2636.4
3051.4111	2601.3
3053.80888	2597
3056.20519	2589.4
3058.60005	2577.6
3060.99345	2594.8
3063.3854	2569.1
3065.7759	2552.5
3068.16494	2553
3070.55254	2546.1
3072.93868	2555
3075.32338	2538
3077.70662	2543.4
3080.08842	2540.9
3082.46878	2508.9
3084.84769	2540
3087.22515	2525.7
3089.60118	2532.8
3091.97576	2507.9
3094.3489	2525.8
3096.72061	2521.8
3099.09087	2518.8
3101.4597	2532.9
3103.82709	2517.1
3106.19305	2511.5
3108.55757	2513.5
3110.92066	2501
3113.28232	2518.9
3115.64255	2523.1
3118.00134	2506.2
3120.35871	2483.6
3122.71466	2466.2
3125.06917	2481.6
3127.42226	2462.2
3129.77393	2452.6
3132.12417	2455.4
3134.47299	2459.8
3136.82039	2456
3139.16636	2419.8
3141.51092	2455.6
3143.85406	2460.1
3146.19579	2433.2
3148.53609	2441.6
3150.87499	2439.4
3153.21246	2425.2
3155.54853	2440.6
3157.88318	2449
3160.21642	2453.3
3162.54826	2433.3
3164.87868	2450.3
3167.2077	2415.6
3169.5353	2442.5
3171.86151	2443.6
3174.18631	2433.2
3176.5097	2421
3178.83169	2428.3
3181.15228	2431.9
3183.47147	2405.5
3185.78926	2399.3
3188.10565	2402.2
3190.42065	2378.3
3192.73424	2400
3195.04645	2383.8
3197.35725	2375.1
3199.66667	2386.9
3201.97469	2385.2
3204.28132	2372.4
3206.58656	2387.6
3208.8904	2381.7
3211.19287	2382.6
3213.49394	2368.5
3215.79363	2363
3218.09193	2386
3220.38884	2367.2
3222.68438	2373.6
3224.97853	2348.8
3227.2713	2371.7
3229.56269	2343.1
3231.8527	2366.8
3234.14133	2355.6
3236.42858	2343.3
3238.71446	2331.8
3240.99896	2357.3
3243.28209	2329.4
3245.56384	2325.7
3247.84423	2337.5
3250.12324	2324.9
3252.40088	2321.6
3254.67715	2306.5
3256.95205	2293.9
3259.22558	2316
3261.49775	2320.5
3263.76855	2312.1
3266.03799	2304.3
3268.30606	2313.6
3270.57277	2309.8
3272.83812	2287.8
3275.10211	2285.4
3277.36474	2306.5
3279.62601	2297.6
3281.88593	2275
3284.14448	2254.4
3286.40168	2271.3
3288.65753	2253.6
3290.91202	2257.9
3293.16516	2229.2
3295.41695	2250.6
3297.66738	2255.8
3299.91647	2229.7
3302.16421	2218.9
3304.4106	2189.3
3306.65564	2210.3
3308.89933	2164.9
3311.14169	2152.8
3313.38269	2143
3315.62236	2117.7
3317.86068	2109.8
3320.09766	2103
3322.3333	2073.6
3324.5676	2064.3
3326.80056	2027.3
3329.03219	2019.4
3331.26248	-0.7
3333.49143	-0.1
3335.71905	0.1
