Data from AgNPs_UA_20uM_CRN_500uM_SU_RamanShift__76__13-49-10-306.txt Node

Date: Thu Aug 04 13:49:10 BST 2022
User: TCL
Spectrometer: QEP01345
Trigger mode: 4
Integration Time (sec): 1.000000E0
Scans to average: 10
Electric dark correction enabled: true
Nonlinearity correction enabled: false
Boxcar width: 0
XAxis mode: Raman Shifts
Number of Pixels in Spectrum: 1044
>>>>>Begin Spectral Data<<<<<
46.04893	-0.5375
50.45542	-0.1375
54.85868	0.2625
59.25871	1.3625
63.6555	12.6625
68.04907	11.2625
72.43941	14.8625
76.82654	12.6625
81.21044	14.2625
85.59113	14.4625
89.96862	13.8625
94.34289	12.9625
98.71396	15.8625
103.08183	18.4625
107.4465	17.0625
111.80798	17.1625
116.16626	18.9625
120.52136	18.9625
124.87327	18.8625
129.222	24.1625
133.56755	22.9625
137.90993	23.8625
142.24913	24.8625
146.58517	29.1625
150.91804	34.9625
155.24774	39.9625
159.57429	51.3625
163.89768	67.4625
168.21792	90.1625
172.53501	123.0625
176.84895	170.8625
181.15975	242.4625
185.46741	337.4625
189.77193	464.5625
194.07331	627.0625
198.37157	808.2625
202.6667	1005.8625
206.9587	1191.6625
211.24758	1394.0625
215.53334	1587.0625
219.81599	1803.3625
224.09553	2033.8625
228.37195	2306.2625
232.64527	2603.7625
236.91549	2857.2625
241.18261	3121.4625
245.44663	3301.7625
249.70755	3457.2625
253.96539	3588.3625
258.22014	3692.9625
262.4718	3794.3625
266.72039	3874.4625
270.96589	3918.9625
275.20832	3886.1625
279.44768	3834.9625
283.68397	3773.0625
287.91719	3718.5625
292.14735	3721.6625
296.37445	3807.0625
300.59849	3934.1625
304.81948	4114.0625
309.03742	4261.3625
313.25231	4323.7625
317.46415	4257.0625
321.67296	4073.7625
325.87872	3898.0625
330.08145	3802.3625
334.28114	3802.6625
338.47781	3845.3625
342.67145	3945.8625
346.86207	4062.7625
351.04966	4234.3625
355.23424	4384.4625
359.4158	4513.3625
363.59435	4589.5625
367.76989	4595.9625
371.94243	4597.5625
376.11196	4587.0625
380.27849	4565.5625
384.44203	4565.1625
388.60257	4588.9625
392.76012	4610.3625
396.91468	4670.2625
401.06626	4747.3625
405.21485	4775.0625
409.36047	4698.2625
413.50311	4524.0625
417.64277	4344.3625
421.77947	4254.8625
425.9132	4241.6625
430.04396	4241.0625
434.17176	4276.2625
438.2966	4372.9625
442.41849	4474.6625
446.53742	4623.9625
450.6534	4742.6625
454.76644	4806.5625
458.87653	4797.1625
462.98368	4744.1625
467.08789	4697.5625
471.18916	4605.7625
475.2875	4486.0625
479.38291	4389.3625
483.4754	4337.7625
487.56496	4299.3625
491.6516	4256.6625
495.73531	4238.6625
499.81612	4252.0625
503.89401	4275.9625
507.96899	4319.6625
512.04106	4374.2625
516.11023	4418.8625
520.1765	4457.3625
524.23987	4477.8625
528.30034	4450.0625
532.35792	4425.3625
536.41261	4370.2625
540.46441	4329.6625
544.51333	4297.7625
548.55936	4337.2625
552.60252	4389.2625
556.64279	4468.3625
560.6802	4510.6625
564.71473	4566.5625
568.7464	4645.8625
572.7752	4665.1625
576.80114	4553.2625
580.82422	4446.8625
584.84444	4440.9625
588.86181	4505.5625
592.87633	4571.7625
596.888	4679.4625
600.89682	4885.8625
604.9028	5465.1625
608.90594	6732.5625
612.90624	7985.3625
616.90371	7291.8625
620.89834	5523.8625
624.89015	4803.0625
628.87913	4719.3625
632.86528	4742.8625
636.84862	4745.3625
640.82913	4625.7625
644.80683	4437.8625
648.78172	4339.4625
652.75379	4363.4625
656.72306	4550.6625
660.68952	4703.1625
664.65319	4658.3625
668.61405	4492.1625
672.57211	4461.5625
676.52738	4464.3625
680.47986	4403.8625
684.42955	4353.2625
688.37646	4354.2625
692.32058	4386.3625
696.26192	4442.9625
700.20048	4516.8625
704.13626	4527.0625
708.06928	4494.6625
711.99952	4432.2625
715.927	4444.3625
719.85171	4491.6625
723.77365	4469.9625
727.69284	4416.2625
731.60928	4393.4625
735.52295	4407.3625
739.43388	4428.8625
743.34206	4456.1625
747.24749	4474.8625
751.15017	4494.0625
755.05012	4546.9625
758.94733	4749.9625
762.8418	5206.6625
766.73354	5917.6625
770.62254	6519.7625
774.50882	6665.3625
778.39237	6304.5625
782.27321	5650.9625
786.15132	5093.8625
790.02671	4734.4625
793.89938	4561.8625
797.76935	4499.3625
801.6366	4469.9625
805.50115	4445.4625
809.36299	4430.7625
813.22213	4419.4625
817.07857	4410.5625
820.93231	4420.9625
824.78336	4422.7625
828.63172	4443.0625
832.47738	4447.9625
836.32036	4462.5625
840.16066	4454.5625
843.99827	4478.1625
847.8332	4447.2625
851.66546	4452.7625
855.49504	4462.5625
859.32195	4474.6625
863.1462	4451.7625
866.96777	4450.3625
870.78668	4425.9625
874.60293	4438.0625
878.41652	4457.4625
882.22745	4484.4625
886.03573	4508.2625
889.84136	4500.7625
893.64433	4484.7625
897.44466	4469.2625
901.24235	4473.0625
905.0374	4457.0625
908.8298	4434.6625
912.61957	4426.9625
916.40671	4456.9625
920.19121	4489.1625
923.97308	4533.1625
927.75233	4598.1625
931.52895	4626.8625
935.30295	4581.6625
939.07433	4492.3625
942.84309	4425.5625
946.60924	4395.8625
950.37278	4366.7625
954.13371	4368.1625
957.89203	4354.5625
961.64774	4333.4625
965.40086	4315.2625
969.15137	4308.1625
972.89929	4301.1625
976.64461	4312.1625
980.38733	4326.3625
984.12747	4354.3625
987.86502	4382.2625
991.59999	4442.1625
995.33237	4518.4625
999.06217	4622.9625
1002.78939	4744.9625
1006.51404	4803.7625
1010.23611	4885.9625
1013.95561	4925.7625
1017.67255	4936.0625
1021.38692	4923.6625
1025.09872	4874.4625
1028.80796	4889.0625
1032.51465	4974.5625
1036.21877	5044.7625
1039.92035	5059.8625
1043.61937	5009.2625
1047.31584	4947.8625
1051.00976	4878.0625
1054.70114	4854.8625
1058.38998	4851.6625
1062.07627	4864.0625
1065.76003	4912.6625
1069.44126	4973.2625
1073.11995	5029.7625
1076.79611	5097.7625
1080.46974	5150.7625
1084.14085	5205.8625
1087.80943	5281.0625
1091.47549	5280.4625
1095.13903	5233.6625
1098.80005	5117.5625
1102.45857	5029.5625
1106.11456	4984.7625
1109.76805	5007.1625
1113.41903	5081.0625
1117.06751	5194.5625
1120.71348	5338.5625
1124.35696	5519.0625
1127.99793	5623.9625
1131.63641	5525.0625
1135.2724	5345.5625
1138.90589	5190.3625
1142.5369	5077.9625
1146.16542	5018.2625
1149.79145	4978.3625
1153.415	4944.2625
1157.03607	4935.4625
1160.65467	4996.6625
1164.27079	5123.1625
1167.88443	5320.2625
1171.49561	5602.9625
1175.10432	6060.6625
1178.71056	6662.5625
1182.31434	7207.9625
1185.91565	7426.8625
1189.51451	7361.7625
1193.11091	7105.6625
1196.70485	6770.4625
1200.29634	6497.5625
1203.88538	6204.7625
1207.47197	5932.9625
1211.05612	5689.9625
1214.63782	5525.9625
1218.21708	5449.2625
1221.79391	5450.9625
1225.36829	5460.0625
1228.94024	5471.6625
1232.50976	5434.1625
1236.07685	5425.7625
1239.6415	5413.2625
1243.20374	5457.6625
1246.76355	5470.0625
1250.32093	5551.9625
1253.8759	5684.6625
1257.42845	5843.3625
1260.97859	6020.7625
1264.52631	6164.7625
1268.07163	6267.2625
1271.61453	6367.9625
1275.15503	6466.7625
1278.69312	6556.0625
1282.22882	6642.1625
1285.76211	6755.2625
1289.29301	6942.3625
1292.82151	7150.2625
1296.34761	7357.4625
1299.87133	7676.1625
1303.39266	8197.7625
1306.9116	8920.2625
1310.42815	9587.2625
1313.94233	9818.8625
1317.45412	9433.5625
1320.96354	8846.2625
1324.47058	8226.0625
1327.97525	7734.9625
1331.47754	7492.1625
1334.97747	7457.1625
1338.47502	7587.7625
1341.97022	7843.0625
1345.46305	8163.6625
1348.95352	8622.2625
1352.44163	9169.0625
1355.92738	9899.0625
1359.41078	10892.1625
1362.89183	11567.5625
1366.37053	10969.2625
1369.84688	9378.0625
1373.32088	7911.0625
1376.79254	7094.5625
1380.26186	6727.0625
1383.72883	6538.7625
1387.19347	6387.7625
1390.65578	6198.4625
1394.11575	6019.4625
1397.57339	5881.2625
1401.0287	5802.8625
1404.48168	5794.8625
1407.93234	5853.9625
1411.38068	5966.5625
1414.82669	6037.8625
1418.27039	6071.9625
1421.71177	6021.0625
1425.15083	6004.6625
1428.58758	6045.3625
1432.02203	6140.8625
1435.45416	6237.5625
1438.88399	6232.2625
1442.31151	6189.1625
1445.73673	6138.5625
1449.15965	6107.6625
1452.58027	6061.4625
1455.9986	5970.7625
1459.41463	5970.9625
1462.82837	5996.2625
1466.23982	6091.7625
1469.64898	6205.5625
1473.05586	6297.9625
1476.46045	6354.3625
1479.86276	6410.3625
1483.26279	6488.8625
1486.66054	6626.2625
1490.05602	6831.0625
1493.44922	7165.0625
1496.84016	7672.8625
1500.22882	8407.2625
1503.61521	9349.8625
1506.99934	10226.8625
1510.38121	10768.4625
1513.76081	10538.6625
1517.13816	9642.8625
1520.51324	8565.4625
1523.88607	7741.6625
1527.25665	7238.7625
1530.62498	7005.6625
1533.99105	6867.1625
1537.35488	6817.2625
1540.71647	6730.4625
1544.07581	6680.9625
1547.4329	6634.0625
1550.78776	6542.4625
1554.14038	6517.5625
1557.49077	6487.1625
1560.83892	6527.8625
1564.18484	6657.2625
1567.52853	6805.6625
1570.86999	6925.5625
1574.20922	6949.5625
1577.54624	6839.5625
1580.88103	6519.3625
1584.2136	6190.5625
1587.54395	6063.7625
1590.87208	6182.7625
1594.19801	6503.0625
1597.52172	6953.0625
1600.84321	7220.8625
1604.16251	7160.4625
1607.47959	6921.5625
1610.79447	6555.6625
1614.10715	6151.5625
1617.41763	5776.9625
1620.7259	5509.5625
1624.03199	5385.6625
1627.33587	5372.4625
1630.63757	5487.9625
1633.93707	5756.9625
1637.23439	6199.7625
1640.52951	6836.3625
1643.82246	7621.0625
1647.11321	8338.0625
1650.40179	8518.9625
1653.68819	7904.7625
1656.97241	6851.8625
1660.25446	5898.3625
1663.53433	5253.8625
1666.81203	4888.9625
1670.08756	4686.9625
1673.36092	4563.6625
1676.63211	4462.6625
1679.90115	4392.2625
1683.16801	4349.3625
1686.43272	4299.5625
1689.69527	4287.5625
1692.95567	4270.8625
1696.2139	4264.2625
1699.46999	4231.7625
1702.72392	4235.3625
1705.97571	4242.3625
1709.22535	4239.9625
1712.47284	4231.4625
1715.71819	4230.2625
1718.96139	4225.6625
1722.20246	4218.0625
1725.44139	4203.9625
1728.67818	4169.5625
1731.91284	4151.0625
1735.14537	4126.3625
1738.37576	4126.6625
1741.60403	4104.9625
1744.83017	4098.0625
1748.05418	4091.4625
1751.27607	4088.1625
1754.49584	4076.3625
1757.71349	4072.7625
1760.92903	4048.9625
1764.14244	4051.8625
1767.35375	4039.7625
1770.56294	4036.9625
1773.77002	4031.8625
1776.97499	4012.0625
1780.17785	4002.1625
1783.37861	4002.2625
1786.57727	3996.6625
1789.77382	3987.6625
1792.96828	4000.7625
1796.16064	3976.7625
1799.3509	3968.3625
1802.53907	3978.6625
1805.72514	3969.4625
1808.90913	3964.9625
1812.09102	3951.9625
1815.27083	3933.4625
1818.44856	3935.7625
1821.6242	3921.9625
1824.79776	3927.9625
1827.96924	3930.5625
1831.13864	3915.0625
1834.30597	3905.3625
1837.47122	3908.3625
1840.6344	3893.7625
1843.7955	3902.0625
1846.95454	3875.5625
1850.11151	3895.7625
1853.26642	3878.0625
1856.41926	3883.4625
1859.57004	3871.2625
1862.71876	3887.1625
1865.86542	3884.3625
1869.01003	3888.7625
1872.15258	3858.6625
1875.29308	3868.3625
1878.43152	3884.6625
1881.56792	3854.5625
1884.70227	3859.0625
1887.83457	3858.7625
1890.96482	3859.1625
1894.09304	3851.5625
1897.21921	3833.5625
1900.34335	3831.3625
1903.46544	3836.7625
1906.58551	3839.0625
1909.70353	3843.3625
1912.81953	3838.9625
1915.93349	3833.7625
1919.04543	3831.3625
1922.15534	3806.8625
1925.26322	3815.0625
1928.36908	3807.5625
1931.47292	3799.5625
1934.57473	3794.3625
1937.67453	3784.5625
1940.77232	3788.3625
1943.86808	3769.9625
1946.96184	3767.3625
1950.05358	3753.0625
1953.14331	3739.0625
1956.23103	3732.7625
1959.31675	3711.0625
1962.40046	3705.3625
1965.48217	3696.7625
1968.56188	3684.8625
1971.63959	3681.4625
1974.7153	3663.6625
1977.78901	3658.9625
1980.86073	3655.9625
1983.93046	3642.1625
1986.99819	3642.6625
1990.06394	3612.6625
1993.1277	3604.6625
1996.18947	3604.4625
1999.24925	3587.7625
2002.30706	3572.9625
2005.36288	3566.4625
2008.41672	3553.2625
2011.46859	3536.9625
2014.51848	3544.4625
2017.56639	3516.7625
2020.61233	3505.6625
2023.6563	3505.3625
2026.6983	3498.3625
2029.73833	3506.6625
2032.7764	3489.8625
2035.8125	3484.5625
2038.84664	3475.8625
2041.87881	3473.6625
2044.90903	3460.9625
2047.93729	3464.6625
2050.96359	3445.1625
2053.98794	3447.8625
2057.01034	3459.4625
2060.03078	3450.2625
2063.04927	3440.4625
2066.06582	3430.1625
2069.08042	3425.2625
2072.09307	3434.1625
2075.10378	3423.2625
2078.11255	3423.6625
2081.11938	3433.3625
2084.12426	3414.6625
2087.12722	3420.8625
2090.12824	3419.4625
2093.12732	3428.3625
2096.12447	3428.4625
2099.11969	3423.5625
2102.11299	3430.8625
2105.10435	3433.2625
2108.09379	3424.3625
2111.08131	3424.0625
2114.0669	3447.2625
2117.05057	3433.2625
2120.03233	3433.2625
2123.01216	3416.2625
2125.99008	3446.3625
2128.96609	3442.1625
2131.94018	3451.1625
2134.91236	3446.3625
2137.88263	3446.0625
2140.851	3447.0625
2143.81746	3446.9625
2146.78201	3437.9625
2149.74466	3445.2625
2152.7054	3439.7625
2155.66425	3438.0625
2158.6212	3459.5625
2161.57625	3451.0625
2164.52941	3437.6625
2167.48067	3438.2625
2170.43004	3435.3625
2173.37752	3437.9625
2176.32311	3439.1625
2179.26681	3441.0625
2182.20863	3445.1625
2185.14856	3439.3625
2188.08661	3447.7625
2191.02278	3448.7625
2193.95707	3452.8625
2196.88948	3438.6625
2199.82001	3445.8625
2202.74867	3438.4625
2205.67545	3429.6625
2208.60037	3433.8625
2211.52341	3428.3625
2214.44458	3432.2625
2217.36388	3409.8625
2220.28132	3397.2625
2223.1969	3395.0625
2226.11061	3388.8625
2229.02246	3381.0625
2231.93245	3372.7625
2234.84058	3367.0625
2237.74686	3370.5625
2240.65128	3367.9625
2243.55385	3364.7625
2246.45456	3365.8625
2249.35343	3350.2625
2252.25044	3357.0625
2255.14561	3351.6625
2258.03893	3352.4625
2260.93041	3335.1625
2263.82004	3331.9625
2266.70783	3334.1625
2269.59378	3313.5625
2272.4779	3305.1625
2275.36017	3295.8625
2278.24061	3294.1625
2281.11922	3285.5625
2283.996	3278.9625
2286.87094	3275.6625
2289.74405	3273.2625
2292.61534	3265.4625
2295.4848	3263.1625
2298.35243	3268.7625
2301.21824	3255.2625
2304.08223	3256.7625
2306.94439	3264.8625
2309.80474	3262.4625
2312.66327	3266.4625
2315.51999	3261.8625
2318.37489	3269.4625
2321.22797	3257.4625
2324.07925	3268.2625
2326.92871	3244.5625
2329.77637	3246.3625
2332.62222	3230.2625
2335.46626	3233.7625
2338.3085	3226.6625
2341.14893	3246.5625
2343.98756	3233.7625
2346.8244	3234.0625
2349.65943	3242.7625
2352.49267	3247.8625
2355.32411	3235.5625
2358.15376	3231.2625
2360.98161	3229.4625
2363.80768	3237.0625
2366.63195	3233.7625
2369.45444	3230.1625
2372.27514	3226.1625
2375.09405	3216.2625
2377.91118	3205.5625
2380.72652	3208.3625
2383.54009	3191.8625
2386.35187	3200.0625
2389.16188	3189.6625
2391.97011	3183.3625
2394.77657	3183.2625
2397.58125	3156.8625
2400.38416	3170.1625
2403.18529	3161.4625
2405.98466	3153.6625
2408.78226	3149.1625
2411.57809	3137.7625
2414.37216	3125.1625
2417.16446	3123.6625
2419.955	3121.7625
2422.74378	3129.4625
2425.5308	3117.3625
2428.31606	3120.2625
2431.09956	3114.6625
2433.88131	3106.6625
2436.6613	3114.6625
2439.43954	3114.7625
2442.21603	3114.4625
2444.99077	3102.6625
2447.76377	3116.4625
2450.53501	3113.8625
2453.30451	3096.4625
2456.07226	3092.6625
2458.83827	3105.0625
2461.60254	3095.7625
2464.36507	3086.9625
2467.12586	3093.2625
2469.88492	3084.6625
2472.64224	3106.9625
2475.39782	3097.8625
2478.15167	3093.8625
2480.90379	3089.9625
2483.65417	3093.5625
2486.40283	3098.7625
2489.14976	3099.8625
2491.89497	3083.9625
2494.63845	3085.8625
2497.3802	3103.0625
2500.12024	3091.5625
2502.85855	3080.4625
2505.59514	3071.5625
2508.33002	3070.0625
2511.06318	3060.2625
2513.79462	3052.1625
2516.52435	3038.8625
2519.25237	3050.0625
2521.97867	3053.4625
2524.70327	3043.9625
2527.42616	3031.8625
2530.14734	3030.9625
2532.86681	3042.4625
2535.58458	3038.8625
2538.30065	3031.3625
2541.01501	3038.7625
2543.72768	3027.6625
2546.43864	3030.5625
2549.14791	3031.0625
2551.85548	3038.6625
2554.56136	3031.1625
2557.26554	3017.5625
2559.96803	3022.0625
2562.66883	3019.1625
2565.36794	3002.1625
2568.06536	2993.8625
2570.7611	2979.0625
2573.45514	2982.7625
2576.14751	2982.8625
2578.83819	2977.3625
2581.52719	2973.6625
2584.21451	2981.1625
2586.90015	2964.3625
2589.58411	2960.3625
2592.2664	2964.5625
2594.94701	2972.9625
2597.62594	2971.7625
2600.30321	2949.7625
2602.9788	2952.6625
2605.65273	2949.7625
2608.32498	2955.5625
2610.99557	2939.0625
2613.66449	2937.2625
2616.33175	2947.2625
2618.99734	2950.9625
2621.66128	2944.1625
2624.32355	2936.8625
2626.98416	2946.1625
2629.64311	2934.7625
2632.30041	2935.1625
2634.95605	2935.7625
2637.61004	2936.1625
2640.26238	2919.4625
2642.91306	2922.8625
2645.56209	2931.9625
2648.20948	2916.1625
2650.85521	2908.3625
2653.4993	2903.3625
2656.14175	2908.3625
2658.78255	2912.5625
2661.42171	2920.4625
2664.05923	2926.5625
2666.6951	2933.5625
2669.32934	2929.9625
2671.96194	2921.5625
2674.59291	2924.8625
2677.22224	2933.0625
2679.84993	2932.1625
2682.476	2921.5625
2685.10043	2912.1625
2687.72324	2909.1625
2690.34441	2917.8625
2692.96396	2907.7625
2695.58188	2914.1625
2698.19818	2908.8625
2700.81285	2912.3625
2703.4259	2908.7625
2706.03733	2909.8625
2708.64714	2909.3625
2711.25533	2898.7625
2713.86191	2896.7625
2716.46687	2906.1625
2719.07021	2917.8625
2721.67194	2927.9625
2724.27206	2920.6625
2726.87057	2915.1625
2729.46747	2919.0625
2732.06276	2909.2625
2734.65644	2914.7625
2737.24852	2898.0625
2739.83899	2896.2625
2742.42786	2902.7625
2745.01513	2897.1625
2747.60079	2904.2625
2750.18486	2887.0625
2752.76733	2891.1625
2755.3482	2891.4625
2757.92747	2880.8625
2760.50515	2883.2625
2763.08123	2873.7625
2765.65573	2866.2625
2768.22863	2871.7625
2770.79994	2864.3625
2773.36967	2881.3625
2775.9378	2866.3625
2778.50435	2864.0625
2781.06932	2859.5625
2783.6327	2858.7625
2786.1945	2867.3625
2788.75471	2845.0625
2791.31335	2845.6625
2793.87041	2855.6625
2796.42589	2832.7625
2798.97979	2833.0625
2801.53212	2822.3625
2804.08288	2838.3625
2806.63206	2833.7625
2809.17967	2841.2625
2811.72571	2823.6625
2814.27018	2827.9625
2816.81308	2806.2625
2819.35442	2808.6625
2821.89419	2785.6625
2824.43239	2788.2625
2826.96904	2785.9625
2829.50412	2789.6625
2832.03763	2788.9625
2834.56959	2781.4625
2837.1	2774.7625
2839.62884	2770.0625
2842.15613	2768.3625
2844.68186	2776.3625
2847.20604	2781.4625
2849.72867	2761.1625
2852.24974	2757.3625
2854.76927	2748.0625
2857.28724	2748.7625
2859.80367	2746.2625
2862.31855	2739.6625
2864.83189	2741.5625
2867.34368	2742.6625
2869.85393	2744.2625
2872.36264	2731.3625
2874.8698	2740.7625
2877.37543	2734.8625
2879.87952	2722.7625
2882.38207	2733.7625
2884.88308	2720.6625
2887.38256	2717.6625
2889.88051	2723.5625
2892.37692	2719.4625
2894.8718	2719.4625
2897.36515	2715.4625
2899.85698	2732.6625
2902.34727	2733.9625
2904.83604	2724.9625
2907.32328	2724.5625
2909.809	2731.6625
2912.29319	2735.2625
2914.77587	2732.0625
2917.25702	2724.1625
2919.73665	2736.7625
2922.21476	2748.8625
2924.69136	2741.1625
2927.16644	2725.7625
2929.64	2721.9625
2932.11205	2726.2625
2934.58258	2707.4625
2937.05161	2706.8625
2939.51912	2710.4625
2941.98513	2701.0625
2944.44962	2713.9625
2946.91261	2694.0625
2949.37409	2703.6625
2951.83407	2707.3625
2954.29254	2705.7625
2956.74951	2702.4625
2959.20498	2685.7625
2961.65895	2683.0625
2964.11142	2672.7625
2966.56239	2685.4625
2969.01186	2690.1625
2971.45984	2662.3625
2973.90632	2692.3625
2976.35131	2672.3625
2978.7948	2674.1625
2981.23681	2668.9625
2983.67732	2660.9625
2986.11635	2666.1625
2988.55388	2649.0625
2990.98993	2642.0625
2993.4245	2640.9625
2995.85758	2636.0625
2998.28917	2619.1625
3000.71928	2628.4625
3003.14791	2625.5625
3005.57506	2620.4625
3008.00073	2608.4625
3010.42493	2596.9625
3012.84764	2593.7625
3015.26888	2591.3625
3017.68865	2589.7625
3020.10694	2582.8625
3022.52376	2588.3625
3024.9391	2567.9625
3027.35298	2566.5625
3029.76539	2557.7625
3032.17632	2550.5625
3034.5858	2558.5625
3036.9938	2554.0625
3039.40034	2531.3625
3041.80542	2539.6625
3044.20903	2538.2625
3046.61118	2527.1625
3049.01187	2521.1625
3051.4111	2529.6625
3053.80888	2523.1625
3056.20519	2509.7625
3058.60005	2499.5625
3060.99345	2494.4625
3063.3854	2495.8625
3065.7759	2482.2625
3068.16494	2495.7625
3070.55254	2479.7625
3072.93868	2471.5625
3075.32338	2474.8625
3077.70662	2453.9625
3080.08842	2447.3625
3082.46878	2445.0625
3084.84769	2435.7625
3087.22515	2435.0625
3089.60118	2428.5625
3091.97576	2434.8625
3094.3489	2432.9625
3096.72061	2425.2625
3099.09087	2421.1625
3101.4597	2430.8625
3103.82709	2417.4625
3106.19305	2431.9625
3108.55757	2421.3625
3110.92066	2417.1625
3113.28232	2415.8625
3115.64255	2406.2625
3118.00134	2392.8625
3120.35871	2402.9625
3122.71466	2394.3625
3125.06917	2386.2625
3127.42226	2378.8625
3129.77393	2382.9625
3132.12417	2372.3625
3134.47299	2372.6625
3136.82039	2365.6625
3139.16636	2376.2625
3141.51092	2372.6625
3143.85406	2370.7625
3146.19579	2383.2625
3148.53609	2375.2625
3150.87499	2376.8625
3153.21246	2379.5625
3155.54853	2374.4625
3157.88318	2377.3625
3160.21642	2373.0625
3162.54826	2363.5625
3164.87868	2364.8625
3167.2077	2362.4625
3169.5353	2349.4625
3171.86151	2355.7625
3174.18631	2364.4625
3176.5097	2350.5625
3178.83169	2336.7625
3181.15228	2342.0625
3183.47147	2342.3625
3185.78926	2333.5625
3188.10565	2320.9625
3190.42065	2321.7625
3192.73424	2320.8625
3195.04645	2324.0625
3197.35725	2317.9625
3199.66667	2309.7625
3201.97469	2304.5625
3204.28132	2316.6625
3206.58656	2306.4625
3208.8904	2305.2625
3211.19287	2313.8625
3213.49394	2328.5625
3215.79363	2322.8625
3218.09193	2318.8625
3220.38884	2319.5625
3222.68438	2322.1625
3224.97853	2310.3625
3227.2713	2323.3625
3229.56269	2313.9625
3231.8527	2306.7625
3234.14133	2297.4625
3236.42858	2303.2625
3238.71446	2291.1625
3240.99896	2298.0625
3243.28209	2284.5625
3245.56384	2298.2625
3247.84423	2290.8625
3250.12324	2279.0625
3252.40088	2271.1625
3254.67715	2266.1625
3256.95205	2265.8625
3259.22558	2268.7625
3261.49775	2268.8625
3263.76855	2274.0625
3266.03799	2271.2625
3268.30606	2266.5625
3270.57277	2270.2625
3272.83812	2267.9625
3275.10211	2247.0625
3277.36474	2251.7625
3279.62601	2247.9625
3281.88593	2233.2625
3284.14448	2242.9625
3286.40168	2239.6625
3288.65753	2244.0625
3290.91202	2221.8625
3293.16516	2220.8625
3295.41695	2216.5625
3297.66738	2218.1625
3299.91647	2200.5625
3302.16421	2186.9625
3304.4106	2186.3625
3306.65564	2162.5625
3308.89933	2155.9625
3311.14169	2125.9625
3313.38269	2123.5625
3315.62236	2101.6625
3317.86068	2076.9625
3320.09766	2067.3625
3322.3333	2042.5625
3324.5676	2037.6625
3326.80056	2003.0625
3329.03219	1986.4625
3331.26248	-0.1375
3333.49143	-1.1375
3335.71905	-0.2375
