Data from AgNPs_UA_50uM_CRN_500uM_SU_RamanShift__83__14-09-40-329.txt Node

Date: Thu Aug 04 14:09:40 BST 2022
User: TCL
Spectrometer: QEP01345
Trigger mode: 4
Integration Time (sec): 1.000000E0
Scans to average: 10
Electric dark correction enabled: true
Nonlinearity correction enabled: false
Boxcar width: 0
XAxis mode: Raman Shifts
Number of Pixels in Spectrum: 1044
>>>>>Begin Spectral Data<<<<<
46.04893	1.6
50.45542	-1.5
54.85868	-0.4
59.25871	-0.8
63.6555	13.7
68.04907	12.8
72.43941	15.6
76.82654	14.8
81.21044	14.3
85.59113	18
89.96862	16.1
94.34289	17.3
98.71396	17.5
103.08183	18.2
107.4465	17.1
111.80798	18.3
116.16626	19.9
120.52136	20.4
124.87327	21
129.222	24.2
133.56755	24.5
137.90993	26.4
142.24913	28.8
146.58517	30.4
150.91804	36.6
155.24774	42.4
159.57429	58.6
163.89768	71.6
168.21792	94.3
172.53501	133.9
176.84895	182.6
181.15975	263
185.46741	362.9
189.77193	504.1
194.07331	667.5
198.37157	867
202.6667	1056.7
206.9587	1266
211.24758	1468.3
215.53334	1661.1
219.81599	1875.6
224.09553	2123.2
228.37195	2384.8
232.64527	2662
236.91549	2957.6
241.18261	3217.4
245.44663	3450.6
249.70755	3644.8
253.96539	3823.3
258.22014	3972.9
262.4718	4104.7
266.72039	4206.4
270.96589	4260.3
275.20832	4249
279.44768	4196.2
283.68397	4133.3
287.91719	4089.1
292.14735	4080.5
296.37445	4122.2
300.59849	4230.5
304.81948	4357.5
309.03742	4474.2
313.25231	4521.9
317.46415	4453.9
321.67296	4303.7
325.87872	4153.6
330.08145	4110.4
334.28114	4136
338.47781	4189.1
342.67145	4287.5
346.86207	4386.5
351.04966	4553.9
355.23424	4706.7
359.4158	4849.2
363.59435	4922.1
367.76989	4970
371.94243	4995
376.11196	5028.7
380.27849	5022.9
384.44203	5049.1
388.60257	5055.2
392.76012	5089.1
396.91468	5157.7
401.06626	5266.2
405.21485	5332.4
409.36047	5267.5
413.50311	5143.5
417.64277	4997.5
421.77947	4912
425.9132	4914
430.04396	4975
434.17176	5090.9
438.2966	5276.8
442.41849	5511.1
446.53742	5804
450.6534	6071.8
454.76644	6219.2
458.87653	6186.7
462.98368	6027.9
467.08789	5806.7
471.18916	5561.9
475.2875	5324.8
479.38291	5125.9
483.4754	4994.1
487.56496	4907.6
491.6516	4840.6
495.73531	4813.8
499.81612	4811.5
503.89401	4824
507.96899	4859.8
512.04106	4881.7
516.11023	4944.5
520.1765	5033.4
524.23987	5074.9
528.30034	5099.6
532.35792	5091.1
536.41261	5018.8
540.46441	4920.5
544.51333	4886.2
548.55936	4924.7
552.60252	4999
556.64279	5086.7
560.6802	5102.5
564.71473	5085.3
568.7464	5111.6
572.7752	5109
576.80114	5074.6
580.82422	5083.1
584.84444	5196.9
588.86181	5439.2
592.87633	5702.7
596.888	5865.4
600.89682	5988.8
604.9028	6509.4
608.90594	7630.3
612.90624	8558.9
616.90371	7778.9
620.89834	6191.1
624.89015	5600.3
628.87913	5508.9
632.86528	5429.7
636.84862	5290
640.82913	5122.3
644.80683	4951.2
648.78172	4842.2
652.75379	4880.9
656.72306	5070.3
660.68952	5220.4
664.65319	5184.5
668.61405	5079.7
672.57211	5053.2
676.52738	5047.9
680.47986	4968.8
684.42955	4913.8
688.37646	4919.2
692.32058	4975.8
696.26192	5063.1
700.20048	5146.8
704.13626	5149
708.06928	5066.3
711.99952	5026.8
715.927	5030.6
719.85171	5071.4
723.77365	5060.4
727.69284	4998.9
731.60928	4976.9
735.52295	5010.1
739.43388	5055.2
743.34206	5082.1
747.24749	5110.3
751.15017	5149.9
755.05012	5222.4
758.94733	5408.5
762.8418	5821.1
766.73354	6412.3
770.62254	6925.6
774.50882	7136.6
778.39237	6832.6
782.27321	6219.1
786.15132	5631.4
790.02671	5298.9
793.89938	5162.2
797.76935	5087.6
801.6366	5079.9
805.50115	5052.2
809.36299	5028.9
813.22213	4994.1
817.07857	4982.8
820.93231	4994.8
824.78336	4996.7
828.63172	5021.7
832.47738	5028.1
836.32036	5037
840.16066	5054.3
843.99827	5067.3
847.8332	5049.1
851.66546	5016.6
855.49504	5012.4
859.32195	5044.4
863.1462	4994.7
866.96777	4970.9
870.78668	4982.8
874.60293	4981.1
878.41652	5022.6
882.22745	5038.2
886.03573	5051.6
889.84136	5050.1
893.64433	5036.4
897.44466	5017.4
901.24235	5000.2
905.0374	4984.8
908.8298	4959.4
912.61957	4973.2
916.40671	5007
920.19121	5066.6
923.97308	5134.3
927.75233	5208.9
931.52895	5201.7
935.30295	5144.1
939.07433	5043.1
942.84309	4976
946.60924	4962
950.37278	4934.2
954.13371	4907.8
957.89203	4861.1
961.64774	4837.9
965.40086	4829.8
969.15137	4810.6
972.89929	4801.8
976.64461	4813.8
980.38733	4819.6
984.12747	4855.2
987.86502	4915.1
991.59999	5003.8
995.33237	5148.5
999.06217	5382.4
1002.78939	5616.1
1006.51404	5694.4
1010.23611	5761.3
1013.95561	5872
1017.67255	5930.7
1021.38692	5849.7
1025.09872	5785.7
1028.80796	5850.1
1032.51465	6018.6
1036.21877	6120.7
1039.92035	6095
1043.61937	5953.5
1047.31584	5774.8
1051.00976	5600
1054.70114	5512.7
1058.38998	5515.3
1062.07627	5500.6
1065.76003	5504.7
1069.44126	5553.9
1073.11995	5587.4
1076.79611	5641.6
1080.46974	5709.9
1084.14085	5797.9
1087.80943	5855.6
1091.47549	5832.6
1095.13903	5727.9
1098.80005	5610.2
1102.45857	5515.9
1106.11456	5531.8
1109.76805	5574.4
1113.41903	5668.7
1117.06751	5791.2
1120.71348	5931.1
1124.35696	6095.2
1127.99793	6169.6
1131.63641	6090.3
1135.2724	5935.4
1138.90589	5789
1142.5369	5675.7
1146.16542	5624.4
1149.79145	5575.4
1153.415	5582.8
1157.03607	5626.3
1160.65467	5710.6
1164.27079	5892.4
1167.88443	6156.3
1171.49561	6559.8
1175.10432	7181.1
1178.71056	7986.6
1182.31434	8750.7
1185.91565	9202.2
1189.51451	9275.7
1193.11091	8900.2
1196.70485	8270
1200.29634	7694.4
1203.88538	7239.6
1207.47197	6841.1
1211.05612	6566.1
1214.63782	6442.8
1218.21708	6443.8
1221.79391	6519.1
1225.36829	6572.1
1228.94024	6566.3
1232.50976	6503.1
1236.07685	6531
1239.6415	6578.6
1243.20374	6604.2
1246.76355	6624.1
1250.32093	6691.6
1253.8759	6867.5
1257.42845	7114.2
1260.97859	7377.9
1264.52631	7596.8
1268.07163	7744.3
1271.61453	7855.9
1275.15503	7963.6
1278.69312	8114.7
1282.22882	8300.4
1285.76211	8531
1289.29301	8799.6
1292.82151	9035.4
1296.34761	9291.3
1299.87133	9626.3
1303.39266	10150.6
1306.9116	10915.2
1310.42815	11721.7
1313.94233	12072.7
1317.45412	11812.1
1320.96354	11286.5
1324.47058	10754.2
1327.97525	10437.8
1331.47754	10425.9
1334.97747	10633.9
1338.47502	10873.5
1341.97022	11042.6
1345.46305	11147.6
1348.95352	11447
1352.44163	11911.5
1355.92738	12611.2
1359.41078	13384
1362.89183	13755
1366.37053	13009.7
1369.84688	11526.6
1373.32088	10128.6
1376.79254	9280.3
1380.26186	8862.8
1383.72883	8627.3
1387.19347	8345.6
1390.65578	7972.2
1394.11575	7699.6
1397.57339	7551.1
1401.0287	7596.8
1404.48168	7812.7
1407.93234	8090.1
1411.38068	8334.2
1414.82669	8383.7
1418.27039	8236
1421.71177	8031.6
1425.15083	7963.3
1428.58758	8068.3
1432.02203	8301.6
1435.45416	8454.2
1438.88399	8484.7
1442.31151	8417
1445.73673	8354.7
1449.15965	8262.6
1452.58027	8096
1455.9986	7908.1
1459.41463	7825.7
1462.82837	7915.7
1466.23982	8136.1
1469.64898	8363.7
1473.05586	8573.3
1476.46045	8746.2
1479.86276	8859.1
1483.26279	8924.8
1486.66054	8952.3
1490.05602	9056.1
1493.44922	9224.3
1496.84016	9474.4
1500.22882	9900.4
1503.61521	10475.7
1506.99934	11050.3
1510.38121	11339.6
1513.76081	11094.1
1517.13816	10371.1
1520.51324	9586.9
1523.88607	9054.4
1527.25665	8796.6
1530.62498	8761.4
1533.99105	8766.1
1537.35488	8803
1540.71647	8809.8
1544.07581	8735.8
1547.4329	8544.5
1550.78776	8281.8
1554.14038	8036.6
1557.49077	7869.1
1560.83892	7786
1564.18484	7791.8
1567.52853	7864.8
1570.86999	7928.3
1574.20922	7941.3
1577.54624	7839.2
1580.88103	7615.4
1584.2136	7443.9
1587.54395	7488.2
1590.87208	7881.1
1594.19801	8692.7
1597.52172	9654.2
1600.84321	10319.7
1604.16251	10262.5
1607.47959	9576.3
1610.79447	8605.3
1614.10715	7705.1
1617.41763	7063.6
1620.7259	6673.3
1624.03199	6483.8
1627.33587	6465.5
1630.63757	6685.2
1633.93707	7105.2
1637.23439	7797.8
1640.52951	8671.8
1643.82246	9614.7
1647.11321	10246.7
1650.40179	10070.7
1653.68819	9104.3
1656.97241	7856.3
1660.25446	6781.7
1663.53433	6124.6
1666.81203	5687
1670.08756	5437.6
1673.36092	5264
1676.63211	5164.7
1679.90115	5082.4
1683.16801	5010.5
1686.43272	4965.1
1689.69527	4923.4
1692.95567	4910.1
1696.2139	4891
1699.46999	4862.4
1702.72392	4891.2
1705.97571	4865.3
1709.22535	4862
1712.47284	4863.5
1715.71819	4866.2
1718.96139	4866
1722.20246	4840.8
1725.44139	4831.7
1728.67818	4792.1
1731.91284	4763.4
1735.14537	4758.9
1738.37576	4737.4
1741.60403	4705
1744.83017	4716.8
1748.05418	4692.8
1751.27607	4675.3
1754.49584	4669.3
1757.71349	4664.1
1760.92903	4651
1764.14244	4653.9
1767.35375	4654.5
1770.56294	4654.6
1773.77002	4633.2
1776.97499	4619.7
1780.17785	4609.8
1783.37861	4610.9
1786.57727	4606
1789.77382	4584.1
1792.96828	4599.9
1796.16064	4577.1
1799.3509	4599.3
1802.53907	4578.5
1805.72514	4578.1
1808.90913	4565.9
1812.09102	4540.9
1815.27083	4533
1818.44856	4531.3
1821.6242	4529.5
1824.79776	4518.8
1827.96924	4498.4
1831.13864	4477.5
1834.30597	4482.5
1837.47122	4473.5
1840.6344	4472.6
1843.7955	4474
1846.95454	4466.8
1850.11151	4484.8
1853.26642	4496.2
1856.41926	4485
1859.57004	4481
1862.71876	4482
1865.86542	4484.7
1869.01003	4469.1
1872.15258	4489.6
1875.29308	4484.5
1878.43152	4470.3
1881.56792	4485.4
1884.70227	4471.6
1887.83457	4456.8
1890.96482	4462.4
1894.09304	4457
1897.21921	4454.4
1900.34335	4439
1903.46544	4419.3
1906.58551	4436.3
1909.70353	4424.8
1912.81953	4417.9
1915.93349	4424.5
1919.04543	4411.7
1922.15534	4410.6
1925.26322	4393.8
1928.36908	4413.4
1931.47292	4403.1
1934.57473	4398.4
1937.67453	4391.1
1940.77232	4378.6
1943.86808	4352.5
1946.96184	4356.5
1950.05358	4341.4
1953.14331	4326.6
1956.23103	4326.1
1959.31675	4289.5
1962.40046	4284.6
1965.48217	4278
1968.56188	4253.4
1971.63959	4253.9
1974.7153	4257.2
1977.78901	4237.9
1980.86073	4233.8
1983.93046	4207.5
1986.99819	4203
1990.06394	4185.7
1993.1277	4175
1996.18947	4163.4
1999.24925	4145.9
2002.30706	4125
2005.36288	4125.7
2008.41672	4107.1
2011.46859	4109.1
2014.51848	4093.1
2017.56639	4085.2
2020.61233	4068
2023.6563	4065.4
2026.6983	4032.3
2029.73833	4031.5
2032.7764	4025.7
2035.8125	4005.1
2038.84664	4013.1
2041.87881	4014.5
2044.90903	3993
2047.93729	4005.2
2050.96359	3990.8
2053.98794	3997
2057.01034	3994.7
2060.03078	3993.8
2063.04927	3996.6
2066.06582	3993.5
2069.08042	3975.1
2072.09307	3959.5
2075.10378	3950.2
2078.11255	3961.6
2081.11938	3975.7
2084.12426	3963.2
2087.12722	3945.7
2090.12824	3953.1
2093.12732	3956.5
2096.12447	3958.3
2099.11969	3957.1
2102.11299	3953.8
2105.10435	3963.1
2108.09379	3949
2111.08131	3949.6
2114.0669	3939.2
2117.05057	3947.9
2120.03233	3950.8
2123.01216	3952
2125.99008	3956.6
2128.96609	3969.7
2131.94018	3948.6
2134.91236	3953.6
2137.88263	3949.6
2140.851	3949.9
2143.81746	3951.2
2146.78201	3958.2
2149.74466	3962.1
2152.7054	3946.1
2155.66425	3946.5
2158.6212	3946.7
2161.57625	3949.9
2164.52941	3934.2
2167.48067	3947.1
2170.43004	3941.1
2173.37752	3931.8
2176.32311	3941.5
2179.26681	3948.2
2182.20863	3950.5
2185.14856	3958.2
2188.08661	3936.5
2191.02278	3948.3
2193.95707	3931.9
2196.88948	3945.9
2199.82001	3937
2202.74867	3928.6
2205.67545	3936.2
2208.60037	3940.1
2211.52341	3956.7
2214.44458	3937.9
2217.36388	3932
2220.28132	3922
2223.1969	3904.8
2226.11061	3892
2229.02246	3881.7
2231.93245	3877.4
2234.84058	3876.3
2237.74686	3860.4
2240.65128	3863.1
2243.55385	3851.4
2246.45456	3852.1
2249.35343	3859.6
2252.25044	3838.5
2255.14561	3834.2
2258.03893	3837.2
2260.93041	3824.6
2263.82004	3843.2
2266.70783	3809.5
2269.59378	3805.3
2272.4779	3795.3
2275.36017	3771.2
2278.24061	3761.7
2281.11922	3754.2
2283.996	3753.3
2286.87094	3758
2289.74405	3741
2292.61534	3749.1
2295.4848	3753.6
2298.35243	3742.5
2301.21824	3753.7
2304.08223	3736.4
2306.94439	3740
2309.80474	3738.7
2312.66327	3749.1
2315.51999	3755.9
2318.37489	3732.4
2321.22797	3748.5
2324.07925	3739.8
2326.92871	3720.5
2329.77637	3741.5
2332.62222	3730.5
2335.46626	3716.3
2338.3085	3724.5
2341.14893	3736
2343.98756	3729
2346.8244	3727.6
2349.65943	3733.8
2352.49267	3714.3
2355.32411	3727.5
2358.15376	3731.1
2360.98161	3723.4
2363.80768	3724.7
2366.63195	3712.3
2369.45444	3700.6
2372.27514	3704.1
2375.09405	3699.4
2377.91118	3681.2
2380.72652	3674.9
2383.54009	3653.3
2386.35187	3654.6
2389.16188	3648.6
2391.97011	3655.7
2394.77657	3636.8
2397.58125	3618.3
2400.38416	3618.9
2403.18529	3619.5
2405.98466	3625
2408.78226	3602.2
2411.57809	3587.8
2414.37216	3573
2417.16446	3577.5
2419.955	3569.6
2422.74378	3580.1
2425.5308	3569.2
2428.31606	3562.8
2431.09956	3573.4
2433.88131	3551.7
2436.6613	3541.6
2439.43954	3552.7
2442.21603	3562.2
2444.99077	3550.6
2447.76377	3558
2450.53501	3554
2453.30451	3548
2456.07226	3547.2
2458.83827	3538.1
2461.60254	3539.8
2464.36507	3557.7
2467.12586	3525.2
2469.88492	3522.5
2472.64224	3533.3
2475.39782	3521.8
2478.15167	3536.3
2480.90379	3533.4
2483.65417	3537.8
2486.40283	3528.8
2489.14976	3565.7
2491.89497	3551.4
2494.63845	3550
2497.3802	3539.4
2500.12024	3534
2502.85855	3542.7
2505.59514	3541.8
2508.33002	3527.5
2511.06318	3519.3
2513.79462	3510
2516.52435	3515.7
2519.25237	3511.8
2521.97867	3504
2524.70327	3505.8
2527.42616	3504.1
2530.14734	3496.9
2532.86681	3502.7
2535.58458	3517.5
2538.30065	3503.4
2541.01501	3497.4
2543.72768	3485.6
2546.43864	3480.4
2549.14791	3486.9
2551.85548	3479.1
2554.56136	3475.9
2557.26554	3469.4
2559.96803	3471.6
2562.66883	3461
2565.36794	3467.3
2568.06536	3450.4
2570.7611	3453.6
2573.45514	3445.5
2576.14751	3439.9
2578.83819	3435.4
2581.52719	3436
2584.21451	3442.8
2586.90015	3430.9
2589.58411	3439.6
2592.2664	3433.7
2594.94701	3442.4
2597.62594	3441.5
2600.30321	3425.1
2602.9788	3436
2605.65273	3418.4
2608.32498	3421.9
2610.99557	3426.3
2613.66449	3438.2
2616.33175	3432.4
2618.99734	3429.2
2621.66128	3429.4
2624.32355	3421.5
2626.98416	3430.7
2629.64311	3416.9
2632.30041	3436.1
2634.95605	3418.1
2637.61004	3419.3
2640.26238	3409.7
2642.91306	3411.3
2645.56209	3410.3
2648.20948	3421.5
2650.85521	3400.5
2653.4993	3377
2656.14175	3391.8
2658.78255	3401.9
2661.42171	3394
2664.05923	3405.4
2666.6951	3403.6
2669.32934	3409.8
2671.96194	3402.8
2674.59291	3400.1
2677.22224	3397.1
2679.84993	3406.9
2682.476	3406.3
2685.10043	3406.7
2687.72324	3402.3
2690.34441	3406.5
2692.96396	3391.6
2695.58188	3390
2698.19818	3378.5
2700.81285	3402.9
2703.4259	3395.7
2706.03733	3386.4
2708.64714	3385
2711.25533	3382.4
2713.86191	3380.7
2716.46687	3378.5
2719.07021	3389.6
2721.67194	3386.1
2724.27206	3391.8
2726.87057	3397.7
2729.46747	3395.2
2732.06276	3398.1
2734.65644	3391.4
2737.24852	3382.3
2739.83899	3388.5
2742.42786	3376.5
2745.01513	3376.6
2747.60079	3384.8
2750.18486	3382.4
2752.76733	3371.5
2755.3482	3375.1
2757.92747	3363.7
2760.50515	3352.7
2763.08123	3366.3
2765.65573	3358.7
2768.22863	3355.3
2770.79994	3344.9
2773.36967	3354.5
2775.9378	3352
2778.50435	3373.9
2781.06932	3362.9
2783.6327	3368.5
2786.1945	3365.9
2788.75471	3354.1
2791.31335	3360.3
2793.87041	3352.7
2796.42589	3347.6
2798.97979	3332.2
2801.53212	3326.3
2804.08288	3332.2
2806.63206	3322.8
2809.17967	3311.4
2811.72571	3299.4
2814.27018	3301.6
2816.81308	3289.5
2819.35442	3298.4
2821.89419	3286.1
2824.43239	3259.1
2826.96904	3275.5
2829.50412	3279.1
2832.03763	3273.1
2834.56959	3271.1
2837.1	3258.7
2839.62884	3261.4
2842.15613	3259.7
2844.68186	3248.8
2847.20604	3246.4
2849.72867	3234.3
2852.24974	3241.4
2854.76927	3234.3
2857.28724	3216.6
2859.80367	3223.9
2862.31855	3220.9
2864.83189	3212.9
2867.34368	3220.6
2869.85393	3211
2872.36264	3204.6
2874.8698	3207.9
2877.37543	3215.2
2879.87952	3196.9
2882.38207	3202.6
2884.88308	3180.3
2887.38256	3204.1
2889.88051	3187.7
2892.37692	3191.2
2894.8718	3180.3
2897.36515	3187.1
2899.85698	3187
2902.34727	3181.4
2904.83604	3186.1
2907.32328	3194.5
2909.809	3198.9
2912.29319	3197.6
2914.77587	3204.1
2917.25702	3185.5
2919.73665	3198.5
2922.21476	3193.2
2924.69136	3195.5
2927.16644	3184.5
2929.64	3187.1
2932.11205	3182.2
2934.58258	3165.6
2937.05161	3171
2939.51912	3173.9
2941.98513	3169.6
2944.44962	3157.8
2946.91261	3148.3
2949.37409	3151.1
2951.83407	3161.4
2954.29254	3157.6
2956.74951	3144.4
2959.20498	3138.3
2961.65895	3130.9
2964.11142	3127.8
2966.56239	3115.2
2969.01186	3119.6
2971.45984	3121.5
2973.90632	3122.8
2976.35131	3124.9
2978.7948	3109.9
2981.23681	3097.1
2983.67732	3087.6
2986.11635	3079.9
2988.55388	3066.9
2990.98993	3055.9
2993.4245	3057
2995.85758	3040.1
2998.28917	3046.8
3000.71928	3039.6
3003.14791	3019.8
3005.57506	3025.4
3008.00073	3011.9
3010.42493	2996.5
3012.84764	3005
3015.26888	2996
3017.68865	2972.1
3020.10694	2970
3022.52376	2963.7
3024.9391	2941.5
3027.35298	2956.3
3029.76539	2948.3
3032.17632	2948.1
3034.5858	2943.2
3036.9938	2924.6
3039.40034	2925.3
3041.80542	2917.6
3044.20903	2914
3046.61118	2922.6
3049.01187	2905.6
3051.4111	2900.4
3053.80888	2902.1
3056.20519	2891.4
3058.60005	2881.1
3060.99345	2877.7
3063.3854	2855.4
3065.7759	2872.8
3068.16494	2850.4
3070.55254	2838.8
3072.93868	2824.9
3075.32338	2819.1
3077.70662	2803.7
3080.08842	2793.4
3082.46878	2796.8
3084.84769	2777.2
3087.22515	2782.1
3089.60118	2782.2
3091.97576	2781.6
3094.3489	2777.9
3096.72061	2778
3099.09087	2766.2
3101.4597	2772.1
3103.82709	2769.3
3106.19305	2759.3
3108.55757	2759.3
3110.92066	2752.2
3113.28232	2747.9
3115.64255	2738.8
3118.00134	2726
3120.35871	2734.1
3122.71466	2725.6
3125.06917	2698.4
3127.42226	2706.2
3129.77393	2709.3
3132.12417	2703.7
3134.47299	2699.5
3136.82039	2693.5
3139.16636	2694.8
3141.51092	2689.2
3143.85406	2677.6
3146.19579	2680.9
3148.53609	2674.6
3150.87499	2677.6
3153.21246	2687.7
3155.54853	2687.4
3157.88318	2672.3
3160.21642	2670.8
3162.54826	2687.4
3164.87868	2675.3
3167.2077	2654.8
3169.5353	2664.8
3171.86151	2650.2
3174.18631	2649.5
3176.5097	2659.6
3178.83169	2652.4
3181.15228	2642.2
3183.47147	2642.2
3185.78926	2631.4
3188.10565	2628
3190.42065	2626.1
3192.73424	2620.8
3195.04645	2620.1
3197.35725	2612.4
3199.66667	2614.7
3201.97469	2611.4
3204.28132	2610.1
3206.58656	2609.2
3208.8904	2610.4
3211.19287	2619.7
3213.49394	2610.4
3215.79363	2603.2
3218.09193	2603.1
3220.38884	2603.3
3222.68438	2598.3
3224.97853	2598.8
3227.2713	2597.3
3229.56269	2583.4
3231.8527	2599
3234.14133	2586.3
3236.42858	2577.5
3238.71446	2573.4
3240.99896	2560.7
3243.28209	2564.2
3245.56384	2557.3
3247.84423	2561.8
3250.12324	2562.7
3252.40088	2560.5
3254.67715	2546.6
3256.95205	2535.7
3259.22558	2542.8
3261.49775	2552.2
3263.76855	2547.4
3266.03799	2538.4
3268.30606	2530.7
3270.57277	2532.5
3272.83812	2527.2
3275.10211	2509.8
3277.36474	2506.2
3279.62601	2509
3281.88593	2503.3
3284.14448	2503.5
3286.40168	2509.4
3288.65753	2502.4
3290.91202	2505.5
3293.16516	2497.1
3295.41695	2497.3
3297.66738	2473.2
3299.91647	2459.8
3302.16421	2439.3
3304.4106	2429.3
3306.65564	2410.8
3308.89933	2405.1
3311.14169	2374.1
3313.38269	2356.5
3315.62236	2347.6
3317.86068	2323.7
3320.09766	2299.5
3322.3333	2285.3
3324.5676	2267.5
3326.80056	2225.5
3329.03219	2225.5
3331.26248	1.1
3333.49143	0.7
3335.71905	-0.8
