Data from AgNPs_UA_5uM_CRN_500uM_SU_RamanShift__168__11-57-23-173.txt Node

Date: Thu Aug 04 11:57:23 BST 2022
User: TCL
Spectrometer: QEP01345
Trigger mode: 4
Integration Time (sec): 1.000000E0
Scans to average: 10
Electric dark correction enabled: true
Nonlinearity correction enabled: false
Boxcar width: 0
XAxis mode: Raman Shifts
Number of Pixels in Spectrum: 1044
>>>>>Begin Spectral Data<<<<<
46.04893	-1.2375
50.45542	-0.2375
54.85868	0.3625
59.25871	-1.6375
63.6555	-57.2375
68.04907	-37.6375
72.43941	-69.2375
76.82654	-54.8375
81.21044	-57.0375
85.59113	-47.9375
89.96862	-75.2375
94.34289	-55.5375
98.71396	-74.9375
103.08183	-57.0375
107.4465	-50.3375
111.80798	-55.2375
116.16626	-42.4375
120.52136	-74.5375
124.87327	-48.1375
129.222	-61.6375
133.56755	-48.9375
137.90993	-59.4375
142.24913	-51.3375
146.58517	-41.9375
150.91804	-41.2375
155.24774	-28.6375
159.57429	-6.6375
163.89768	-2.7375
168.21792	41.7625
172.53501	64.3625
176.84895	148.1625
181.15975	280.2625
185.46741	438.1625
189.77193	626.4625
194.07331	914.4625
198.37157	1212.6625
202.6667	1501.5625
206.9587	1828.2625
211.24758	2152.7625
215.53334	2482.8625
219.81599	2842.3625
224.09553	3254.6625
228.37195	3720.8625
232.64527	4175.6625
236.91549	4669.4625
241.18261	5019.6625
245.44663	5319.7625
249.70755	5494.1625
253.96539	5626.7625
258.22014	5749.0625
262.4718	5826.9625
266.72039	5859.0625
270.96589	5809.7625
275.20832	5705.9625
279.44768	5595.4625
283.68397	5502.5625
287.91719	5429.2625
292.14735	5485.0625
296.37445	5623.8625
300.59849	5931.2625
304.81948	6249.3625
309.03742	6625.2625
313.25231	6865.9625
317.46415	6789.6625
321.67296	6401.7625
325.87872	5998.6625
330.08145	5811.1625
334.28114	5769.8625
338.47781	5839.8625
342.67145	5984.2625
346.86207	6237.0625
351.04966	6623.3625
355.23424	7006.4625
359.4158	7295.9625
363.59435	7311.9625
367.76989	7257.7625
371.94243	7123.0625
376.11196	6994.1625
380.27849	6940.0625
384.44203	6851.7625
388.60257	6823.9625
392.76012	6829.1625
396.91468	6936.9625
401.06626	7090.3625
405.21485	7141.9625
409.36047	6986.7625
413.50311	6669.5625
417.64277	6375.7625
421.77947	6154.9625
425.9132	6096.8625
430.04396	6053.3625
434.17176	6119.1625
438.2966	6202.5625
442.41849	6317.8625
446.53742	6415.5625
450.6534	6535.5625
454.76644	6602.2625
458.87653	6612.0625
462.98368	6586.4625
467.08789	6527.1625
471.18916	6456.7625
475.2875	6338.1625
479.38291	6238.5625
483.4754	6122.5625
487.56496	6081.7625
491.6516	6053.3625
495.73531	6067.4625
499.81612	6088.1625
503.89401	6157.9625
507.96899	6226.3625
512.04106	6303.6625
516.11023	6419.6625
520.1765	6507.5625
524.23987	6535.8625
528.30034	6513.2625
532.35792	6462.7625
536.41261	6406.9625
540.46441	6290.5625
544.51333	6260.6625
548.55936	6301.8625
552.60252	6435.5625
556.64279	6521.3625
560.6802	6643.3625
564.71473	6801.1625
568.7464	7011.7625
572.7752	6973.0625
576.80114	6627.9625
580.82422	6375.9625
584.84444	6300.8625
588.86181	6269.3625
592.87633	6314.1625
596.888	6446.6625
600.89682	6819.6625
604.9028	7770.4625
608.90594	9875.9625
612.90624	12241.5625
616.90371	11388.1625
620.89834	8285.4625
624.89015	6966.9625
628.87913	6760.8625
632.86528	6916.6625
636.84862	7069.2625
640.82913	6950.2625
644.80683	6603.4625
648.78172	6428.0625
652.75379	6459.1625
656.72306	6679.2625
660.68952	6915.2625
664.65319	6832.9625
668.61405	6604.7625
672.57211	6536.5625
676.52738	6537.9625
680.47986	6433.6625
684.42955	6358.3625
688.37646	6322.1625
692.32058	6315.7625
696.26192	6405.8625
700.20048	6503.9625
704.13626	6532.5625
708.06928	6462.7625
711.99952	6436.0625
715.927	6406.6625
719.85171	6462.1625
723.77365	6521.3625
727.69284	6489.6625
731.60928	6464.8625
735.52295	6454.6625
739.43388	6489.9625
743.34206	6508.9625
747.24749	6529.9625
751.15017	6538.6625
755.05012	6596.4625
758.94733	7005.8625
762.8418	7845.0625
766.73354	9153.9625
770.62254	10138.6625
774.50882	10238.2625
778.39237	9718.1625
782.27321	8815.6625
786.15132	7761.0625
790.02671	7076.9625
793.89938	6692.6625
797.76935	6585.1625
801.6366	6483.6625
805.50115	6457.2625
809.36299	6458.7625
813.22213	6433.7625
817.07857	6451.7625
820.93231	6445.3625
824.78336	6475.7625
828.63172	6480.2625
832.47738	6491.4625
836.32036	6495.7625
840.16066	6464.6625
843.99827	6449.7625
847.8332	6451.6625
851.66546	6456.2625
855.49504	6452.3625
859.32195	6493.5625
863.1462	6474.3625
866.96777	6467.3625
870.78668	6468.8625
874.60293	6512.1625
878.41652	6526.6625
882.22745	6590.5625
886.03573	6638.2625
889.84136	6639.1625
893.64433	6625.2625
897.44466	6601.3625
901.24235	6608.4625
905.0374	6599.3625
908.8298	6529.7625
912.61957	6516.5625
916.40671	6449.2625
920.19121	6506.2625
923.97308	6590.9625
927.75233	6658.2625
931.52895	6715.7625
935.30295	6694.5625
939.07433	6537.5625
942.84309	6439.5625
946.60924	6386.4625
950.37278	6364.2625
954.13371	6364.8625
957.89203	6368.0625
961.64774	6378.7625
965.40086	6350.9625
969.15137	6327.3625
972.89929	6369.2625
976.64461	6345.1625
980.38733	6373.8625
984.12747	6390.3625
987.86502	6387.6625
991.59999	6433.0625
995.33237	6519.4625
999.06217	6581.7625
1002.78939	6648.4625
1006.51404	6785.4625
1010.23611	6908.7625
1013.95561	6948.4625
1017.67255	6955.5625
1021.38692	6938.8625
1025.09872	6870.5625
1028.80796	6794.8625
1032.51465	6777.8625
1036.21877	6772.7625
1039.92035	6821.8625
1043.61937	6845.7625
1047.31584	6891.0625
1051.00976	6936.4625
1054.70114	6942.2625
1058.38998	6950.8625
1062.07627	6939.6625
1065.76003	6977.9625
1069.44126	7072.4625
1073.11995	7129.1625
1076.79611	7278.5625
1080.46974	7419.3625
1084.14085	7590.4625
1087.80943	7718.9625
1091.47549	7759.6625
1095.13903	7655.7625
1098.80005	7553.1625
1102.45857	7444.3625
1106.11456	7421.3625
1109.76805	7353.1625
1113.41903	7470.7625
1117.06751	7623.4625
1120.71348	7888.1625
1124.35696	8261.9625
1127.99793	8549.6625
1131.63641	8393.5625
1135.2724	7986.4625
1138.90589	7682.5625
1142.5369	7485.0625
1146.16542	7398.8625
1149.79145	7283.3625
1153.415	7239.9625
1157.03607	7236.4625
1160.65467	7307.5625
1164.27079	7499.1625
1167.88443	7758.0625
1171.49561	8169.2625
1175.10432	8788.6625
1178.71056	9650.8625
1182.31434	10444.6625
1185.91565	10682.9625
1189.51451	10532.7625
1193.11091	10271.5625
1196.70485	10043.2625
1200.29634	9854.8625
1203.88538	9560.7625
1207.47197	9148.2625
1211.05612	8698.6625
1214.63782	8292.3625
1218.21708	8051.8625
1221.79391	7901.6625
1225.36829	7826.2625
1228.94024	7802.5625
1232.50976	7812.8625
1236.07685	7826.8625
1239.6415	7860.1625
1243.20374	7887.4625
1246.76355	7936.2625
1250.32093	7993.5625
1253.8759	8067.5625
1257.42845	8265.0625
1260.97859	8475.9625
1264.52631	8699.4625
1268.07163	8856.2625
1271.61453	8983.8625
1275.15503	9024.2625
1278.69312	9025.5625
1282.22882	9075.8625
1285.76211	9286.3625
1289.29301	9541.4625
1292.82151	9792.8625
1296.34761	10038.7625
1299.87133	10443.1625
1303.39266	11137.7625
1306.9116	12252.2625
1310.42815	13483.8625
1313.94233	13902.7625
1317.45412	13139.6625
1320.96354	11978.2625
1324.47058	10993.7625
1327.97525	10246.1625
1331.47754	9819.8625
1334.97747	9747.1625
1338.47502	9858.5625
1341.97022	10243.0625
1345.46305	10963.3625
1348.95352	12006.6625
1352.44163	13296.9625
1355.92738	14567.5625
1359.41078	16208.4625
1362.89183	17676.0625
1366.37053	16998.0625
1369.84688	14199.9625
1373.32088	11579.0625
1376.79254	10221.5625
1380.26186	9549.0625
1383.72883	9166.0625
1387.19347	8778.0625
1390.65578	8418.7625
1394.11575	8201.4625
1397.57339	8041.2625
1401.0287	7958.4625
1404.48168	7897.5625
1407.93234	7919.0625
1411.38068	7953.0625
1414.82669	8013.2625
1418.27039	8110.7625
1421.71177	8107.8625
1425.15083	8017.9625
1428.58758	7915.3625
1432.02203	7945.3625
1435.45416	8041.4625
1438.88399	8033.6625
1442.31151	8024.3625
1445.73673	8088.8625
1449.15965	8151.9625
1452.58027	8156.2625
1455.9986	8151.7625
1459.41463	8156.5625
1462.82837	8274.0625
1466.23982	8424.1625
1469.64898	8669.1625
1473.05586	8791.5625
1476.46045	8912.8625
1479.86276	8954.9625
1483.26279	9052.0625
1486.66054	9218.4625
1490.05602	9514.5625
1493.44922	10028.8625
1496.84016	10906.3625
1500.22882	12252.7625
1503.61521	13949.7625
1506.99934	15683.9625
1510.38121	16915.6625
1513.76081	16755.8625
1517.13816	15206.2625
1520.51324	13123.2625
1523.88607	11447.8625
1527.25665	10440.5625
1530.62498	9906.4625
1533.99105	9732.1625
1537.35488	9580.3625
1540.71647	9506.9625
1544.07581	9412.0625
1547.4329	9298.1625
1550.78776	9161.8625
1554.14038	9075.4625
1557.49077	9036.9625
1560.83892	9149.9625
1564.18484	9362.9625
1567.52853	9677.6625
1570.86999	10013.4625
1574.20922	10130.4625
1577.54624	10005.9625
1580.88103	9540.8625
1584.2136	8852.6625
1587.54395	8513.4625
1590.87208	8447.2625
1594.19801	8609.5625
1597.52172	8972.2625
1600.84321	9133.5625
1604.16251	8998.1625
1607.47959	8780.3625
1610.79447	8613.4625
1614.10715	8311.5625
1617.41763	8029.4625
1620.7259	7746.7625
1624.03199	7586.1625
1627.33587	7512.2625
1630.63757	7564.3625
1633.93707	7794.0625
1637.23439	8230.6625
1640.52951	8909.1625
1643.82246	9870.2625
1647.11321	11048.1625
1650.40179	11739.3625
1653.68819	11391.5625
1656.97241	10163.3625
1660.25446	8776.3625
1663.53433	7791.6625
1666.81203	7180.6625
1670.08756	6841.0625
1673.36092	6670.9625
1676.63211	6523.9625
1679.90115	6436.0625
1683.16801	6346.7625
1686.43272	6283.5625
1689.69527	6219.9625
1692.95567	6148.6625
1696.2139	6134.0625
1699.46999	6081.9625
1702.72392	6063.0625
1705.97571	6097.5625
1709.22535	6056.2625
1712.47284	6110.9625
1715.71819	6113.9625
1718.96139	6100.1625
1722.20246	6080.6625
1725.44139	6069.2625
1728.67818	6043.6625
1731.91284	6004.6625
1735.14537	5958.5625
1738.37576	5924.0625
1741.60403	5917.9625
1744.83017	5868.1625
1748.05418	5891.9625
1751.27607	5891.2625
1754.49584	5849.9625
1757.71349	5814.7625
1760.92903	5809.3625
1764.14244	5770.1625
1767.35375	5763.2625
1770.56294	5753.4625
1773.77002	5752.6625
1776.97499	5758.5625
1780.17785	5733.8625
1783.37861	5719.9625
1786.57727	5719.1625
1789.77382	5678.1625
1792.96828	5710.2625
1796.16064	5699.7625
1799.3509	5673.4625
1802.53907	5703.9625
1805.72514	5648.4625
1808.90913	5641.0625
1812.09102	5631.4625
1815.27083	5617.1625
1818.44856	5603.6625
1821.6242	5595.4625
1824.79776	5570.2625
1827.96924	5584.2625
1831.13864	5544.8625
1834.30597	5554.4625
1837.47122	5545.8625
1840.6344	5512.6625
1843.7955	5509.6625
1846.95454	5496.8625
1850.11151	5528.0625
1853.26642	5485.6625
1856.41926	5485.0625
1859.57004	5475.5625
1862.71876	5486.5625
1865.86542	5480.5625
1869.01003	5476.6625
1872.15258	5444.7625
1875.29308	5474.5625
1878.43152	5460.0625
1881.56792	5441.4625
1884.70227	5421.9625
1887.83457	5427.8625
1890.96482	5404.2625
1894.09304	5400.6625
1897.21921	5393.8625
1900.34335	5397.7625
1903.46544	5375.1625
1906.58551	5389.1625
1909.70353	5389.9625
1912.81953	5378.0625
1915.93349	5363.1625
1919.04543	5357.3625
1922.15534	5330.8625
1925.26322	5352.6625
1928.36908	5312.1625
1931.47292	5319.4625
1934.57473	5307.0625
1937.67453	5286.7625
1940.77232	5266.7625
1943.86808	5253.2625
1946.96184	5243.2625
1950.05358	5210.5625
1953.14331	5200.8625
1956.23103	5199.5625
1959.31675	5157.3625
1962.40046	5129.7625
1965.48217	5144.1625
1968.56188	5140.9625
1971.63959	5127.2625
1974.7153	5130.0625
1977.78901	5103.9625
1980.86073	5105.7625
1983.93046	5034.1625
1986.99819	4969.6625
1990.06394	4980.6625
1993.1277	5009.9625
1996.18947	4967.8625
1999.24925	4939.2625
2002.30706	4948.9625
2005.36288	4943.5625
2008.41672	4914.4625
2011.46859	4903.7625
2014.51848	4888.9625
2017.56639	4857.5625
2020.61233	4847.1625
2023.6563	4842.3625
2026.6983	4804.5625
2029.73833	4788.7625
2032.7764	4813.7625
2035.8125	4752.2625
2038.84664	4762.7625
2041.87881	4738.6625
2044.90903	4746.6625
2047.93729	4747.0625
2050.96359	4725.7625
2053.98794	4731.1625
2057.01034	4730.9625
2060.03078	4727.2625
2063.04927	4694.9625
2066.06582	4681.3625
2069.08042	4690.9625
2072.09307	4684.7625
2075.10378	4687.4625
2078.11255	4682.2625
2081.11938	4681.3625
2084.12426	4661.8625
2087.12722	4658.8625
2090.12824	4675.1625
2093.12732	4669.1625
2096.12447	4666.3625
2099.11969	4666.4625
2102.11299	4644.5625
2105.10435	4683.5625
2108.09379	4663.5625
2111.08131	4650.9625
2114.0669	4649.8625
2117.05057	4654.1625
2120.03233	4647.4625
2123.01216	4677.4625
2125.99008	4671.0625
2128.96609	4666.8625
2131.94018	4692.0625
2134.91236	4665.8625
2137.88263	4663.2625
2140.851	4684.5625
2143.81746	4709.3625
2146.78201	4673.6625
2149.74466	4667.7625
2152.7054	4692.5625
2155.66425	4670.9625
2158.6212	4663.4625
2161.57625	4631.5625
2164.52941	4610.0625
2167.48067	4624.3625
2170.43004	4626.7625
2173.37752	4639.4625
2176.32311	4634.2625
2179.26681	4628.9625
2182.20863	4643.1625
2185.14856	4620.7625
2188.08661	4628.7625
2191.02278	4627.2625
2193.95707	4611.8625
2196.88948	4602.4625
2199.82001	4614.3625
2202.74867	4602.6625
2205.67545	4616.3625
2208.60037	4607.6625
2211.52341	4589.8625
2214.44458	4577.7625
2217.36388	4568.9625
2220.28132	4536.5625
2223.1969	4506.8625
2226.11061	4530.9625
2229.02246	4513.1625
2231.93245	4510.2625
2234.84058	4498.8625
2237.74686	4485.5625
2240.65128	4474.5625
2243.55385	4481.4625
2246.45456	4449.6625
2249.35343	4472.5625
2252.25044	4447.3625
2255.14561	4454.3625
2258.03893	4441.3625
2260.93041	4429.7625
2263.82004	4433.4625
2266.70783	4425.7625
2269.59378	4393.2625
2272.4779	4391.0625
2275.36017	4394.9625
2278.24061	4381.0625
2281.11922	4354.6625
2283.996	4367.5625
2286.87094	4349.6625
2289.74405	4344.4625
2292.61534	4339.0625
2295.4848	4316.9625
2298.35243	4315.7625
2301.21824	4286.5625
2304.08223	4296.1625
2306.94439	4299.7625
2309.80474	4294.8625
2312.66327	4306.6625
2315.51999	4284.5625
2318.37489	4273.2625
2321.22797	4253.7625
2324.07925	4245.8625
2326.92871	4245.1625
2329.77637	4226.2625
2332.62222	4209.6625
2335.46626	4209.9625
2338.3085	4209.3625
2341.14893	4212.0625
2343.98756	4225.6625
2346.8244	4194.1625
2349.65943	4184.7625
2352.49267	4195.8625
2355.32411	4188.5625
2358.15376	4180.7625
2360.98161	4199.2625
2363.80768	4171.2625
2366.63195	4196.8625
2369.45444	4191.9625
2372.27514	4183.0625
2375.09405	4190.3625
2377.91118	4149.6625
2380.72652	4146.4625
2383.54009	4144.7625
2386.35187	4133.0625
2389.16188	4103.9625
2391.97011	4122.4625
2394.77657	4092.9625
2397.58125	4104.8625
2400.38416	4077.3625
2403.18529	4067.3625
2405.98466	4056.7625
2408.78226	4069.3625
2411.57809	4052.8625
2414.37216	4028.2625
2417.16446	4048.7625
2419.955	4006.3625
2422.74378	4027.5625
2425.5308	4007.2625
2428.31606	4003.2625
2431.09956	4012.0625
2433.88131	3989.5625
2436.6613	3993.0625
2439.43954	3979.6625
2442.21603	3972.5625
2444.99077	3984.5625
2447.76377	3987.9625
2450.53501	3981.2625
2453.30451	3959.1625
2456.07226	3979.3625
2458.83827	3965.7625
2461.60254	3914.7625
2464.36507	3944.2625
2467.12586	3923.8625
2469.88492	3930.3625
2472.64224	3936.0625
2475.39782	3919.4625
2478.15167	3940.8625
2480.90379	3914.2625
2483.65417	3939.1625
2486.40283	3929.7625
2489.14976	3949.6625
2491.89497	3935.0625
2494.63845	3917.6625
2497.3802	3909.5625
2500.12024	3908.9625
2502.85855	3908.9625
2505.59514	3904.7625
2508.33002	3881.1625
2511.06318	3858.3625
2513.79462	3867.5625
2516.52435	3842.5625
2519.25237	3814.6625
2521.97867	3825.9625
2524.70327	3836.0625
2527.42616	3815.7625
2530.14734	3834.9625
2532.86681	3809.1625
2535.58458	3806.4625
2538.30065	3798.3625
2541.01501	3810.7625
2543.72768	3780.5625
2546.43864	3794.9625
2549.14791	3769.6625
2551.85548	3765.3625
2554.56136	3759.9625
2557.26554	3744.8625
2559.96803	3762.4625
2562.66883	3738.5625
2565.36794	3727.2625
2568.06536	3685.4625
2570.7611	3722.5625
2573.45514	3713.3625
2576.14751	3697.2625
2578.83819	3682.4625
2581.52719	3654.9625
2584.21451	3661.0625
2586.90015	3646.2625
2589.58411	3626.7625
2592.2664	3651.8625
2594.94701	3636.7625
2597.62594	3633.0625
2600.30321	3582.9625
2602.9788	3582.1625
2605.65273	3595.7625
2608.32498	3598.4625
2610.99557	3604.4625
2613.66449	3584.1625
2616.33175	3591.1625
2618.99734	3590.1625
2621.66128	3590.6625
2624.32355	3571.8625
2626.98416	3546.3625
2629.64311	3543.8625
2632.30041	3535.3625
2634.95605	3511.9625
2637.61004	3510.0625
2640.26238	3487.5625
2642.91306	3492.4625
2645.56209	3504.2625
2648.20948	3511.6625
2650.85521	3494.5625
2653.4993	3512.9625
2656.14175	3495.8625
2658.78255	3494.3625
2661.42171	3468.3625
2664.05923	3498.2625
2666.6951	3498.5625
2669.32934	3501.3625
2671.96194	3513.7625
2674.59291	3490.3625
2677.22224	3502.7625
2679.84993	3508.6625
2682.476	3487.9625
2685.10043	3476.3625
2687.72324	3470.8625
2690.34441	3472.2625
2692.96396	3458.8625
2695.58188	3489.7625
2698.19818	3471.6625
2700.81285	3462.2625
2703.4259	3447.3625
2706.03733	3422.3625
2708.64714	3422.6625
2711.25533	3458.8625
2713.86191	3460.6625
2716.46687	3464.5625
2719.07021	3452.3625
2721.67194	3454.5625
2724.27206	3461.1625
2726.87057	3442.2625
2729.46747	3435.5625
2732.06276	3456.1625
2734.65644	3427.5625
2737.24852	3426.0625
2739.83899	3402.8625
2742.42786	3429.5625
2745.01513	3415.8625
2747.60079	3417.2625
2750.18486	3369.7625
2752.76733	3382.4625
2755.3482	3384.6625
2757.92747	3385.8625
2760.50515	3367.7625
2763.08123	3355.6625
2765.65573	3354.3625
2768.22863	3339.6625
2770.79994	3330.3625
2773.36967	3342.1625
2775.9378	3320.3625
2778.50435	3325.6625
2781.06932	3324.2625
2783.6327	3312.8625
2786.1945	3332.1625
2788.75471	3319.6625
2791.31335	3311.7625
2793.87041	3304.6625
2796.42589	3279.8625
2798.97979	3271.1625
2801.53212	3273.4625
2804.08288	3279.6625
2806.63206	3278.2625
2809.17967	3251.9625
2811.72571	3266.2625
2814.27018	3261.7625
2816.81308	3235.5625
2819.35442	3205.5625
2821.89419	3209.8625
2824.43239	3200.4625
2826.96904	3235.9625
2829.50412	3201.4625
2832.03763	3201.6625
2834.56959	3213.9625
2837.1	3195.1625
2839.62884	3202.8625
2842.15613	3186.6625
2844.68186	3208.9625
2847.20604	3170.7625
2849.72867	3158.0625
2852.24974	3178.6625
2854.76927	3132.9625
2857.28724	3084.4625
2859.80367	3149.7625
2862.31855	3154.1625
2864.83189	3147.7625
2867.34368	3157.9625
2869.85393	3147.5625
2872.36264	3115.1625
2874.8698	3145.7625
2877.37543	3142.8625
2879.87952	3130.4625
2882.38207	3110.0625
2884.88308	3116.2625
2887.38256	3118.0625
2889.88051	3098.7625
2892.37692	3103.3625
2894.8718	3095.2625
2897.36515	3104.7625
2899.85698	3087.5625
2902.34727	3089.3625
2904.83604	3095.1625
2907.32328	3104.5625
2909.809	3107.2625
2912.29319	3111.1625
2914.77587	3103.8625
2917.25702	3127.7625
2919.73665	3108.8625
2922.21476	3126.4625
2924.69136	3123.6625
2927.16644	3100.2625
2929.64	3101.4625
2932.11205	3095.6625
2934.58258	3090.4625
2937.05161	3071.8625
2939.51912	3069.7625
2941.98513	3096.4625
2944.44962	3079.1625
2946.91261	3053.3625
2949.37409	3057.4625
2951.83407	3037.6625
2954.29254	3042.1625
2956.74951	3054.8625
2959.20498	3025.2625
2961.65895	3032.7625
2964.11142	3017.7625
2966.56239	3021.9625
2969.01186	3034.0625
2971.45984	3018.0625
2973.90632	2996.9625
2976.35131	3010.8625
2978.7948	2996.7625
2981.23681	2995.9625
2983.67732	2991.1625
2986.11635	3000.7625
2988.55388	2952.3625
2990.98993	2964.2625
2993.4245	2945.7625
2995.85758	2942.4625
2998.28917	2933.0625
3000.71928	2922.2625
3003.14791	2926.2625
3005.57506	2916.5625
3008.00073	2884.8625
3010.42493	2837.3625
3012.84764	2883.1625
3015.26888	2895.6625
3017.68865	2883.4625
3020.10694	2821.8625
3022.52376	2849.1625
3024.9391	2826.7625
3027.35298	2825.2625
3029.76539	2819.7625
3032.17632	2826.0625
3034.5858	2813.4625
3036.9938	2816.8625
3039.40034	2808.1625
3041.80542	2806.5625
3044.20903	2785.8625
3046.61118	2775.5625
3049.01187	2780.0625
3051.4111	2771.3625
3053.80888	2749.2625
3056.20519	2757.4625
3058.60005	2739.8625
3060.99345	2778.2625
3063.3854	2741.7625
3065.7759	2716.8625
3068.16494	2704.4625
3070.55254	2702.9625
3072.93868	2710.9625
3075.32338	2692.6625
3077.70662	2687.2625
3080.08842	2676.0625
3082.46878	2657.9625
3084.84769	2678.3625
3087.22515	2665.1625
3089.60118	2683.3625
3091.97576	2655.3625
3094.3489	2656.8625
3096.72061	2654.7625
3099.09087	2640.9625
3101.4597	2654.9625
3103.82709	2643.8625
3106.19305	2632.8625
3108.55757	2629.0625
3110.92066	2623.9625
3113.28232	2635.9625
3115.64255	2633.8625
3118.00134	2624.6625
3120.35871	2603.4625
3122.71466	2582.1625
3125.06917	2591.8625
3127.42226	2580.5625
3129.77393	2563.4625
3132.12417	2570.0625
3134.47299	2582.7625
3136.82039	2558.0625
3139.16636	2534.8625
3141.51092	2562.9625
3143.85406	2552.3625
3146.19579	2538.0625
3148.53609	2544.5625
3150.87499	2560.2625
3153.21246	2534.8625
3155.54853	2555.1625
3157.88318	2552.6625
3160.21642	2544.1625
3162.54826	2537.2625
3164.87868	2548.4625
3167.2077	2503.0625
3169.5353	2518.4625
3171.86151	2533.6625
3174.18631	2512.7625
3176.5097	2503.8625
3178.83169	2506.1625
3181.15228	2515.4625
3183.47147	2488.1625
3185.78926	2468.8625
3188.10565	2474.4625
3190.42065	2454.2625
3192.73424	2463.8625
3195.04645	2463.4625
3197.35725	2442.5625
3199.66667	2451.7625
3201.97469	2456.6625
3204.28132	2441.2625
3206.58656	2442.7625
3208.8904	2447.5625
3211.19287	2451.4625
3213.49394	2430.9625
3215.79363	2434.4625
3218.09193	2448.8625
3220.38884	2444.4625
3222.68438	2428.3625
3224.97853	2421.7625
3227.2713	2431.4625
3229.56269	2415.5625
3231.8527	2418.4625
3234.14133	2407.2625
3236.42858	2403.1625
3238.71446	2372.8625
3240.99896	2389.0625
3243.28209	2372.4625
3245.56384	2380.2625
3247.84423	2375.5625
3250.12324	2360.7625
3252.40088	2362.5625
3254.67715	2359.7625
3256.95205	2353.3625
3259.22558	2358.0625
3261.49775	2356.3625
3263.76855	2351.1625
3266.03799	2350.8625
3268.30606	2356.5625
3270.57277	2354.9625
3272.83812	2325.4625
3275.10211	2335.5625
3277.36474	2332.8625
3279.62601	2329.0625
3281.88593	2308.2625
3284.14448	2286.6625
3286.40168	2321.4625
3288.65753	2299.8625
3290.91202	2301.3625
3293.16516	2278.1625
3295.41695	2297.4625
3297.66738	2290.5625
3299.91647	2265.9625
3302.16421	2267.3625
3304.4106	2229.2625
3306.65564	2245.1625
3308.89933	2209.7625
3311.14169	2201.5625
3313.38269	2191.9625
3315.62236	2161.2625
3317.86068	2159.1625
3320.09766	2143.2625
3322.3333	2112.7625
3324.5676	2103.4625
3326.80056	2072.7625
3329.03219	2061.3625
3331.26248	1.1625
3333.49143	-0.1375
3335.71905	0.9625
