Data from AgNPs_UA_5uM_CRN_500uM_SU_RamanShift__100__11-46-03-159.txt Node

Date: Thu Aug 04 11:46:03 BST 2022
User: TCL
Spectrometer: QEP01345
Trigger mode: 4
Integration Time (sec): 1.000000E0
Scans to average: 10
Electric dark correction enabled: true
Nonlinearity correction enabled: false
Boxcar width: 0
XAxis mode: Raman Shifts
Number of Pixels in Spectrum: 1044
>>>>>Begin Spectral Data<<<<<
46.04893	0.1625
50.45542	0.3625
54.85868	-0.0375
59.25871	-0.8375
63.6555	-66.9375
68.04907	-49.0375
72.43941	-81.0375
76.82654	-64.9375
81.21044	-66.2375
85.59113	-60.3375
89.96862	-84.6375
94.34289	-65.4375
98.71396	-85.5375
103.08183	-68.2375
107.4465	-60.4375
111.80798	-66.2375
116.16626	-56.9375
120.52136	-86.9375
124.87327	-64.9375
129.222	-78.9375
133.56755	-66.7375
137.90993	-84.3375
142.24913	-75.0375
146.58517	-67.5375
150.91804	-70.5375
155.24774	-68.6375
159.57429	-57.1375
163.89768	-69.1375
168.21792	-50.6375
172.53501	-64.2375
176.84895	-34.9375
181.15975	25.7625
185.46741	66.6625
189.77193	103.4625
194.07331	218.4625
198.37157	301.6625
202.6667	376.2625
206.9587	476.8625
211.24758	567.2625
215.53334	653.0625
219.81599	745.7625
224.09553	858.1625
228.37195	969.1625
232.64527	1085.7625
236.91549	1236.1625
241.18261	1341.7625
245.44663	1485.2625
249.70755	1599.2625
253.96539	1695.6625
258.22014	1792.0625
262.4718	1849.1625
266.72039	1906.1625
270.96589	1915.7625
275.20832	1909.2625
279.44768	1892.5625
283.68397	1865.6625
287.91719	1818.8625
292.14735	1808.7625
296.37445	1806.8625
300.59849	1831.2625
304.81948	1835.6625
309.03742	1858.9625
313.25231	1887.9625
317.46415	1903.9625
321.67296	1856.7625
325.87872	1835.9625
330.08145	1842.2625
334.28114	1844.2625
338.47781	1869.4625
342.67145	1891.6625
346.86207	1933.1625
351.04966	1989.1625
355.23424	2036.7625
359.4158	2088.2625
363.59435	2089.7625
367.76989	2104.6625
371.94243	2131.0625
376.11196	2119.8625
380.27849	2138.6625
384.44203	2147.4625
388.60257	2166.4625
392.76012	2175.1625
396.91468	2232.9625
401.06626	2262.3625
405.21485	2265.3625
409.36047	2275.0625
413.50311	2266.0625
417.64277	2266.3625
421.77947	2250.1625
425.9132	2262.7625
430.04396	2280.1625
434.17176	2304.7625
438.2966	2345.7625
442.41849	2351.6625
446.53742	2371.7625
450.6534	2383.7625
454.76644	2414.6625
458.87653	2446.8625
462.98368	2451.7625
467.08789	2444.2625
471.18916	2460.4625
475.2875	2479.5625
479.38291	2487.3625
483.4754	2492.8625
487.56496	2512.2625
491.6516	2494.5625
495.73531	2501.8625
499.81612	2518.0625
503.89401	2563.5625
507.96899	2540.3625
512.04106	2566.1625
516.11023	2590.4625
520.1765	2597.2625
524.23987	2616.8625
528.30034	2631.0625
532.35792	2598.6625
536.41261	2647.1625
540.46441	2648.9625
544.51333	2635.6625
548.55936	2654.7625
552.60252	2688.5625
556.64279	2690.7625
560.6802	2748.6625
564.71473	2741.6625
568.7464	2765.1625
572.7752	2787.4625
576.80114	2757.0625
580.82422	2751.2625
584.84444	2744.9625
588.86181	2747.8625
592.87633	2775.2625
596.888	2791.3625
600.89682	2822.9625
604.9028	2933.0625
608.90594	3085.4625
612.90624	3312.7625
616.90371	3214.2625
620.89834	2991.8625
624.89015	2916.7625
628.87913	2895.7625
632.86528	2920.3625
636.84862	2971.1625
640.82913	2977.1625
644.80683	2926.6625
648.78172	2938.5625
652.75379	2962.2625
656.72306	2982.8625
660.68952	3017.0625
664.65319	3029.8625
668.61405	3005.1625
672.57211	3016.0625
676.52738	3051.1625
680.47986	3044.8625
684.42955	3063.6625
688.37646	3070.6625
692.32058	3073.5625
696.26192	3090.4625
700.20048	3107.7625
704.13626	3119.8625
708.06928	3112.2625
711.99952	3155.0625
715.927	3124.2625
719.85171	3147.4625
723.77365	3167.0625
727.69284	3163.4625
731.60928	3181.3625
735.52295	3171.8625
739.43388	3196.3625
743.34206	3209.8625
747.24749	3234.4625
751.15017	3249.9625
755.05012	3254.6625
758.94733	3297.4625
762.8418	3342.4625
766.73354	3460.1625
770.62254	3540.7625
774.50882	3535.9625
778.39237	3505.0625
782.27321	3442.7625
786.15132	3390.4625
790.02671	3364.6625
793.89938	3304.2625
797.76935	3314.8625
801.6366	3313.6625
805.50115	3322.7625
809.36299	3338.3625
813.22213	3348.5625
817.07857	3368.3625
820.93231	3354.8625
824.78336	3376.5625
828.63172	3397.5625
832.47738	3365.8625
836.32036	3422.4625
840.16066	3419.6625
843.99827	3420.2625
847.8332	3433.2625
851.66546	3430.8625
855.49504	3424.5625
859.32195	3462.9625
863.1462	3454.9625
866.96777	3485.5625
870.78668	3458.2625
874.60293	3484.8625
878.41652	3486.1625
882.22745	3535.4625
886.03573	3519.2625
889.84136	3517.6625
893.64433	3540.0625
897.44466	3542.5625
901.24235	3550.0625
905.0374	3563.9625
908.8298	3545.1625
912.61957	3547.0625
916.40671	3513.9625
920.19121	3536.9625
923.97308	3575.3625
927.75233	3552.8625
931.52895	3543.2625
935.30295	3587.4625
939.07433	3584.3625
942.84309	3554.8625
946.60924	3576.7625
950.37278	3546.1625
954.13371	3570.1625
957.89203	3548.0625
961.64774	3586.3625
965.40086	3565.4625
969.15137	3544.5625
972.89929	3595.1625
976.64461	3580.6625
980.38733	3593.8625
984.12747	3584.2625
987.86502	3585.5625
991.59999	3594.6625
995.33237	3627.9625
999.06217	3646.7625
1002.78939	3636.0625
1006.51404	3649.1625
1010.23611	3663.4625
1013.95561	3690.0625
1017.67255	3690.2625
1021.38692	3711.3625
1025.09872	3701.7625
1028.80796	3674.4625
1032.51465	3706.8625
1036.21877	3691.0625
1039.92035	3715.1625
1043.61937	3722.9625
1047.31584	3730.5625
1051.00976	3763.2625
1054.70114	3785.0625
1058.38998	3793.3625
1062.07627	3775.7625
1065.76003	3775.2625
1069.44126	3812.4625
1073.11995	3817.8625
1076.79611	3839.5625
1080.46974	3848.6625
1084.14085	3877.4625
1087.80943	3866.2625
1091.47549	3892.7625
1095.13903	3900.3625
1098.80005	3895.1625
1102.45857	3868.4625
1106.11456	3875.0625
1109.76805	3828.1625
1113.41903	3873.6625
1117.06751	3882.3625
1120.71348	3903.7625
1124.35696	3958.6625
1127.99793	3962.4625
1131.63641	3949.6625
1135.2724	3935.2625
1138.90589	3923.2625
1142.5369	3872.1625
1146.16542	3874.1625
1149.79145	3841.3625
1153.415	3844.7625
1157.03607	3856.0625
1160.65467	3851.6625
1164.27079	3892.5625
1167.88443	3904.7625
1171.49561	3952.7625
1175.10432	3991.1625
1178.71056	4073.1625
1182.31434	4163.9625
1185.91565	4165.4625
1189.51451	4158.5625
1193.11091	4152.6625
1196.70485	4135.5625
1200.29634	4127.8625
1203.88538	4107.0625
1207.47197	4040.5625
1211.05612	4032.3625
1214.63782	3987.5625
1218.21708	3998.1625
1221.79391	3993.5625
1225.36829	3969.0625
1228.94024	3975.0625
1232.50976	3986.8625
1236.07685	3993.0625
1239.6415	4008.5625
1243.20374	4012.0625
1246.76355	4025.9625
1250.32093	4055.8625
1253.8759	4040.4625
1257.42845	4087.8625
1260.97859	4102.6625
1264.52631	4142.7625
1268.07163	4133.1625
1271.61453	4149.9625
1275.15503	4156.7625
1278.69312	4137.2625
1282.22882	4147.9625
1285.76211	4183.9625
1289.29301	4177.3625
1292.82151	4207.9625
1296.34761	4229.5625
1299.87133	4252.7625
1303.39266	4316.2625
1306.9116	4411.6625
1310.42815	4507.6625
1313.94233	4558.7625
1317.45412	4489.6625
1320.96354	4415.1625
1324.47058	4329.0625
1327.97525	4236.9625
1331.47754	4210.4625
1334.97747	4188.4625
1338.47502	4194.7625
1341.97022	4206.8625
1345.46305	4280.7625
1348.95352	4358.1625
1352.44163	4461.0625
1355.92738	4506.6625
1359.41078	4614.7625
1362.89183	4761.7625
1366.37053	4714.9625
1369.84688	4505.4625
1373.32088	4305.1625
1376.79254	4212.8625
1380.26186	4126.5625
1383.72883	4080.2625
1387.19347	4015.9625
1390.65578	3970.3625
1394.11575	3948.3625
1397.57339	3939.9625
1401.0287	3927.9625
1404.48168	3940.7625
1407.93234	3962.9625
1411.38068	3937.3625
1414.82669	3942.3625
1418.27039	3965.4625
1421.71177	3960.0625
1425.15083	3932.8625
1428.58758	3928.5625
1432.02203	3935.6625
1435.45416	3953.9625
1438.88399	3918.7625
1442.31151	3901.3625
1445.73673	3907.6625
1449.15965	3896.7625
1452.58027	3902.0625
1455.9986	3899.7625
1459.41463	3917.2625
1462.82837	3932.3625
1466.23982	3930.7625
1469.64898	3963.8625
1473.05586	3954.4625
1476.46045	3967.3625
1479.86276	3981.2625
1483.26279	4000.1625
1486.66054	4045.3625
1490.05602	4047.5625
1493.44922	4111.6625
1496.84016	4172.0625
1500.22882	4287.9625
1503.61521	4412.4625
1506.99934	4552.1625
1510.38121	4670.8625
1513.76081	4724.3625
1517.13816	4621.6625
1520.51324	4449.1625
1523.88607	4316.7625
1527.25665	4239.8625
1530.62498	4171.9625
1533.99105	4169.1625
1537.35488	4156.4625
1540.71647	4158.0625
1544.07581	4159.6625
1547.4329	4150.5625
1550.78776	4157.2625
1554.14038	4166.0625
1557.49077	4168.1625
1560.83892	4204.8625
1564.18484	4220.4625
1567.52853	4244.5625
1570.86999	4281.8625
1574.20922	4281.7625
1577.54624	4275.8625
1580.88103	4236.2625
1584.2136	4163.8625
1587.54395	4159.9625
1590.87208	4169.2625
1594.19801	4124.0625
1597.52172	4183.9625
1600.84321	4211.5625
1604.16251	4203.1625
1607.47959	4166.0625
1610.79447	4149.5625
1614.10715	4127.9625
1617.41763	4125.0625
1620.7259	4085.9625
1624.03199	4086.2625
1627.33587	4071.9625
1630.63757	4060.2625
1633.93707	4084.5625
1637.23439	4107.3625
1640.52951	4177.0625
1643.82246	4241.4625
1647.11321	4365.1625
1650.40179	4396.3625
1653.68819	4355.0625
1656.97241	4275.9625
1660.25446	4160.0625
1663.53433	4087.3625
1666.81203	4020.9625
1670.08756	3999.2625
1673.36092	4009.7625
1676.63211	3982.4625
1679.90115	3984.3625
1683.16801	3966.3625
1686.43272	3937.2625
1689.69527	3943.0625
1692.95567	3917.3625
1696.2139	3914.7625
1699.46999	3885.0625
1702.72392	3904.0625
1705.97571	3937.0625
1709.22535	3925.9625
1712.47284	3975.2625
1715.71819	3970.8625
1718.96139	3964.4625
1722.20246	3977.5625
1725.44139	3960.7625
1728.67818	3975.0625
1731.91284	3952.7625
1735.14537	3942.1625
1738.37576	3953.5625
1741.60403	3946.6625
1744.83017	3922.1625
1748.05418	3932.8625
1751.27607	3960.2625
1754.49584	3935.6625
1757.71349	3916.8625
1760.92903	3924.2625
1764.14244	3889.4625
1767.35375	3907.6625
1770.56294	3899.3625
1773.77002	3894.1625
1776.97499	3922.0625
1780.17785	3936.9625
1783.37861	3909.6625
1786.57727	3939.0625
1789.77382	3885.0625
1792.96828	3927.1625
1796.16064	3940.3625
1799.3509	3917.8625
1802.53907	3936.1625
1805.72514	3905.7625
1808.90913	3898.6625
1812.09102	3895.1625
1815.27083	3911.0625
1818.44856	3898.2625
1821.6242	3895.1625
1824.79776	3887.8625
1827.96924	3885.7625
1831.13864	3867.9625
1834.30597	3892.1625
1837.47122	3877.6625
1840.6344	3865.3625
1843.7955	3854.2625
1846.95454	3844.0625
1850.11151	3874.3625
1853.26642	3845.1625
1856.41926	3872.6625
1859.57004	3863.9625
1862.71876	3853.8625
1865.86542	3866.2625
1869.01003	3858.8625
1872.15258	3832.1625
1875.29308	3857.1625
1878.43152	3862.6625
1881.56792	3839.7625
1884.70227	3822.0625
1887.83457	3848.0625
1890.96482	3823.4625
1894.09304	3833.7625
1897.21921	3830.6625
1900.34335	3833.1625
1903.46544	3815.5625
1906.58551	3826.2625
1909.70353	3812.5625
1912.81953	3810.3625
1915.93349	3794.3625
1919.04543	3802.5625
1922.15534	3792.3625
1925.26322	3786.9625
1928.36908	3786.1625
1931.47292	3790.1625
1934.57473	3795.8625
1937.67453	3769.9625
1940.77232	3750.4625
1943.86808	3757.6625
1946.96184	3748.3625
1950.05358	3727.7625
1953.14331	3708.6625
1956.23103	3727.4625
1959.31675	3704.5625
1962.40046	3662.4625
1965.48217	3683.5625
1968.56188	3670.9625
1971.63959	3662.8625
1974.7153	3660.4625
1977.78901	3649.8625
1980.86073	3643.8625
1983.93046	3608.0625
1986.99819	3536.4625
1990.06394	3585.7625
1993.1277	3610.0625
1996.18947	3587.9625
1999.24925	3562.4625
2002.30706	3581.2625
2005.36288	3590.8625
2008.41672	3562.7625
2011.46859	3544.5625
2014.51848	3538.3625
2017.56639	3528.9625
2020.61233	3516.1625
2023.6563	3510.5625
2026.6983	3483.4625
2029.73833	3485.4625
2032.7764	3499.2625
2035.8125	3453.8625
2038.84664	3460.3625
2041.87881	3454.8625
2044.90903	3457.2625
2047.93729	3456.7625
2050.96359	3429.3625
2053.98794	3441.0625
2057.01034	3454.5625
2060.03078	3435.9625
2063.04927	3419.3625
2066.06582	3430.2625
2069.08042	3435.0625
2072.09307	3429.5625
2075.10378	3428.5625
2078.11255	3425.5625
2081.11938	3432.8625
2084.12426	3426.8625
2087.12722	3419.9625
2090.12824	3413.4625
2093.12732	3424.7625
2096.12447	3437.6625
2099.11969	3427.6625
2102.11299	3425.3625
2105.10435	3443.4625
2108.09379	3446.7625
2111.08131	3425.5625
2114.0669	3429.9625
2117.05057	3439.6625
2120.03233	3422.2625
2123.01216	3439.7625
2125.99008	3453.4625
2128.96609	3434.0625
2131.94018	3468.7625
2134.91236	3451.2625
2137.88263	3448.5625
2140.851	3463.0625
2143.81746	3484.1625
2146.78201	3478.0625
2149.74466	3461.6625
2152.7054	3477.4625
2155.66425	3466.5625
2158.6212	3455.6625
2161.57625	3447.6625
2164.52941	3418.3625
2167.48067	3434.7625
2170.43004	3445.5625
2173.37752	3464.8625
2176.32311	3455.7625
2179.26681	3441.2625
2182.20863	3473.5625
2185.14856	3455.3625
2188.08661	3462.5625
2191.02278	3465.0625
2193.95707	3442.5625
2196.88948	3436.8625
2199.82001	3448.5625
2202.74867	3423.6625
2205.67545	3441.1625
2208.60037	3446.9625
2211.52341	3431.9625
2214.44458	3415.6625
2217.36388	3414.2625
2220.28132	3407.4625
2223.1969	3388.3625
2226.11061	3386.0625
2229.02246	3377.1625
2231.93245	3385.6625
2234.84058	3371.4625
2237.74686	3363.0625
2240.65128	3367.7625
2243.55385	3364.9625
2246.45456	3350.7625
2249.35343	3355.7625
2252.25044	3348.2625
2255.14561	3343.4625
2258.03893	3346.4625
2260.93041	3333.4625
2263.82004	3328.4625
2266.70783	3316.4625
2269.59378	3298.0625
2272.4779	3291.4625
2275.36017	3308.9625
2278.24061	3290.7625
2281.11922	3255.2625
2283.996	3279.1625
2286.87094	3256.2625
2289.74405	3273.0625
2292.61534	3277.4625
2295.4848	3256.0625
2298.35243	3261.5625
2301.21824	3234.8625
2304.08223	3239.7625
2306.94439	3251.1625
2309.80474	3263.0625
2312.66327	3239.0625
2315.51999	3220.6625
2318.37489	3226.8625
2321.22797	3217.1625
2324.07925	3212.1625
2326.92871	3211.8625
2329.77637	3199.3625
2332.62222	3205.5625
2335.46626	3174.1625
2338.3085	3169.8625
2341.14893	3192.9625
2343.98756	3192.3625
2346.8244	3160.2625
2349.65943	3151.6625
2352.49267	3154.8625
2355.32411	3162.2625
2358.15376	3160.5625
2360.98161	3168.6625
2363.80768	3125.2625
2366.63195	3144.4625
2369.45444	3156.9625
2372.27514	3141.7625
2375.09405	3159.8625
2377.91118	3121.8625
2380.72652	3107.6625
2383.54009	3120.9625
2386.35187	3127.2625
2389.16188	3105.0625
2391.97011	3107.2625
2394.77657	3100.4625
2397.58125	3099.7625
2400.38416	3084.5625
2403.18529	3076.3625
2405.98466	3076.2625
2408.78226	3089.7625
2411.57809	3070.1625
2414.37216	3061.8625
2417.16446	3058.9625
2419.955	3036.2625
2422.74378	3067.1625
2425.5308	3021.8625
2428.31606	3043.7625
2431.09956	3044.6625
2433.88131	3020.2625
2436.6613	3028.3625
2439.43954	3023.8625
2442.21603	3008.9625
2444.99077	3003.7625
2447.76377	3011.9625
2450.53501	2997.9625
2453.30451	2985.9625
2456.07226	3005.9625
2458.83827	2993.6625
2461.60254	2948.5625
2464.36507	2982.5625
2467.12586	2959.1625
2469.88492	2961.7625
2472.64224	2964.5625
2475.39782	2941.2625
2478.15167	2945.9625
2480.90379	2938.7625
2483.65417	2957.2625
2486.40283	2941.9625
2489.14976	2940.9625
2491.89497	2930.1625
2494.63845	2928.6625
2497.3802	2921.3625
2500.12024	2941.4625
2502.85855	2914.7625
2505.59514	2913.5625
2508.33002	2922.3625
2511.06318	2910.7625
2513.79462	2914.3625
2516.52435	2881.5625
2519.25237	2872.5625
2521.97867	2877.6625
2524.70327	2878.4625
2527.42616	2875.0625
2530.14734	2905.9625
2532.86681	2872.5625
2535.58458	2871.8625
2538.30065	2862.8625
2541.01501	2868.8625
2543.72768	2855.9625
2546.43864	2839.2625
2549.14791	2850.8625
2551.85548	2826.9625
2554.56136	2828.6625
2557.26554	2842.1625
2559.96803	2828.1625
2562.66883	2808.2625
2565.36794	2789.5625
2568.06536	2778.4625
2570.7611	2806.7625
2573.45514	2777.6625
2576.14751	2789.9625
2578.83819	2761.6625
2581.52719	2757.6625
2584.21451	2762.8625
2586.90015	2747.5625
2589.58411	2728.2625
2592.2664	2743.9625
2594.94701	2739.4625
2597.62594	2734.7625
2600.30321	2673.8625
2602.9788	2707.7625
2605.65273	2690.2625
2608.32498	2695.6625
2610.99557	2712.5625
2613.66449	2683.9625
2616.33175	2695.8625
2618.99734	2684.8625
2621.66128	2680.7625
2624.32355	2677.9625
2626.98416	2664.8625
2629.64311	2651.4625
2632.30041	2655.1625
2634.95605	2643.4625
2637.61004	2633.7625
2640.26238	2630.1625
2642.91306	2619.5625
2645.56209	2647.7625
2648.20948	2632.7625
2650.85521	2617.2625
2653.4993	2637.2625
2656.14175	2630.9625
2658.78255	2610.3625
2661.42171	2582.0625
2664.05923	2616.3625
2666.6951	2621.4625
2669.32934	2617.5625
2671.96194	2623.9625
2674.59291	2601.9625
2677.22224	2618.1625
2679.84993	2607.6625
2682.476	2620.9625
2685.10043	2593.7625
2687.72324	2586.6625
2690.34441	2586.9625
2692.96396	2577.6625
2695.58188	2605.1625
2698.19818	2588.3625
2700.81285	2584.9625
2703.4259	2575.5625
2706.03733	2546.3625
2708.64714	2544.6625
2711.25533	2574.0625
2713.86191	2581.9625
2716.46687	2576.1625
2719.07021	2565.1625
2721.67194	2563.5625
2724.27206	2589.8625
2726.87057	2572.1625
2729.46747	2573.5625
2732.06276	2576.7625
2734.65644	2552.7625
2737.24852	2569.4625
2739.83899	2538.6625
2742.42786	2565.7625
2745.01513	2562.5625
2747.60079	2538.0625
2750.18486	2529.8625
2752.76733	2530.7625
2755.3482	2516.2625
2757.92747	2531.2625
2760.50515	2511.3625
2763.08123	2522.9625
2765.65573	2512.0625
2768.22863	2510.6625
2770.79994	2489.8625
2773.36967	2484.0625
2775.9378	2480.7625
2778.50435	2474.9625
2781.06932	2477.4625
2783.6327	2469.0625
2786.1945	2490.8625
2788.75471	2467.3625
2791.31335	2458.5625
2793.87041	2465.9625
2796.42589	2441.1625
2798.97979	2428.5625
2801.53212	2432.9625
2804.08288	2427.6625
2806.63206	2414.1625
2809.17967	2398.5625
2811.72571	2418.5625
2814.27018	2403.7625
2816.81308	2402.0625
2819.35442	2361.3625
2821.89419	2381.2625
2824.43239	2355.4625
2826.96904	2383.8625
2829.50412	2361.2625
2832.03763	2361.4625
2834.56959	2372.2625
2837.1	2358.0625
2839.62884	2367.8625
2842.15613	2353.3625
2844.68186	2370.9625
2847.20604	2341.9625
2849.72867	2338.2625
2852.24974	2335.6625
2854.76927	2310.4625
2857.28724	2267.5625
2859.80367	2316.1625
2862.31855	2327.2625
2864.83189	2303.4625
2867.34368	2311.4625
2869.85393	2310.2625
2872.36264	2280.9625
2874.8698	2282.3625
2877.37543	2289.7625
2879.87952	2289.2625
2882.38207	2268.2625
2884.88308	2276.8625
2887.38256	2288.7625
2889.88051	2271.9625
2892.37692	2292.2625
2894.8718	2270.1625
2897.36515	2280.6625
2899.85698	2253.6625
2902.34727	2267.3625
2904.83604	2267.1625
2907.32328	2269.7625
2909.809	2272.2625
2912.29319	2249.8625
2914.77587	2258.0625
2917.25702	2272.9625
2919.73665	2265.1625
2922.21476	2270.0625
2924.69136	2275.4625
2927.16644	2252.5625
2929.64	2255.4625
2932.11205	2249.5625
2934.58258	2251.8625
2937.05161	2251.9625
2939.51912	2248.9625
2941.98513	2265.2625
2944.44962	2245.8625
2946.91261	2234.5625
2949.37409	2242.6625
2951.83407	2221.2625
2954.29254	2243.0625
2956.74951	2237.6625
2959.20498	2225.5625
2961.65895	2230.1625
2964.11142	2218.1625
2966.56239	2221.0625
2969.01186	2226.3625
2971.45984	2225.2625
2973.90632	2214.5625
2976.35131	2233.3625
2978.7948	2212.9625
2981.23681	2218.2625
2983.67732	2210.2625
2986.11635	2211.8625
2988.55388	2189.4625
2990.98993	2192.6625
2993.4245	2181.0625
2995.85758	2169.5625
2998.28917	2165.2625
3000.71928	2161.4625
3003.14791	2167.5625
3005.57506	2151.5625
3008.00073	2141.7625
3010.42493	2086.1625
3012.84764	2147.8625
3015.26888	2151.6625
3017.68865	2147.7625
3020.10694	2103.5625
3022.52376	2115.3625
3024.9391	2118.3625
3027.35298	2102.7625
3029.76539	2097.8625
3032.17632	2114.2625
3034.5858	2096.1625
3036.9938	2111.4625
3039.40034	2111.3625
3041.80542	2106.1625
3044.20903	2092.9625
3046.61118	2092.0625
3049.01187	2086.1625
3051.4111	2082.4625
3053.80888	2084.6625
3056.20519	2072.0625
3058.60005	2047.7625
3060.99345	2073.7625
3063.3854	2050.6625
3065.7759	2033.2625
3068.16494	2032.1625
3070.55254	2023.7625
3072.93868	2040.3625
3075.32338	2028.4625
3077.70662	2029.2625
3080.08842	2014.1625
3082.46878	2012.8625
3084.84769	2026.0625
3087.22515	2019.9625
3089.60118	2040.7625
3091.97576	2012.3625
3094.3489	2021.6625
3096.72061	2007.9625
3099.09087	2006.6625
3101.4597	2019.2625
3103.82709	2017.4625
3106.19305	2006.4625
3108.55757	2003.2625
3110.92066	2004.8625
3113.28232	2014.9625
3115.64255	2003.4625
3118.00134	1997.9625
3120.35871	1980.5625
3122.71466	1961.7625
3125.06917	1974.7625
3127.42226	1966.3625
3129.77393	1953.6625
3132.12417	1972.0625
3134.47299	1969.0625
3136.82039	1949.9625
3139.16636	1923.6625
3141.51092	1952.8625
3143.85406	1955.2625
3146.19579	1936.9625
3148.53609	1946.1625
3150.87499	1940.4625
3153.21246	1935.3625
3155.54853	1948.2625
3157.88318	1948.6625
3160.21642	1953.8625
3162.54826	1950.8625
3164.87868	1967.7625
3167.2077	1928.1625
3169.5353	1943.8625
3171.86151	1945.7625
3174.18631	1943.1625
3176.5097	1930.2625
3178.83169	1941.8625
3181.15228	1936.4625
3183.47147	1918.0625
3185.78926	1909.8625
3188.10565	1913.5625
3190.42065	1909.9625
3192.73424	1911.8625
3195.04645	1904.5625
3197.35725	1889.0625
3199.66667	1894.5625
3201.97469	1898.9625
3204.28132	1888.9625
3206.58656	1893.0625
3208.8904	1905.5625
3211.19287	1898.8625
3213.49394	1886.7625
3215.79363	1887.6625
3218.09193	1882.1625
3220.38884	1892.9625
3222.68438	1891.2625
3224.97853	1859.6625
3227.2713	1896.3625
3229.56269	1874.6625
3231.8527	1888.1625
3234.14133	1864.1625
3236.42858	1868.1625
3238.71446	1844.9625
3240.99896	1866.0625
3243.28209	1854.1625
3245.56384	1848.4625
3247.84423	1845.5625
3250.12324	1847.5625
3252.40088	1844.3625
3254.67715	1846.4625
3256.95205	1835.2625
3259.22558	1843.5625
3261.49775	1846.3625
3263.76855	1840.6625
3266.03799	1841.8625
3268.30606	1843.1625
3270.57277	1833.9625
3272.83812	1813.2625
3275.10211	1816.6625
3277.36474	1838.1625
3279.62601	1828.3625
3281.88593	1798.2625
3284.14448	1786.0625
3286.40168	1800.0625
3288.65753	1794.9625
3290.91202	1791.7625
3293.16516	1769.5625
3295.41695	1792.3625
3297.66738	1790.1625
3299.91647	1772.1625
3302.16421	1773.5625
3304.4106	1730.8625
3306.65564	1751.0625
3308.89933	1716.6625
3311.14169	1717.3625
3313.38269	1715.1625
3315.62236	1691.6625
3317.86068	1676.5625
3320.09766	1683.2625
3322.3333	1643.0625
3324.5676	1633.7625
3326.80056	1613.7625
3329.03219	1599.3625
3331.26248	-0.0375
3333.49143	-0.9375
3335.71905	0.9625
