Data from AgNPs_UA_50uM_CRN_500uM_SU_RamanShift__15__13-58-20-317.txt Node

Date: Thu Aug 04 13:58:20 BST 2022
User: TCL
Spectrometer: QEP01345
Trigger mode: 4
Integration Time (sec): 1.000000E0
Scans to average: 10
Electric dark correction enabled: true
Nonlinearity correction enabled: false
Boxcar width: 0
XAxis mode: Raman Shifts
Number of Pixels in Spectrum: 1044
>>>>>Begin Spectral Data<<<<<
46.04893	0
50.45542	-0.6
54.85868	-0.3
59.25871	0.2
63.6555	15.1
68.04907	15.1
72.43941	16.2
76.82654	16.9
81.21044	17.2
85.59113	18.4
89.96862	19
94.34289	19.4
98.71396	20.4
103.08183	19
107.4465	20.2
111.80798	20.9
116.16626	21.7
120.52136	24.6
124.87327	24.7
129.222	26.6
133.56755	30
137.90993	31.1
142.24913	32.2
146.58517	37.7
150.91804	45.2
155.24774	54.2
159.57429	70.3
163.89768	88.2
168.21792	118.4
172.53501	165
176.84895	231.6
181.15975	327.6
185.46741	460.6
189.77193	648.7
194.07331	871.7
198.37157	1126.5
202.6667	1400.4
206.9587	1680.8
211.24758	1946
215.53334	2226.4
219.81599	2566.2
224.09553	2909.6
228.37195	3303.8
232.64527	3712
236.91549	4121.5
241.18261	4461.6
245.44663	4709.9
249.70755	4877.4
253.96539	5013.5
258.22014	5129.2
262.4718	5243.5
266.72039	5326.5
270.96589	5327.6
275.20832	5272.7
279.44768	5163.5
283.68397	5078.7
287.91719	5043.3
292.14735	5043.4
296.37445	5194.3
300.59849	5427
304.81948	5739
309.03742	6056.5
313.25231	6287.1
317.46415	6201.3
321.67296	5889.7
325.87872	5525.5
330.08145	5289.1
334.28114	5272.9
338.47781	5333.7
342.67145	5471.5
346.86207	5689.9
351.04966	5962.1
355.23424	6265.5
359.4158	6456.8
363.59435	6521.7
367.76989	6487.2
371.94243	6387.4
376.11196	6293.8
380.27849	6226.3
384.44203	6173.6
388.60257	6169
392.76012	6197.6
396.91468	6274.3
401.06626	6398.2
405.21485	6427.6
409.36047	6260.2
413.50311	5947.4
417.64277	5674.5
421.77947	5520.6
425.9132	5467.7
430.04396	5473.5
434.17176	5506.5
438.2966	5569.5
442.41849	5683.4
446.53742	5810.7
450.6534	5931.2
454.76644	5970.2
458.87653	5981.8
462.98368	5933.9
467.08789	5878.9
471.18916	5778
475.2875	5639.6
479.38291	5516.1
483.4754	5419.3
487.56496	5378.3
491.6516	5351.6
495.73531	5370
499.81612	5376.8
503.89401	5426.9
507.96899	5471.8
512.04106	5534
516.11023	5613.2
520.1765	5694
524.23987	5708.7
528.30034	5713
532.35792	5684.9
536.41261	5596.6
540.46441	5503.3
544.51333	5464.6
548.55936	5485
552.60252	5607.2
556.64279	5707.2
560.6802	5775.3
564.71473	5871.1
568.7464	6052.6
572.7752	6050.2
576.80114	5810
580.82422	5627.6
584.84444	5513.3
588.86181	5518
592.87633	5543.7
596.888	5649.1
600.89682	5990.9
604.9028	6869.6
608.90594	8817
612.90624	10885.9
616.90371	9946.5
620.89834	7139.7
624.89015	5950.4
628.87913	5776.2
632.86528	5936
636.84862	6043.8
640.82913	5881.4
644.80683	5614.7
648.78172	5468.7
652.75379	5482.4
656.72306	5686
660.68952	5911.3
664.65319	5794
668.61405	5593.7
672.57211	5527
676.52738	5527.2
680.47986	5461.7
684.42955	5364.7
688.37646	5316.4
692.32058	5348.8
696.26192	5425.4
700.20048	5526.3
704.13626	5560.4
708.06928	5503.4
711.99952	5460.1
715.927	5460.2
719.85171	5490
723.77365	5509.5
727.69284	5479.1
731.60928	5421.2
735.52295	5394.4
739.43388	5412.3
743.34206	5462.6
747.24749	5451.8
751.15017	5472
755.05012	5556.8
758.94733	5870
762.8418	6661.5
766.73354	7810.4
770.62254	8668.5
774.50882	8762.5
778.39237	8188.3
782.27321	7311.9
786.15132	6397.9
790.02671	5838.2
793.89938	5570.9
797.76935	5439.5
801.6366	5377.4
805.50115	5338.3
809.36299	5315
813.22213	5320.7
817.07857	5298.8
820.93231	5312.6
824.78336	5323.8
828.63172	5350.3
832.47738	5359.1
836.32036	5345.7
840.16066	5286.1
843.99827	5284.7
847.8332	5271.2
851.66546	5289.2
855.49504	5292.8
859.32195	5298.5
863.1462	5297.6
866.96777	5288
870.78668	5302.8
874.60293	5311.5
878.41652	5340.1
882.22745	5390.7
886.03573	5423.1
889.84136	5393.5
893.64433	5399.8
897.44466	5357.8
901.24235	5354.3
905.0374	5345.4
908.8298	5304.7
912.61957	5295.8
916.40671	5290.1
920.19121	5322.2
923.97308	5376
927.75233	5470.5
931.52895	5494
935.30295	5427.4
939.07433	5292.4
942.84309	5195.1
946.60924	5165.1
950.37278	5135.7
954.13371	5133.9
957.89203	5145.7
961.64774	5130.1
965.40086	5129.7
969.15137	5112.1
972.89929	5102.5
976.64461	5099.1
980.38733	5111.4
984.12747	5118.9
987.86502	5138.1
991.59999	5185.5
995.33237	5226.4
999.06217	5310.6
1002.78939	5425.6
1006.51404	5557.5
1010.23611	5673.1
1013.95561	5694.7
1017.67255	5699.6
1021.38692	5661.4
1025.09872	5533.1
1028.80796	5470.5
1032.51465	5443.8
1036.21877	5446.2
1039.92035	5503.5
1043.61937	5538.9
1047.31584	5564.1
1051.00976	5561.7
1054.70114	5553.8
1058.38998	5532.6
1062.07627	5556.5
1065.76003	5601.4
1069.44126	5698.6
1073.11995	5814.3
1076.79611	5959.7
1080.46974	6102.1
1084.14085	6208.5
1087.80943	6319.6
1091.47549	6361.9
1095.13903	6300.9
1098.80005	6195.7
1102.45857	6059.4
1106.11456	5947.6
1109.76805	5929.7
1113.41903	5969.6
1117.06751	6089.9
1120.71348	6325.9
1124.35696	6626.8
1127.99793	6850.8
1131.63641	6724.9
1135.2724	6387.7
1138.90589	6162.3
1142.5369	6045.1
1146.16542	5988.5
1149.79145	5941.9
1153.415	5838.2
1157.03607	5794.2
1160.65467	5832.5
1164.27079	5959.7
1167.88443	6208.1
1171.49561	6544.3
1175.10432	7112.5
1178.71056	7957.4
1182.31434	8613.2
1185.91565	8766.7
1189.51451	8581.7
1193.11091	8286
1196.70485	7981.1
1200.29634	7785.4
1203.88538	7539.8
1207.47197	7205.1
1211.05612	6923.2
1214.63782	6693
1218.21708	6486.4
1221.79391	6336.5
1225.36829	6235.8
1228.94024	6186.8
1232.50976	6176.3
1236.07685	6167.7
1239.6415	6202
1243.20374	6220.9
1246.76355	6278
1250.32093	6387
1253.8759	6513.9
1257.42845	6784.1
1260.97859	7013.5
1264.52631	7211.2
1268.07163	7324.6
1271.61453	7399.1
1275.15503	7437.8
1278.69312	7434.2
1282.22882	7450
1285.76211	7587.2
1289.29301	7803.9
1292.82151	7997.1
1296.34761	8239.5
1299.87133	8565.9
1303.39266	9172.8
1306.9116	10113
1310.42815	11094.1
1313.94233	11354.4
1317.45412	10731
1320.96354	9818.4
1324.47058	9009.4
1327.97525	8326
1331.47754	7956.6
1334.97747	7872.6
1338.47502	7999.9
1341.97022	8355.6
1345.46305	8968.4
1348.95352	9879.5
1352.44163	10858.4
1355.92738	11987.3
1359.41078	13480.3
1362.89183	14665.5
1366.37053	13995.8
1369.84688	11654.4
1373.32088	9465.5
1376.79254	8257.6
1380.26186	7701
1383.72883	7363.4
1387.19347	7061.9
1390.65578	6793.2
1394.11575	6570
1397.57339	6397.1
1401.0287	6302.1
1404.48168	6256.1
1407.93234	6241.7
1411.38068	6322.2
1414.82669	6405.7
1418.27039	6441.5
1421.71177	6409.1
1425.15083	6339.5
1428.58758	6287.4
1432.02203	6374.6
1435.45416	6422.5
1438.88399	6466.3
1442.31151	6498.7
1445.73673	6559.8
1449.15965	6610.5
1452.58027	6553.9
1455.9986	6485.3
1459.41463	6473.9
1462.82837	6518.4
1466.23982	6670.3
1469.64898	6848.6
1473.05586	6972.9
1476.46045	7011
1479.86276	7084
1483.26279	7194.8
1486.66054	7374.3
1490.05602	7666.3
1493.44922	8111.7
1496.84016	8866
1500.22882	9959.9
1503.61521	11415.7
1506.99934	12879
1510.38121	13781.3
1513.76081	13607.3
1517.13816	12276.9
1520.51324	10613.9
1523.88607	9222.4
1527.25665	8386.2
1530.62498	7969.2
1533.99105	7755.3
1537.35488	7646.5
1540.71647	7567.9
1544.07581	7494.7
1547.4329	7435.6
1550.78776	7317.3
1554.14038	7259.7
1557.49077	7224.3
1560.83892	7326.2
1564.18484	7567.7
1567.52853	7896.1
1570.86999	8145.7
1574.20922	8212.1
1577.54624	8057
1580.88103	7564.7
1584.2136	7044.4
1587.54395	6701.9
1590.87208	6688
1594.19801	6919
1597.52172	7235.2
1600.84321	7386.4
1604.16251	7310.9
1607.47959	7159.8
1610.79447	6895.7
1614.10715	6539.1
1617.41763	6188.3
1620.7259	5928.6
1624.03199	5795.5
1627.33587	5767.1
1630.63757	5836.3
1633.93707	6046.5
1637.23439	6435.5
1640.52951	7091.1
1643.82246	8029.1
1647.11321	9109.8
1650.40179	9720.7
1653.68819	9366.6
1656.97241	8195.2
1660.25446	6953.9
1663.53433	6069.7
1666.81203	5551.2
1670.08756	5257.7
1673.36092	5074.1
1676.63211	4966.3
1679.90115	4874.3
1683.16801	4815.8
1686.43272	4770.5
1689.69527	4713.4
1692.95567	4713
1696.2139	4688.3
1699.46999	4656.7
1702.72392	4670.6
1705.97571	4657.5
1709.22535	4659.7
1712.47284	4646.5
1715.71819	4655.1
1718.96139	4646.8
1722.20246	4651.6
1725.44139	4620.2
1728.67818	4580.9
1731.91284	4537.6
1735.14537	4537.7
1738.37576	4516.9
1741.60403	4483
1744.83017	4485.2
1748.05418	4471.8
1751.27607	4446.4
1754.49584	4439.5
1757.71349	4427.4
1760.92903	4428.9
1764.14244	4424.8
1767.35375	4409.4
1770.56294	4393.2
1773.77002	4384
1776.97499	4360
1780.17785	4347.3
1783.37861	4319
1786.57727	4315.5
1789.77382	4319
1792.96828	4314.2
1796.16064	4307
1799.3509	4305.2
1802.53907	4287.2
1805.72514	4281.4
1808.90913	4258.2
1812.09102	4238.6
1815.27083	4231.1
1818.44856	4232.3
1821.6242	4228.1
1824.79776	4213.3
1827.96924	4203.7
1831.13864	4185
1834.30597	4182.5
1837.47122	4171.5
1840.6344	4178
1843.7955	4162.1
1846.95454	4168.3
1850.11151	4159.1
1853.26642	4145.9
1856.41926	4157.4
1859.57004	4167
1862.71876	4138.2
1865.86542	4137
1869.01003	4144.4
1872.15258	4146.5
1875.29308	4142.9
1878.43152	4115
1881.56792	4122.3
1884.70227	4106.2
1887.83457	4094.4
1890.96482	4096.2
1894.09304	4100.2
1897.21921	4077.2
1900.34335	4085
1903.46544	4056.1
1906.58551	4063.9
1909.70353	4042.5
1912.81953	4052.7
1915.93349	4041.3
1919.04543	4040.3
1922.15534	4029.2
1925.26322	4016.7
1928.36908	4030.6
1931.47292	4009.4
1934.57473	3997.2
1937.67453	3966.5
1940.77232	3969.9
1943.86808	3972.8
1946.96184	3949.3
1950.05358	3948.3
1953.14331	3915.1
1956.23103	3904.8
1959.31675	3903
1962.40046	3897
1965.48217	3885.7
1968.56188	3876.3
1971.63959	3868.4
1974.7153	3849.7
1977.78901	3844.7
1980.86073	3837.2
1983.93046	3829.9
1986.99819	3794.4
1990.06394	3797.4
1993.1277	3777.4
1996.18947	3765.7
1999.24925	3753.6
2002.30706	3739.7
2005.36288	3713.2
2008.41672	3707.6
2011.46859	3697.9
2014.51848	3694.9
2017.56639	3683.2
2020.61233	3684.3
2023.6563	3652.2
2026.6983	3628.3
2029.73833	3616.9
2032.7764	3622.5
2035.8125	3601.1
2038.84664	3604.8
2041.87881	3602.4
2044.90903	3582.4
2047.93729	3581.3
2050.96359	3581.4
2053.98794	3566.2
2057.01034	3566.3
2060.03078	3564.9
2063.04927	3576.8
2066.06582	3563.1
2069.08042	3553.9
2072.09307	3540.4
2075.10378	3528.7
2078.11255	3535.2
2081.11938	3536.2
2084.12426	3551.6
2087.12722	3528
2090.12824	3544.2
2093.12732	3535.7
2096.12447	3548.9
2099.11969	3536.7
2102.11299	3534.3
2105.10435	3538.7
2108.09379	3541.2
2111.08131	3538.7
2114.0669	3546.7
2117.05057	3548.9
2120.03233	3550
2123.01216	3541.7
2125.99008	3552.9
2128.96609	3575.5
2131.94018	3552.3
2134.91236	3547.3
2137.88263	3556.1
2140.851	3539.3
2143.81746	3547.8
2146.78201	3555
2149.74466	3545
2152.7054	3543.7
2155.66425	3543.6
2158.6212	3533
2161.57625	3526
2164.52941	3531
2167.48067	3524
2170.43004	3523.9
2173.37752	3527.3
2176.32311	3528
2179.26681	3535.5
2182.20863	3533.9
2185.14856	3519.9
2188.08661	3519.2
2191.02278	3515.3
2193.95707	3505.8
2196.88948	3504.5
2199.82001	3497.8
2202.74867	3500.8
2205.67545	3502.6
2208.60037	3492.2
2211.52341	3492
2214.44458	3484.7
2217.36388	3474.1
2220.28132	3471.6
2223.1969	3453.2
2226.11061	3439
2229.02246	3441.9
2231.93245	3448.2
2234.84058	3444.4
2237.74686	3426.9
2240.65128	3424.6
2243.55385	3404.4
2246.45456	3413.3
2249.35343	3398.3
2252.25044	3407.3
2255.14561	3407.9
2258.03893	3396.3
2260.93041	3410.3
2263.82004	3395.6
2266.70783	3402
2269.59378	3385.8
2272.4779	3372.9
2275.36017	3362.9
2278.24061	3350.8
2281.11922	3347.6
2283.996	3342.1
2286.87094	3331
2289.74405	3326.1
2292.61534	3332
2295.4848	3319.3
2298.35243	3335.4
2301.21824	3327
2304.08223	3319.7
2306.94439	3312
2309.80474	3317.7
2312.66327	3318.4
2315.51999	3294.4
2318.37489	3293.9
2321.22797	3293.4
2324.07925	3279.9
2326.92871	3267.4
2329.77637	3260.5
2332.62222	3260.5
2335.46626	3243.3
2338.3085	3253.8
2341.14893	3257.1
2343.98756	3258.6
2346.8244	3258.3
2349.65943	3233.4
2352.49267	3241.3
2355.32411	3242.9
2358.15376	3248.3
2360.98161	3256
2363.80768	3262.6
2366.63195	3256.1
2369.45444	3246.5
2372.27514	3253.5
2375.09405	3253.5
2377.91118	3229.3
2380.72652	3238
2383.54009	3207
2386.35187	3212
2389.16188	3208.8
2391.97011	3197.6
2394.77657	3191.5
2397.58125	3176
2400.38416	3161.3
2403.18529	3157.3
2405.98466	3158.6
2408.78226	3165.2
2411.57809	3144.1
2414.37216	3147.7
2417.16446	3132.9
2419.955	3135.2
2422.74378	3139.8
2425.5308	3141.5
2428.31606	3137.9
2431.09956	3137.9
2433.88131	3126.5
2436.6613	3124.1
2439.43954	3124.1
2442.21603	3135.2
2444.99077	3130.1
2447.76377	3129.1
2450.53501	3118.6
2453.30451	3116.8
2456.07226	3127.8
2458.83827	3110.2
2461.60254	3105.2
2464.36507	3105.9
2467.12586	3109.4
2469.88492	3094.6
2472.64224	3103.9
2475.39782	3097.2
2478.15167	3107.7
2480.90379	3102.9
2483.65417	3112.9
2486.40283	3105.5
2489.14976	3120
2491.89497	3110.7
2494.63845	3107.8
2497.3802	3101.4
2500.12024	3094.5
2502.85855	3087.2
2505.59514	3097.6
2508.33002	3081.5
2511.06318	3068.3
2513.79462	3049.1
2516.52435	3046.6
2519.25237	3050.9
2521.97867	3037
2524.70327	3026.2
2527.42616	3022.9
2530.14734	3034.2
2532.86681	3019.5
2535.58458	3028
2538.30065	3027
2541.01501	3024.4
2543.72768	3015
2546.43864	3027.8
2549.14791	3002.1
2551.85548	3011.7
2554.56136	3007.6
2557.26554	3006.7
2559.96803	3001.8
2562.66883	2981.7
2565.36794	2979.4
2568.06536	2975.4
2570.7611	2974
2573.45514	2968
2576.14751	2955.1
2578.83819	2952.2
2581.52719	2925.1
2584.21451	2923.8
2586.90015	2925.4
2589.58411	2928.4
2592.2664	2911.1
2594.94701	2921
2597.62594	2913.5
2600.30321	2907.3
2602.9788	2922.3
2605.65273	2897.2
2608.32498	2904.8
2610.99557	2903.9
2613.66449	2905.3
2616.33175	2887.6
2618.99734	2892.5
2621.66128	2884.5
2624.32355	2887.1
2626.98416	2868
2629.64311	2859.1
2632.30041	2848.7
2634.95605	2854.1
2637.61004	2838.4
2640.26238	2837.7
2642.91306	2831.8
2645.56209	2834.4
2648.20948	2840
2650.85521	2832.2
2653.4993	2831.1
2656.14175	2835.6
2658.78255	2822.4
2661.42171	2832.7
2664.05923	2842.9
2666.6951	2849.2
2669.32934	2837.3
2671.96194	2835.4
2674.59291	2830
2677.22224	2838.7
2679.84993	2836.9
2682.476	2837.5
2685.10043	2827.2
2687.72324	2824.8
2690.34441	2824.8
2692.96396	2831.9
2695.58188	2826.2
2698.19818	2825.4
2700.81285	2832.2
2703.4259	2824.1
2706.03733	2820.4
2708.64714	2820.8
2711.25533	2820.9
2713.86191	2804.7
2716.46687	2821.5
2719.07021	2818.6
2721.67194	2821
2724.27206	2826.5
2726.87057	2823.3
2729.46747	2821.4
2732.06276	2816.1
2734.65644	2815.6
2737.24852	2805.7
2739.83899	2820.2
2742.42786	2802.7
2745.01513	2793.1
2747.60079	2796.1
2750.18486	2793
2752.76733	2792.9
2755.3482	2781.8
2757.92747	2764.3
2760.50515	2766.3
2763.08123	2770.9
2765.65573	2753.1
2768.22863	2740.7
2770.79994	2742
2773.36967	2741.4
2775.9378	2741.1
2778.50435	2753.6
2781.06932	2738.5
2783.6327	2734.6
2786.1945	2728.9
2788.75471	2728.2
2791.31335	2721.4
2793.87041	2708.4
2796.42589	2716.3
2798.97979	2701.8
2801.53212	2709.4
2804.08288	2716.4
2806.63206	2694.1
2809.17967	2688
2811.72571	2683
2814.27018	2689.7
2816.81308	2680.7
2819.35442	2685.8
2821.89419	2677.2
2824.43239	2672.1
2826.96904	2657.7
2829.50412	2649.6
2832.03763	2652.7
2834.56959	2635.3
2837.1	2645
2839.62884	2634.8
2842.15613	2625.6
2844.68186	2618.4
2847.20604	2618
2849.72867	2613.8
2852.24974	2612.8
2854.76927	2611.6
2857.28724	2604.5
2859.80367	2608.2
2862.31855	2601.8
2864.83189	2597.1
2867.34368	2608
2869.85393	2602.1
2872.36264	2597.4
2874.8698	2610.7
2877.37543	2603.3
2879.87952	2591.4
2882.38207	2582.8
2884.88308	2584.4
2887.38256	2572.4
2889.88051	2577.2
2892.37692	2569.7
2894.8718	2565.9
2897.36515	2572.8
2899.85698	2559.5
2902.34727	2583.9
2904.83604	2570.3
2907.32328	2580.5
2909.809	2574.7
2912.29319	2591.1
2914.77587	2575.3
2917.25702	2584.8
2919.73665	2592
2922.21476	2577.4
2924.69136	2573.3
2927.16644	2564.1
2929.64	2569.1
2932.11205	2556.4
2934.58258	2540.8
2937.05161	2558.5
2939.51912	2558.5
2941.98513	2550.6
2944.44962	2551.6
2946.91261	2529.7
2949.37409	2535.7
2951.83407	2539.4
2954.29254	2537.9
2956.74951	2530.1
2959.20498	2536.9
2961.65895	2520.4
2964.11142	2512.7
2966.56239	2504.2
2969.01186	2512.9
2971.45984	2513.8
2973.90632	2510.9
2976.35131	2504.4
2978.7948	2512.8
2981.23681	2503.1
2983.67732	2488.7
2986.11635	2492
2988.55388	2461.2
2990.98993	2465.3
2993.4245	2467.7
2995.85758	2462.7
2998.28917	2460.6
3000.71928	2460.8
3003.14791	2454.4
3005.57506	2450.1
3008.00073	2432.4
3010.42493	2431.4
3012.84764	2433.5
3015.26888	2423.2
3017.68865	2415.8
3020.10694	2419.1
3022.52376	2408
3024.9391	2398.7
3027.35298	2394.4
3029.76539	2391.8
3032.17632	2389.9
3034.5858	2367
3036.9938	2367.9
3039.40034	2365.1
3041.80542	2349.9
3044.20903	2356
3046.61118	2357.5
3049.01187	2349.7
3051.4111	2347.7
3053.80888	2329.3
3056.20519	2332.7
3058.60005	2334.1
3060.99345	2334.1
3063.3854	2329.6
3065.7759	2315.9
3068.16494	2312
3070.55254	2314.6
3072.93868	2287.3
3075.32338	2283.4
3077.70662	2278.3
3080.08842	2276.5
3082.46878	2269.5
3084.84769	2272.9
3087.22515	2263.6
3089.60118	2267.1
3091.97576	2256.9
3094.3489	2257.4
3096.72061	2255.4
3099.09087	2264.1
3101.4597	2253.2
3103.82709	2253.2
3106.19305	2239
3108.55757	2241.9
3110.92066	2232.6
3113.28232	2244.6
3115.64255	2228.1
3118.00134	2227.4
3120.35871	2227.1
3122.71466	2208
3125.06917	2206.4
3127.42226	2204.1
3129.77393	2226
3132.12417	2194.4
3134.47299	2202.6
3136.82039	2195.3
3139.16636	2195
3141.51092	2191.7
3143.85406	2184.2
3146.19579	2183.1
3148.53609	2182.8
3150.87499	2198.6
3153.21246	2190.3
3155.54853	2206.9
3157.88318	2193.5
3160.21642	2192.3
3162.54826	2194.4
3164.87868	2194.4
3167.2077	2171.9
3169.5353	2175.7
3171.86151	2163.1
3174.18631	2165.3
3176.5097	2184.3
3178.83169	2169.8
3181.15228	2156.6
3183.47147	2154.4
3185.78926	2149.4
3188.10565	2148
3190.42065	2132.1
3192.73424	2146.1
3195.04645	2118.2
3197.35725	2130.2
3199.66667	2124.1
3201.97469	2134.4
3204.28132	2131.7
3206.58656	2128.7
3208.8904	2126.2
3211.19287	2134.6
3213.49394	2128.9
3215.79363	2138.7
3218.09193	2135.8
3220.38884	2132.7
3222.68438	2123.2
3224.97853	2121.7
3227.2713	2119.9
3229.56269	2112.2
3231.8527	2111.5
3234.14133	2108.9
3236.42858	2094
3238.71446	2099
3240.99896	2091.1
3243.28209	2084.2
3245.56384	2086
3247.84423	2085.4
3250.12324	2080.8
3252.40088	2076.5
3254.67715	2069.5
3256.95205	2076
3259.22558	2070.3
3261.49775	2071.4
3263.76855	2065.4
3266.03799	2065
3268.30606	2063
3270.57277	2064.3
3272.83812	2053.4
3275.10211	2045.6
3277.36474	2039
3279.62601	2045.3
3281.88593	2033.7
3284.14448	2021.2
3286.40168	2035.1
3288.65753	2033.7
3290.91202	2038.9
3293.16516	2032.3
3295.41695	2038.6
3297.66738	2024.9
3299.91647	1998.6
3302.16421	1985.1
3304.4106	1981.7
3306.65564	1968.7
3308.89933	1955.2
3311.14169	1943.1
3313.38269	1920.5
3315.62236	1913.3
3317.86068	1904.2
3320.09766	1881.4
3322.3333	1858.9
3324.5676	1849.9
3326.80056	1827.1
3329.03219	1811.1
3331.26248	0
3333.49143	0.3
3335.71905	-0.4
