Data from AgNPs_UA_50uM_CRN_500uM_SU_RamanShift__52__14-04-30-324.txt Node

Date: Thu Aug 04 14:04:30 BST 2022
User: TCL
Spectrometer: QEP01345
Trigger mode: 4
Integration Time (sec): 1.000000E0
Scans to average: 10
Electric dark correction enabled: true
Nonlinearity correction enabled: false
Boxcar width: 0
XAxis mode: Raman Shifts
Number of Pixels in Spectrum: 1044
>>>>>Begin Spectral Data<<<<<
46.04893	1.4
50.45542	-0.5
54.85868	-0.4
59.25871	-0.7
63.6555	18.5
68.04907	16.4
72.43941	19
76.82654	20.7
81.21044	20.3
85.59113	21.3
89.96862	22.3
94.34289	23.6
98.71396	23.7
103.08183	23.8
107.4465	23.3
111.80798	24.7
116.16626	26.2
120.52136	28.9
124.87327	29.1
129.222	32.4
133.56755	34
137.90993	36.8
142.24913	39.2
146.58517	46.8
150.91804	53.3
155.24774	64.3
159.57429	82.7
163.89768	107.6
168.21792	146
172.53501	202.1
176.84895	288.3
181.15975	408.7
185.46741	579.7
189.77193	798.7
194.07331	1071.2
198.37157	1394.1
202.6667	1730.5
206.9587	2067.5
211.24758	2385.9
215.53334	2757.1
219.81599	3123.8
224.09553	3532.9
228.37195	3989.8
232.64527	4485.1
236.91549	4958.3
241.18261	5368.6
245.44663	5691.4
249.70755	5918.1
253.96539	6131
258.22014	6307.7
262.4718	6503.8
266.72039	6612.6
270.96589	6637
275.20832	6596.4
279.44768	6507.7
283.68397	6380
287.91719	6324.9
292.14735	6315.4
296.37445	6443.4
300.59849	6672
304.81948	6992.7
309.03742	7300.8
313.25231	7471.2
317.46415	7369.1
321.67296	7026.8
325.87872	6686.5
330.08145	6462.9
334.28114	6463.1
338.47781	6529.9
342.67145	6679.3
346.86207	6913.7
351.04966	7253.1
355.23424	7551.3
359.4158	7774
363.59435	7867.4
367.76989	7828.4
371.94243	7778.1
376.11196	7746.4
380.27849	7673.7
384.44203	7661.6
388.60257	7671.5
392.76012	7742.5
396.91468	7797.2
401.06626	7967.7
405.21485	8008.8
409.36047	7858.8
413.50311	7541.6
417.64277	7245.3
421.77947	7075.4
425.9132	6979.9
430.04396	6979.3
434.17176	6996.6
438.2966	7079.3
442.41849	7219
446.53742	7390.2
450.6534	7493.2
454.76644	7632.5
458.87653	7655.4
462.98368	7641.3
467.08789	7600.6
471.18916	7456.3
475.2875	7281.8
479.38291	7138.2
483.4754	7044.2
487.56496	6991.4
491.6516	6960
495.73531	6939.6
499.81612	6947.7
503.89401	7000.5
507.96899	7059.5
512.04106	7129.3
516.11023	7183.1
520.1765	7267
524.23987	7260.4
528.30034	7238.8
532.35792	7210.4
536.41261	7161.1
540.46441	7052.7
544.51333	7013.6
548.55936	7049.2
552.60252	7168.5
556.64279	7295.5
560.6802	7420.3
564.71473	7542
568.7464	7672.3
572.7752	7624.2
576.80114	7376.8
580.82422	7148.5
584.84444	7044.8
588.86181	7020.6
592.87633	7109.3
596.888	7255.6
600.89682	7647.2
604.9028	8664.5
608.90594	10890.9
612.90624	13165.9
616.90371	12009.9
620.89834	8918.1
624.89015	7655.3
628.87913	7515.2
632.86528	7671.9
636.84862	7754.6
640.82913	7536
644.80683	7190.6
648.78172	7004.5
652.75379	7029.2
656.72306	7298.2
660.68952	7592.5
664.65319	7501.9
668.61405	7339
672.57211	7360.7
676.52738	7342.7
680.47986	7168.3
684.42955	7002.4
688.37646	6966.4
692.32058	7032.8
696.26192	7179.7
700.20048	7312.2
704.13626	7331.4
708.06928	7249.6
711.99952	7144.5
715.927	7154
719.85171	7179.3
723.77365	7218.4
727.69284	7161.5
731.60928	7073.3
735.52295	7049.8
739.43388	7062.4
743.34206	7108.1
747.24749	7112.8
751.15017	7130.7
755.05012	7200.8
758.94733	7533.7
762.8418	8351.2
766.73354	9545
770.62254	10442.4
774.50882	10591.2
778.39237	10142.4
782.27321	9268.7
786.15132	8321.2
790.02671	7651.2
793.89938	7308.7
797.76935	7172.9
801.6366	7069.7
805.50115	7034.7
809.36299	7001.3
813.22213	6969.1
817.07857	6974.5
820.93231	6981.7
824.78336	7015.3
828.63172	7008.5
832.47738	7029.8
836.32036	7001.4
840.16066	6980.7
843.99827	6955
847.8332	6951.9
851.66546	6929.4
855.49504	6954.7
859.32195	6970.4
863.1462	6959.3
866.96777	6951.4
870.78668	6948.2
874.60293	6987.3
878.41652	7007.5
882.22745	7057.2
886.03573	7097.5
889.84136	7079
893.64433	7045.5
897.44466	7022.6
901.24235	7027.2
905.0374	6979.2
908.8298	6947
912.61957	6950.1
916.40671	6942.3
920.19121	6975.7
923.97308	7036.2
927.75233	7124.4
931.52895	7180.1
935.30295	7111.6
939.07433	6968.3
942.84309	6848.7
946.60924	6822.1
950.37278	6797.4
954.13371	6777.1
957.89203	6783.5
961.64774	6776.9
965.40086	6771.1
969.15137	6732.6
972.89929	6724.6
976.64461	6733.9
980.38733	6740.3
984.12747	6750.8
987.86502	6776.3
991.59999	6830.4
995.33237	6892.7
999.06217	6994.5
1002.78939	7114.2
1006.51404	7257.1
1010.23611	7361.4
1013.95561	7437.6
1017.67255	7443.4
1021.38692	7418.3
1025.09872	7324.8
1028.80796	7289.5
1032.51465	7296.6
1036.21877	7330.1
1039.92035	7382.2
1043.61937	7376.2
1047.31584	7372.1
1051.00976	7348.4
1054.70114	7356.7
1058.38998	7350.7
1062.07627	7395.5
1065.76003	7438.3
1069.44126	7546
1073.11995	7664.2
1076.79611	7821.9
1080.46974	7966.4
1084.14085	8106.7
1087.80943	8215.9
1091.47549	8230.6
1095.13903	8167.4
1098.80005	8104.9
1102.45857	8103.8
1106.11456	8065.9
1109.76805	7989.9
1113.41903	8019.4
1117.06751	8128.8
1120.71348	8352.6
1124.35696	8628.1
1127.99793	8774.5
1131.63641	8572.1
1135.2724	8248.7
1138.90589	7986.2
1142.5369	7812.8
1146.16542	7711.7
1149.79145	7633.8
1153.415	7575.3
1157.03607	7535.2
1160.65467	7603.3
1164.27079	7798.1
1167.88443	8045.7
1171.49561	8474.8
1175.10432	9126.2
1178.71056	10030.8
1182.31434	10774.5
1185.91565	10993.1
1189.51451	10822.5
1193.11091	10495.7
1196.70485	10095.2
1200.29634	9799.6
1203.88538	9459
1207.47197	9039
1211.05612	8667.7
1214.63782	8360.9
1218.21708	8140.4
1221.79391	8027.8
1225.36829	7985
1228.94024	7964.1
1232.50976	7973.1
1236.07685	7979.2
1239.6415	7985.9
1243.20374	8041
1246.76355	8091.5
1250.32093	8165.7
1253.8759	8327.2
1257.42845	8574
1260.97859	8868.9
1264.52631	9125.2
1268.07163	9324.3
1271.61453	9440.2
1275.15503	9472
1278.69312	9453.3
1282.22882	9493.4
1285.76211	9648
1289.29301	9843.4
1292.82151	10053.5
1296.34761	10300.3
1299.87133	10708.2
1303.39266	11429.5
1306.9116	12500.6
1310.42815	13641.9
1313.94233	14006.6
1317.45412	13351.7
1320.96354	12354.1
1324.47058	11465.7
1327.97525	10720.9
1331.47754	10274.4
1334.97747	10148.9
1338.47502	10328.5
1341.97022	10710.8
1345.46305	11400.9
1348.95352	12349.1
1352.44163	13443.3
1355.92738	14655
1359.41078	16156.1
1362.89183	17279.3
1366.37053	16404
1369.84688	13830.9
1373.32088	11569.7
1376.79254	10311.6
1380.26186	9709.3
1383.72883	9360.7
1387.19347	9025.3
1390.65578	8685
1394.11575	8394.7
1397.57339	8189.6
1401.0287	8093.5
1404.48168	8037.3
1407.93234	8102.1
1411.38068	8276.7
1414.82669	8419.6
1418.27039	8511.7
1421.71177	8505.5
1425.15083	8411.5
1428.58758	8357.3
1432.02203	8414
1435.45416	8492.8
1438.88399	8479.8
1442.31151	8436.6
1445.73673	8443
1449.15965	8430.2
1452.58027	8383.3
1455.9986	8279.8
1459.41463	8232.5
1462.82837	8312.8
1466.23982	8463.4
1469.64898	8632.5
1473.05586	8767.4
1476.46045	8868.7
1479.86276	8960
1483.26279	9135.9
1486.66054	9342
1490.05602	9675.5
1493.44922	10219.3
1496.84016	11028.3
1500.22882	12210.7
1503.61521	13692
1506.99934	15197
1510.38121	16123.4
1513.76081	15952.9
1517.13816	14592.9
1520.51324	12771.2
1523.88607	11225.7
1527.25665	10264.6
1530.62498	9750.2
1533.99105	9475
1537.35488	9313.8
1540.71647	9186.9
1544.07581	9122.6
1547.4329	8999.1
1550.78776	8919.2
1554.14038	8909.9
1557.49077	8963.1
1560.83892	9140.8
1564.18484	9434.7
1567.52853	9754.8
1570.86999	9977.6
1574.20922	10032.1
1577.54624	9823.6
1580.88103	9333.7
1584.2136	8759.7
1587.54395	8447.1
1590.87208	8487.7
1594.19801	8828.1
1597.52172	9199.1
1600.84321	9357.4
1604.16251	9225.7
1607.47959	9009.3
1610.79447	8682.2
1614.10715	8269.8
1617.41763	7831.7
1620.7259	7573.1
1624.03199	7424
1627.33587	7391.6
1630.63757	7530.3
1633.93707	7812.8
1637.23439	8350.9
1640.52951	9228
1643.82246	10448.7
1647.11321	11753.1
1650.40179	12347.2
1653.68819	11706.8
1656.97241	10216.2
1660.25446	8732.1
1663.53433	7745.2
1666.81203	7134.4
1670.08756	6805.5
1673.36092	6579.4
1676.63211	6439.2
1679.90115	6367.3
1683.16801	6277.8
1686.43272	6210.6
1689.69527	6162.5
1692.95567	6130.5
1696.2139	6116.6
1699.46999	6090.5
1702.72392	6104.2
1705.97571	6092.2
1709.22535	6085.9
1712.47284	6092.7
1715.71819	6096
1718.96139	6075.7
1722.20246	6066
1725.44139	6042.2
1728.67818	5971
1731.91284	5933.4
1735.14537	5900.3
1738.37576	5884.8
1741.60403	5873.9
1744.83017	5865.2
1748.05418	5846.3
1751.27607	5831
1754.49584	5793.9
1757.71349	5793.1
1760.92903	5804.2
1764.14244	5777.9
1767.35375	5769.5
1770.56294	5761.3
1773.77002	5741.7
1776.97499	5712.7
1780.17785	5684.1
1783.37861	5680.9
1786.57727	5663.9
1789.77382	5658.4
1792.96828	5632.5
1796.16064	5633.7
1799.3509	5620.2
1802.53907	5620.5
1805.72514	5598.1
1808.90913	5573.6
1812.09102	5569.8
1815.27083	5553.5
1818.44856	5529.4
1821.6242	5532.2
1824.79776	5516.9
1827.96924	5491.6
1831.13864	5470.2
1834.30597	5467.9
1837.47122	5459.1
1840.6344	5445
1843.7955	5469
1846.95454	5435.9
1850.11151	5439.7
1853.26642	5437.9
1856.41926	5429.7
1859.57004	5433.9
1862.71876	5413.2
1865.86542	5420.7
1869.01003	5411.3
1872.15258	5395.5
1875.29308	5401.6
1878.43152	5388.5
1881.56792	5395
1884.70227	5385.1
1887.83457	5379.6
1890.96482	5356.2
1894.09304	5340.3
1897.21921	5337.4
1900.34335	5326.8
1903.46544	5302.3
1906.58551	5299.9
1909.70353	5282.5
1912.81953	5282
1915.93349	5281.5
1919.04543	5266
1922.15534	5238.3
1925.26322	5238.7
1928.36908	5232.8
1931.47292	5236.9
1934.57473	5200.7
1937.67453	5190.4
1940.77232	5165.9
1943.86808	5157.9
1946.96184	5137.3
1950.05358	5141
1953.14331	5115.2
1956.23103	5102.9
1959.31675	5072.4
1962.40046	5070.7
1965.48217	5047.1
1968.56188	5035.9
1971.63959	5018.5
1974.7153	5017.1
1977.78901	5007.3
1980.86073	4982.2
1983.93046	4966.7
1986.99819	4949
1990.06394	4926.9
1993.1277	4906.7
1996.18947	4880.5
1999.24925	4874.1
2002.30706	4859.4
2005.36288	4824
2008.41672	4807.7
2011.46859	4797
2014.51848	4795.1
2017.56639	4788.8
2020.61233	4762.8
2023.6563	4729.8
2026.6983	4723
2029.73833	4700.1
2032.7764	4700.1
2035.8125	4674.7
2038.84664	4690.5
2041.87881	4674.1
2044.90903	4657.6
2047.93729	4652.4
2050.96359	4642
2053.98794	4635.8
2057.01034	4616.7
2060.03078	4619.5
2063.04927	4622.5
2066.06582	4614.9
2069.08042	4615.6
2072.09307	4581.2
2075.10378	4582.8
2078.11255	4580.1
2081.11938	4585
2084.12426	4569.4
2087.12722	4586.1
2090.12824	4573.7
2093.12732	4575.1
2096.12447	4578.1
2099.11969	4585.1
2102.11299	4577.9
2105.10435	4571.7
2108.09379	4573.5
2111.08131	4579.2
2114.0669	4561.6
2117.05057	4580.4
2120.03233	4585.5
2123.01216	4578.8
2125.99008	4585.1
2128.96609	4587.3
2131.94018	4586.2
2134.91236	4573.7
2137.88263	4587.1
2140.851	4571.5
2143.81746	4586.2
2146.78201	4574.8
2149.74466	4587.2
2152.7054	4566.8
2155.66425	4558.1
2158.6212	4568.7
2161.57625	4552.3
2164.52941	4556.8
2167.48067	4545.6
2170.43004	4557.9
2173.37752	4527.7
2176.32311	4539.7
2179.26681	4553.7
2182.20863	4545.6
2185.14856	4535.5
2188.08661	4536.8
2191.02278	4532.3
2193.95707	4522.2
2196.88948	4518.9
2199.82001	4503.7
2202.74867	4519.9
2205.67545	4487.1
2208.60037	4490.4
2211.52341	4496.1
2214.44458	4485.7
2217.36388	4482.5
2220.28132	4455.5
2223.1969	4435.2
2226.11061	4429.6
2229.02246	4414.1
2231.93245	4416.8
2234.84058	4404.1
2237.74686	4399.9
2240.65128	4403.6
2243.55385	4389
2246.45456	4384.3
2249.35343	4385.7
2252.25044	4375.5
2255.14561	4371.4
2258.03893	4355.1
2260.93041	4368.2
2263.82004	4360.3
2266.70783	4354.1
2269.59378	4335.9
2272.4779	4320.2
2275.36017	4291
2278.24061	4286.4
2281.11922	4264.1
2283.996	4264.7
2286.87094	4253.9
2289.74405	4268.6
2292.61534	4262.7
2295.4848	4244.1
2298.35243	4253.7
2301.21824	4249.4
2304.08223	4221.4
2306.94439	4226.7
2309.80474	4234.5
2312.66327	4224.5
2315.51999	4218.9
2318.37489	4223.8
2321.22797	4213.5
2324.07925	4203.5
2326.92871	4188.3
2329.77637	4170.6
2332.62222	4155.6
2335.46626	4138.6
2338.3085	4146.7
2341.14893	4162.9
2343.98756	4144.1
2346.8244	4148.5
2349.65943	4155.3
2352.49267	4135.2
2355.32411	4149.4
2358.15376	4139.9
2360.98161	4140.6
2363.80768	4161.1
2366.63195	4139.1
2369.45444	4133.2
2372.27514	4136.2
2375.09405	4127.6
2377.91118	4135.1
2380.72652	4110.1
2383.54009	4084.5
2386.35187	4066.2
2389.16188	4070.6
2391.97011	4065.6
2394.77657	4043.6
2397.58125	4011.5
2400.38416	4006.3
2403.18529	4024
2405.98466	4011.9
2408.78226	4008.3
2411.57809	3986.4
2414.37216	3992.7
2417.16446	3975
2419.955	3984.2
2422.74378	3980.3
2425.5308	3969.2
2428.31606	3971.5
2431.09956	3974.8
2433.88131	3947.8
2436.6613	3966.1
2439.43954	3949.7
2442.21603	3956.3
2444.99077	3952.1
2447.76377	3946.4
2450.53501	3925
2453.30451	3945.7
2456.07226	3944.4
2458.83827	3931.3
2461.60254	3937
2464.36507	3922.3
2467.12586	3919.1
2469.88492	3918.2
2472.64224	3921.3
2475.39782	3909.7
2478.15167	3905.5
2480.90379	3905.5
2483.65417	3903.2
2486.40283	3911.8
2489.14976	3907.3
2491.89497	3905.3
2494.63845	3919.2
2497.3802	3902.4
2500.12024	3888.3
2502.85855	3898.5
2505.59514	3881.6
2508.33002	3877
2511.06318	3869.9
2513.79462	3856.7
2516.52435	3834.7
2519.25237	3833.4
2521.97867	3810.7
2524.70327	3809.4
2527.42616	3814.5
2530.14734	3816.5
2532.86681	3791.1
2535.58458	3820.6
2538.30065	3801.1
2541.01501	3805.7
2543.72768	3788.3
2546.43864	3791.7
2549.14791	3764.1
2551.85548	3764.4
2554.56136	3771.4
2557.26554	3758.6
2559.96803	3757
2562.66883	3740.7
2565.36794	3748.9
2568.06536	3732.8
2570.7611	3713.1
2573.45514	3721.4
2576.14751	3699
2578.83819	3694
2581.52719	3696.5
2584.21451	3675.9
2586.90015	3683.2
2589.58411	3669.3
2592.2664	3659.7
2594.94701	3673.4
2597.62594	3653.8
2600.30321	3654.7
2602.9788	3639.9
2605.65273	3641.8
2608.32498	3645
2610.99557	3638.6
2613.66449	3635.7
2616.33175	3628.6
2618.99734	3628.6
2621.66128	3623.7
2624.32355	3614.7
2626.98416	3590.6
2629.64311	3611.3
2632.30041	3593.9
2634.95605	3581.3
2637.61004	3570.9
2640.26238	3557.1
2642.91306	3555
2645.56209	3561.5
2648.20948	3565.8
2650.85521	3553.7
2653.4993	3542.6
2656.14175	3550.4
2658.78255	3539.8
2661.42171	3551.4
2664.05923	3561.8
2666.6951	3550.7
2669.32934	3554.8
2671.96194	3541.3
2674.59291	3559.5
2677.22224	3539
2679.84993	3544.9
2682.476	3535.7
2685.10043	3536.5
2687.72324	3529.6
2690.34441	3535.8
2692.96396	3512.3
2695.58188	3526.7
2698.19818	3521.1
2700.81285	3526.8
2703.4259	3526.9
2706.03733	3527.4
2708.64714	3534.9
2711.25533	3509.7
2713.86191	3512.5
2716.46687	3506.8
2719.07021	3519.7
2721.67194	3514.5
2724.27206	3506.7
2726.87057	3500.7
2729.46747	3507.9
2732.06276	3498.3
2734.65644	3498.8
2737.24852	3510.5
2739.83899	3484
2742.42786	3493.1
2745.01513	3485.9
2747.60079	3482.9
2750.18486	3485.5
2752.76733	3469.1
2755.3482	3449.4
2757.92747	3448.6
2760.50515	3446
2763.08123	3432.1
2765.65573	3427.5
2768.22863	3418.1
2770.79994	3410.9
2773.36967	3421.6
2775.9378	3420.9
2778.50435	3412.1
2781.06932	3398.6
2783.6327	3402.8
2786.1945	3394.4
2788.75471	3389.6
2791.31335	3380.5
2793.87041	3395.3
2796.42589	3381.2
2798.97979	3379.9
2801.53212	3357.6
2804.08288	3361.3
2806.63206	3351.9
2809.17967	3334
2811.72571	3325.8
2814.27018	3326.2
2816.81308	3334.4
2819.35442	3318.7
2821.89419	3303.1
2824.43239	3306.3
2826.96904	3306.9
2829.50412	3294.2
2832.03763	3287.2
2834.56959	3284.4
2837.1	3264.3
2839.62884	3252.9
2842.15613	3266.2
2844.68186	3254.7
2847.20604	3254.2
2849.72867	3252.7
2852.24974	3244.2
2854.76927	3241
2857.28724	3234.9
2859.80367	3227.2
2862.31855	3227.8
2864.83189	3246.2
2867.34368	3230.8
2869.85393	3234.9
2872.36264	3215.7
2874.8698	3216
2877.37543	3223
2879.87952	3219.1
2882.38207	3204.6
2884.88308	3200.9
2887.38256	3190.5
2889.88051	3176.8
2892.37692	3180.8
2894.8718	3173.6
2897.36515	3161.4
2899.85698	3172
2902.34727	3178.3
2904.83604	3184.5
2907.32328	3182.2
2909.809	3188.8
2912.29319	3189.9
2914.77587	3195.6
2917.25702	3198.4
2919.73665	3187.7
2922.21476	3202.6
2924.69136	3184
2927.16644	3169.5
2929.64	3170.1
2932.11205	3165.3
2934.58258	3156.1
2937.05161	3155.5
2939.51912	3146.2
2941.98513	3139.3
2944.44962	3131.1
2946.91261	3137.1
2949.37409	3125.6
2951.83407	3140.2
2954.29254	3140.1
2956.74951	3124.2
2959.20498	3125.9
2961.65895	3107.6
2964.11142	3102.8
2966.56239	3108.1
2969.01186	3109.2
2971.45984	3101.2
2973.90632	3108
2976.35131	3098.6
2978.7948	3091
2981.23681	3089
2983.67732	3077.2
2986.11635	3074.8
2988.55388	3053.3
2990.98993	3073
2993.4245	3048.1
2995.85758	3046.5
2998.28917	3045.6
3000.71928	3048.1
3003.14791	3025.6
3005.57506	3013.8
3008.00073	3002.9
3010.42493	3001.3
3012.84764	2997.2
3015.26888	2994.8
3017.68865	2990
3020.10694	2967.7
3022.52376	2970.6
3024.9391	2952.4
3027.35298	2934.7
3029.76539	2939.4
3032.17632	2944
3034.5858	2934.3
3036.9938	2920.7
3039.40034	2918.5
3041.80542	2903.8
3044.20903	2888.9
3046.61118	2892.1
3049.01187	2892
3051.4111	2891.5
3053.80888	2882.7
3056.20519	2879.6
3058.60005	2865.5
3060.99345	2877.7
3063.3854	2855.8
3065.7759	2850.7
3068.16494	2842.5
3070.55254	2834.3
3072.93868	2811.9
3075.32338	2819.9
3077.70662	2806.2
3080.08842	2802.1
3082.46878	2799.3
3084.84769	2791.4
3087.22515	2786.1
3089.60118	2786.5
3091.97576	2781.2
3094.3489	2781.6
3096.72061	2774.7
3099.09087	2774.8
3101.4597	2771.8
3103.82709	2754.3
3106.19305	2741.9
3108.55757	2742
3110.92066	2746.1
3113.28232	2745.5
3115.64255	2729.4
3118.00134	2736.4
3120.35871	2725.6
3122.71466	2712.5
3125.06917	2712.7
3127.42226	2700.2
3129.77393	2720.1
3132.12417	2708.3
3134.47299	2707.4
3136.82039	2698.2
3139.16636	2698
3141.51092	2678.6
3143.85406	2689.4
3146.19579	2682.1
3148.53609	2678.2
3150.87499	2669.8
3153.21246	2675.1
3155.54853	2690.9
3157.88318	2667.3
3160.21642	2685.7
3162.54826	2677.1
3164.87868	2686.9
3167.2077	2661
3169.5353	2658.3
3171.86151	2658.4
3174.18631	2654.4
3176.5097	2659.7
3178.83169	2648.3
3181.15228	2658.5
3183.47147	2640.1
3185.78926	2634.9
3188.10565	2617
3190.42065	2619.3
3192.73424	2612.3
3195.04645	2607.1
3197.35725	2600.3
3199.66667	2609
3201.97469	2606.1
3204.28132	2593.3
3206.58656	2601.2
3208.8904	2586.8
3211.19287	2608.5
3213.49394	2605.9
3215.79363	2598.4
3218.09193	2595.4
3220.38884	2601.9
3222.68438	2606
3224.97853	2592.3
3227.2713	2592.8
3229.56269	2572.5
3231.8527	2581.3
3234.14133	2565.2
3236.42858	2569.1
3238.71446	2558.2
3240.99896	2545.2
3243.28209	2550.1
3245.56384	2538.1
3247.84423	2533.2
3250.12324	2530.7
3252.40088	2542.8
3254.67715	2514
3256.95205	2522.6
3259.22558	2531.8
3261.49775	2520.2
3263.76855	2522.6
3266.03799	2507.7
3268.30606	2507.8
3270.57277	2510.6
3272.83812	2505.8
3275.10211	2495.5
3277.36474	2494.8
3279.62601	2473.9
3281.88593	2476.1
3284.14448	2480.9
3286.40168	2478.2
3288.65753	2470.4
3290.91202	2469.4
3293.16516	2475.4
3295.41695	2474.2
3297.66738	2464.4
3299.91647	2439.7
3302.16421	2415.3
3304.4106	2402.1
3306.65564	2395.1
3308.89933	2366
3311.14169	2365.5
3313.38269	2335.1
3315.62236	2333.8
3317.86068	2303
3320.09766	2281.6
3322.3333	2268.2
3324.5676	2267
3326.80056	2218.4
3329.03219	2208.4
3331.26248	1.1
3333.49143	-0.8
3335.71905	-0.7
