Data from AgNPs_UA_5uM_CRN_500uM_SU_RamanShift__208__12-04-03-181.txt Node

Date: Thu Aug 04 12:04:03 BST 2022
User: TCL
Spectrometer: QEP01345
Trigger mode: 4
Integration Time (sec): 1.000000E0
Scans to average: 10
Electric dark correction enabled: true
Nonlinearity correction enabled: false
Boxcar width: 0
XAxis mode: Raman Shifts
Number of Pixels in Spectrum: 1044
>>>>>Begin Spectral Data<<<<<
46.04893	0.9625
50.45542	-0.2375
54.85868	0.6625
59.25871	-0.4375
63.6555	-57.7375
68.04907	-39.5375
72.43941	-70.1375
76.82654	-56.5375
81.21044	-55.2375
85.59113	-50.6375
89.96862	-73.9375
94.34289	-55.0375
98.71396	-76.6375
103.08183	-58.0375
107.4465	-47.7375
111.80798	-56.9375
116.16626	-45.8375
120.52136	-74.4375
124.87327	-49.7375
129.222	-62.6375
133.56755	-50.4375
137.90993	-61.3375
142.24913	-50.3375
146.58517	-43.0375
150.91804	-38.9375
155.24774	-29.9375
159.57429	-9.1375
163.89768	-6.3375
168.21792	36.3625
172.53501	55.6625
176.84895	139.2625
181.15975	269.6625
185.46741	414.1625
189.77193	601.9625
194.07331	886.6625
198.37157	1169.6625
202.6667	1447.0625
206.9587	1763.5625
211.24758	2084.8625
215.53334	2399.6625
219.81599	2751.4625
224.09553	3153.5625
228.37195	3587.8625
232.64527	4040.4625
236.91549	4512.8625
241.18261	4866.5625
245.44663	5130.6625
249.70755	5294.5625
253.96539	5439.8625
258.22014	5525.6625
262.4718	5613.8625
266.72039	5619.7625
270.96589	5610.3625
275.20832	5520.1625
279.44768	5420.0625
283.68397	5295.5625
287.91719	5234.3625
292.14735	5281.8625
296.37445	5447.5625
300.59849	5741.1625
304.81948	6086.8625
309.03742	6457.8625
313.25231	6678.3625
317.46415	6634.4625
321.67296	6263.7625
325.87872	5846.3625
330.08145	5648.1625
334.28114	5620.5625
338.47781	5690.1625
342.67145	5803.5625
346.86207	6044.9625
351.04966	6425.7625
355.23424	6801.5625
359.4158	7062.4625
363.59435	7102.2625
367.76989	7045.6625
371.94243	6900.8625
376.11196	6788.2625
380.27849	6704.4625
384.44203	6627.1625
388.60257	6602.8625
392.76012	6619.9625
396.91468	6722.7625
401.06626	6883.9625
405.21485	6912.2625
409.36047	6750.2625
413.50311	6432.8625
417.64277	6125.5625
421.77947	5924.1625
425.9132	5880.7625
430.04396	5864.1625
434.17176	5903.9625
438.2966	5972.6625
442.41849	6069.8625
446.53742	6172.8625
450.6534	6292.4625
454.76644	6348.8625
458.87653	6352.4625
462.98368	6309.1625
467.08789	6268.6625
471.18916	6157.5625
475.2875	6042.6625
479.38291	5940.1625
483.4754	5847.1625
487.56496	5812.0625
491.6516	5779.4625
495.73531	5780.5625
499.81612	5810.8625
503.89401	5911.0625
507.96899	5950.6625
512.04106	6039.9625
516.11023	6151.9625
520.1765	6219.0625
524.23987	6275.3625
528.30034	6256.5625
532.35792	6177.6625
536.41261	6131.2625
540.46441	6012.1625
544.51333	5964.1625
548.55936	6031.3625
552.60252	6146.0625
556.64279	6230.2625
560.6802	6360.4625
564.71473	6507.9625
568.7464	6701.0625
572.7752	6674.6625
576.80114	6356.0625
580.82422	6119.4625
584.84444	6021.0625
588.86181	6011.3625
592.87633	6042.5625
596.888	6148.0625
600.89682	6535.3625
604.9028	7483.2625
608.90594	9577.0625
612.90624	11935.8625
616.90371	11071.0625
620.89834	7987.0625
624.89015	6657.0625
628.87913	6455.5625
632.86528	6595.8625
636.84862	6775.1625
640.82913	6622.5625
644.80683	6289.5625
648.78172	6105.7625
652.75379	6129.0625
656.72306	6390.8625
660.68952	6623.1625
664.65319	6519.0625
668.61405	6297.8625
672.57211	6214.6625
676.52738	6222.3625
680.47986	6135.4625
684.42955	6031.2625
688.37646	5985.6625
692.32058	5999.7625
696.26192	6062.9625
700.20048	6165.5625
704.13626	6215.7625
708.06928	6153.4625
711.99952	6137.9625
715.927	6116.1625
719.85171	6143.2625
723.77365	6188.1625
727.69284	6160.1625
731.60928	6150.4625
735.52295	6121.4625
739.43388	6163.2625
743.34206	6162.0625
747.24749	6191.0625
751.15017	6210.1625
755.05012	6292.0625
758.94733	6668.6625
762.8418	7520.1625
766.73354	8836.1625
770.62254	9831.3625
774.50882	9928.3625
778.39237	9405.0625
782.27321	8490.1625
786.15132	7438.8625
790.02671	6749.2625
793.89938	6385.1625
797.76935	6260.1625
801.6366	6162.0625
805.50115	6127.4625
809.36299	6119.0625
813.22213	6109.0625
817.07857	6120.8625
820.93231	6095.6625
824.78336	6140.8625
828.63172	6162.1625
832.47738	6137.2625
836.32036	6156.1625
840.16066	6120.9625
843.99827	6119.5625
847.8332	6109.2625
851.66546	6112.7625
855.49504	6109.6625
859.32195	6143.0625
863.1462	6132.2625
866.96777	6146.1625
870.78668	6128.1625
874.60293	6150.9625
878.41652	6176.9625
882.22745	6244.0625
886.03573	6277.8625
889.84136	6270.8625
893.64433	6271.2625
897.44466	6257.6625
901.24235	6258.8625
905.0374	6263.9625
908.8298	6180.2625
912.61957	6151.3625
916.40671	6106.3625
920.19121	6172.0625
923.97308	6258.1625
927.75233	6316.7625
931.52895	6386.6625
935.30295	6330.6625
939.07433	6192.3625
942.84309	6081.1625
946.60924	6061.9625
950.37278	6031.4625
954.13371	6013.9625
957.89203	5995.1625
961.64774	6009.0625
965.40086	6000.1625
969.15137	5993.6625
972.89929	6012.7625
976.64461	6002.9625
980.38733	6028.2625
984.12747	6027.1625
987.86502	6046.4625
991.59999	6074.3625
995.33237	6156.8625
999.06217	6206.6625
1002.78939	6278.0625
1006.51404	6398.3625
1010.23611	6526.4625
1013.95561	6562.6625
1017.67255	6569.7625
1021.38692	6560.6625
1025.09872	6482.9625
1028.80796	6397.9625
1032.51465	6411.6625
1036.21877	6394.1625
1039.92035	6433.8625
1043.61937	6493.0625
1047.31584	6505.0625
1051.00976	6571.4625
1054.70114	6551.0625
1058.38998	6544.5625
1062.07627	6564.4625
1065.76003	6607.9625
1069.44126	6671.4625
1073.11995	6745.0625
1076.79611	6882.3625
1080.46974	7039.5625
1084.14085	7197.3625
1087.80943	7332.5625
1091.47549	7356.3625
1095.13903	7275.0625
1098.80005	7147.1625
1102.45857	7047.7625
1106.11456	7015.1625
1109.76805	6974.6625
1113.41903	7083.0625
1117.06751	7256.5625
1120.71348	7526.5625
1124.35696	7913.0625
1127.99793	8191.7625
1131.63641	8014.4625
1135.2724	7621.8625
1138.90589	7311.7625
1142.5369	7119.9625
1146.16542	7002.5625
1149.79145	6927.0625
1153.415	6865.6625
1157.03607	6847.4625
1160.65467	6948.3625
1164.27079	7163.4625
1167.88443	7414.5625
1171.49561	7831.3625
1175.10432	8438.8625
1178.71056	9367.5625
1182.31434	10146.8625
1185.91565	10404.0625
1189.51451	10231.7625
1193.11091	9994.8625
1196.70485	9752.2625
1200.29634	9527.5625
1203.88538	9237.6625
1207.47197	8789.3625
1211.05612	8304.8625
1214.63782	7904.2625
1218.21708	7663.8625
1221.79391	7502.6625
1225.36829	7438.5625
1228.94024	7416.9625
1232.50976	7437.5625
1236.07685	7467.8625
1239.6415	7497.6625
1243.20374	7526.7625
1246.76355	7544.2625
1250.32093	7615.3625
1253.8759	7694.6625
1257.42845	7882.0625
1260.97859	8054.0625
1264.52631	8303.4625
1268.07163	8447.7625
1271.61453	8599.8625
1275.15503	8650.7625
1278.69312	8639.6625
1282.22882	8696.5625
1285.76211	8906.3625
1289.29301	9148.0625
1292.82151	9417.5625
1296.34761	9648.9625
1299.87133	10040.6625
1303.39266	10764.9625
1306.9116	11878.6625
1310.42815	13137.1625
1313.94233	13547.6625
1317.45412	12772.0625
1320.96354	11640.0625
1324.47058	10624.5625
1327.97525	9863.6625
1331.47754	9454.3625
1334.97747	9350.4625
1338.47502	9444.7625
1341.97022	9835.4625
1345.46305	10562.0625
1348.95352	11647.7625
1352.44163	12947.9625
1355.92738	14295.5625
1359.41078	15978.3625
1362.89183	17476.3625
1366.37053	16852.3625
1369.84688	13969.7625
1373.32088	11284.9625
1376.79254	9889.4625
1380.26186	9212.1625
1383.72883	8814.1625
1387.19347	8411.0625
1390.65578	8052.4625
1394.11575	7823.5625
1397.57339	7656.3625
1401.0287	7547.8625
1404.48168	7523.3625
1407.93234	7523.9625
1411.38068	7538.5625
1414.82669	7632.1625
1418.27039	7722.5625
1421.71177	7700.4625
1425.15083	7579.8625
1428.58758	7530.0625
1432.02203	7555.8625
1435.45416	7633.9625
1438.88399	7628.5625
1442.31151	7611.8625
1445.73673	7698.9625
1449.15965	7719.5625
1452.58027	7738.2625
1455.9986	7761.3625
1459.41463	7755.3625
1462.82837	7860.0625
1466.23982	8020.6625
1469.64898	8251.9625
1473.05586	8394.4625
1476.46045	8482.7625
1479.86276	8574.7625
1483.26279	8665.6625
1486.66054	8860.3625
1490.05602	9164.0625
1493.44922	9719.9625
1496.84016	10572.1625
1500.22882	11965.9625
1503.61521	13679.4625
1506.99934	15479.3625
1510.38121	16670.3625
1513.76081	16540.2625
1517.13816	14969.9625
1520.51324	12831.1625
1523.88607	11106.2625
1527.25665	10134.2625
1530.62498	9596.8625
1533.99105	9394.8625
1537.35488	9266.1625
1540.71647	9159.4625
1544.07581	9058.6625
1547.4329	8914.1625
1550.78776	8823.6625
1554.14038	8710.8625
1557.49077	8682.7625
1560.83892	8763.3625
1564.18484	9014.9625
1567.52853	9347.5625
1570.86999	9687.1625
1574.20922	9807.8625
1577.54624	9714.6625
1580.88103	9187.9625
1584.2136	8493.6625
1587.54395	8138.4625
1590.87208	8043.9625
1594.19801	8207.3625
1597.52172	8575.1625
1600.84321	8739.0625
1604.16251	8599.6625
1607.47959	8394.8625
1610.79447	8215.1625
1614.10715	7906.0625
1617.41763	7622.3625
1620.7259	7364.6625
1624.03199	7201.5625
1627.33587	7108.4625
1630.63757	7189.2625
1633.93707	7412.8625
1637.23439	7817.6625
1640.52951	8531.6625
1643.82246	9507.6625
1647.11321	10659.0625
1650.40179	11402.8625
1653.68819	11073.6625
1656.97241	9803.1625
1660.25446	8420.2625
1663.53433	7409.2625
1666.81203	6797.6625
1670.08756	6479.0625
1673.36092	6273.5625
1676.63211	6143.9625
1679.90115	6041.1625
1683.16801	5956.1625
1686.43272	5874.7625
1689.69527	5843.5625
1692.95567	5780.9625
1696.2139	5753.4625
1699.46999	5693.2625
1702.72392	5713.2625
1705.97571	5724.4625
1709.22535	5705.1625
1712.47284	5735.8625
1715.71819	5749.6625
1718.96139	5744.3625
1722.20246	5724.1625
1725.44139	5683.3625
1728.67818	5656.4625
1731.91284	5613.9625
1735.14537	5563.5625
1738.37576	5536.9625
1741.60403	5538.1625
1744.83017	5500.9625
1748.05418	5522.4625
1751.27607	5504.7625
1754.49584	5467.3625
1757.71349	5446.1625
1760.92903	5442.9625
1764.14244	5376.4625
1767.35375	5402.2625
1770.56294	5374.6625
1773.77002	5356.0625
1776.97499	5372.7625
1780.17785	5367.8625
1783.37861	5347.5625
1786.57727	5353.3625
1789.77382	5289.0625
1792.96828	5313.2625
1796.16064	5339.9625
1799.3509	5316.7625
1802.53907	5318.3625
1805.72514	5298.0625
1808.90913	5253.3625
1812.09102	5244.5625
1815.27083	5257.3625
1818.44856	5234.2625
1821.6242	5229.0625
1824.79776	5209.6625
1827.96924	5186.5625
1831.13864	5176.7625
1834.30597	5172.6625
1837.47122	5172.3625
1840.6344	5141.0625
1843.7955	5146.0625
1846.95454	5135.7625
1850.11151	5153.5625
1853.26642	5103.9625
1856.41926	5108.8625
1859.57004	5116.7625
1862.71876	5123.3625
1865.86542	5121.0625
1869.01003	5088.1625
1872.15258	5074.7625
1875.29308	5108.6625
1878.43152	5093.8625
1881.56792	5083.6625
1884.70227	5055.8625
1887.83457	5050.8625
1890.96482	5029.7625
1894.09304	5026.4625
1897.21921	5019.1625
1900.34335	5029.5625
1903.46544	5003.7625
1906.58551	5015.8625
1909.70353	4999.5625
1912.81953	5016.4625
1915.93349	4983.1625
1919.04543	4998.8625
1922.15534	4959.9625
1925.26322	4985.3625
1928.36908	4959.5625
1931.47292	4961.7625
1934.57473	4952.8625
1937.67453	4922.5625
1940.77232	4888.6625
1943.86808	4877.9625
1946.96184	4868.7625
1950.05358	4864.8625
1953.14331	4842.3625
1956.23103	4848.9625
1959.31675	4800.6625
1962.40046	4779.2625
1965.48217	4792.0625
1968.56188	4772.4625
1971.63959	4777.1625
1974.7153	4774.0625
1977.78901	4755.6625
1980.86073	4724.9625
1983.93046	4696.2625
1986.99819	4627.2625
1990.06394	4638.3625
1993.1277	4651.0625
1996.18947	4622.9625
1999.24925	4602.4625
2002.30706	4601.3625
2005.36288	4591.9625
2008.41672	4572.9625
2011.46859	4551.7625
2014.51848	4533.1625
2017.56639	4510.1625
2020.61233	4504.0625
2023.6563	4502.2625
2026.6983	4452.9625
2029.73833	4464.3625
2032.7764	4474.5625
2035.8125	4429.5625
2038.84664	4432.9625
2041.87881	4416.1625
2044.90903	4413.3625
2047.93729	4397.0625
2050.96359	4372.5625
2053.98794	4377.6625
2057.01034	4382.1625
2060.03078	4375.3625
2063.04927	4367.0625
2066.06582	4363.6625
2069.08042	4350.3625
2072.09307	4364.2625
2075.10378	4356.2625
2078.11255	4337.0625
2081.11938	4341.9625
2084.12426	4347.0625
2087.12722	4324.1625
2090.12824	4327.3625
2093.12732	4336.6625
2096.12447	4345.6625
2099.11969	4332.8625
2102.11299	4319.7625
2105.10435	4344.2625
2108.09379	4337.3625
2111.08131	4328.8625
2114.0669	4326.5625
2117.05057	4331.2625
2120.03233	4319.4625
2123.01216	4345.5625
2125.99008	4348.6625
2128.96609	4338.2625
2131.94018	4345.2625
2134.91236	4351.7625
2137.88263	4339.4625
2140.851	4346.8625
2143.81746	4368.4625
2146.78201	4352.5625
2149.74466	4332.5625
2152.7054	4350.5625
2155.66425	4339.0625
2158.6212	4330.4625
2161.57625	4298.4625
2164.52941	4284.7625
2167.48067	4282.1625
2170.43004	4305.3625
2173.37752	4300.6625
2176.32311	4294.1625
2179.26681	4314.9625
2182.20863	4300.5625
2185.14856	4309.2625
2188.08661	4285.2625
2191.02278	4301.5625
2193.95707	4287.1625
2196.88948	4265.9625
2199.82001	4283.2625
2202.74867	4269.6625
2205.67545	4259.2625
2208.60037	4287.5625
2211.52341	4260.1625
2214.44458	4231.2625
2217.36388	4233.4625
2220.28132	4200.7625
2223.1969	4192.3625
2226.11061	4181.2625
2229.02246	4176.5625
2231.93245	4176.6625
2234.84058	4162.0625
2237.74686	4155.3625
2240.65128	4154.5625
2243.55385	4142.5625
2246.45456	4116.2625
2249.35343	4146.6625
2252.25044	4133.8625
2255.14561	4141.9625
2258.03893	4116.8625
2260.93041	4112.7625
2263.82004	4114.1625
2266.70783	4105.6625
2269.59378	4072.6625
2272.4779	4060.1625
2275.36017	4066.9625
2278.24061	4052.9625
2281.11922	4023.7625
2283.996	4037.1625
2286.87094	4018.5625
2289.74405	4022.5625
2292.61534	4014.7625
2295.4848	4001.2625
2298.35243	4001.6625
2301.21824	3982.9625
2304.08223	3978.4625
2306.94439	3985.1625
2309.80474	3985.4625
2312.66327	3995.8625
2315.51999	3962.7625
2318.37489	3966.3625
2321.22797	3951.5625
2324.07925	3949.6625
2326.92871	3927.1625
2329.77637	3924.8625
2332.62222	3915.5625
2335.46626	3885.5625
2338.3085	3880.4625
2341.14893	3921.9625
2343.98756	3910.2625
2346.8244	3885.5625
2349.65943	3869.2625
2352.49267	3883.7625
2355.32411	3883.1625
2358.15376	3871.7625
2360.98161	3894.2625
2363.80768	3862.6625
2366.63195	3867.9625
2369.45444	3874.0625
2372.27514	3893.1625
2375.09405	3893.1625
2377.91118	3841.5625
2380.72652	3850.9625
2383.54009	3832.8625
2386.35187	3836.8625
2389.16188	3811.9625
2391.97011	3828.3625
2394.77657	3800.5625
2397.58125	3809.5625
2400.38416	3794.0625
2403.18529	3772.1625
2405.98466	3770.9625
2408.78226	3750.8625
2411.57809	3742.9625
2414.37216	3720.9625
2417.16446	3740.7625
2419.955	3723.2625
2422.74378	3729.1625
2425.5308	3708.1625
2428.31606	3703.4625
2431.09956	3719.8625
2433.88131	3698.8625
2436.6613	3711.2625
2439.43954	3680.6625
2442.21603	3689.7625
2444.99077	3677.7625
2447.76377	3689.4625
2450.53501	3679.8625
2453.30451	3671.3625
2456.07226	3675.7625
2458.83827	3657.8625
2461.60254	3631.3625
2464.36507	3654.1625
2467.12586	3632.5625
2469.88492	3656.5625
2472.64224	3651.7625
2475.39782	3628.5625
2478.15167	3643.4625
2480.90379	3645.7625
2483.65417	3643.8625
2486.40283	3635.1625
2489.14976	3637.9625
2491.89497	3639.6625
2494.63845	3625.9625
2497.3802	3626.3625
2500.12024	3624.6625
2502.85855	3621.9625
2505.59514	3616.3625
2508.33002	3610.4625
2511.06318	3578.6625
2513.79462	3579.0625
2516.52435	3547.3625
2519.25237	3527.4625
2521.97867	3529.3625
2524.70327	3534.2625
2527.42616	3539.0625
2530.14734	3548.2625
2532.86681	3508.7625
2535.58458	3516.7625
2538.30065	3510.6625
2541.01501	3515.7625
2543.72768	3496.3625
2546.43864	3503.8625
2549.14791	3486.6625
2551.85548	3475.9625
2554.56136	3476.3625
2557.26554	3484.4625
2559.96803	3475.3625
2562.66883	3474.1625
2565.36794	3447.8625
2568.06536	3415.9625
2570.7611	3439.8625
2573.45514	3418.6625
2576.14751	3420.1625
2578.83819	3393.4625
2581.52719	3395.3625
2584.21451	3398.0625
2586.90015	3372.8625
2589.58411	3344.2625
2592.2664	3380.0625
2594.94701	3366.5625
2597.62594	3374.4625
2600.30321	3296.4625
2602.9788	3328.5625
2605.65273	3324.3625
2608.32498	3317.9625
2610.99557	3343.5625
2613.66449	3308.4625
2616.33175	3317.2625
2618.99734	3309.1625
2621.66128	3312.2625
2624.32355	3301.5625
2626.98416	3277.3625
2629.64311	3274.0625
2632.30041	3274.7625
2634.95605	3261.4625
2637.61004	3251.9625
2640.26238	3230.0625
2642.91306	3232.7625
2645.56209	3248.5625
2648.20948	3255.7625
2650.85521	3225.3625
2653.4993	3241.1625
2656.14175	3233.6625
2658.78255	3225.5625
2661.42171	3197.6625
2664.05923	3236.4625
2666.6951	3244.1625
2669.32934	3238.2625
2671.96194	3248.5625
2674.59291	3236.2625
2677.22224	3236.1625
2679.84993	3229.5625
2682.476	3231.3625
2685.10043	3208.8625
2687.72324	3213.9625
2690.34441	3209.3625
2692.96396	3207.8625
2695.58188	3224.2625
2698.19818	3217.4625
2700.81285	3199.5625
2703.4259	3184.3625
2706.03733	3166.3625
2708.64714	3180.8625
2711.25533	3203.4625
2713.86191	3217.2625
2716.46687	3178.4625
2719.07021	3188.5625
2721.67194	3192.0625
2724.27206	3202.1625
2726.87057	3183.3625
2729.46747	3177.9625
2732.06276	3186.1625
2734.65644	3178.9625
2737.24852	3160.3625
2739.83899	3151.1625
2742.42786	3151.4625
2745.01513	3158.3625
2747.60079	3137.9625
2750.18486	3131.0625
2752.76733	3136.7625
2755.3482	3128.4625
2757.92747	3119.9625
2760.50515	3109.8625
2763.08123	3099.3625
2765.65573	3101.4625
2768.22863	3091.4625
2770.79994	3085.8625
2773.36967	3081.7625
2775.9378	3068.4625
2778.50435	3066.2625
2781.06932	3071.8625
2783.6327	3056.2625
2786.1945	3067.3625
2788.75471	3055.9625
2791.31335	3045.4625
2793.87041	3049.8625
2796.42589	3039.5625
2798.97979	3014.0625
2801.53212	3019.4625
2804.08288	3044.8625
2806.63206	3022.1625
2809.17967	2991.3625
2811.72571	3003.3625
2814.27018	3007.4625
2816.81308	2990.5625
2819.35442	2955.8625
2821.89419	2984.1625
2824.43239	2945.2625
2826.96904	2977.7625
2829.50412	2964.1625
2832.03763	2968.5625
2834.56959	2965.5625
2837.1	2940.3625
2839.62884	2962.8625
2842.15613	2949.8625
2844.68186	2952.6625
2847.20604	2934.9625
2849.72867	2918.8625
2852.24974	2933.2625
2854.76927	2889.3625
2857.28724	2860.4625
2859.80367	2905.9625
2862.31855	2914.4625
2864.83189	2913.8625
2867.34368	2912.2625
2869.85393	2906.5625
2872.36264	2886.9625
2874.8698	2892.0625
2877.37543	2897.2625
2879.87952	2896.3625
2882.38207	2871.7625
2884.88308	2881.3625
2887.38256	2890.0625
2889.88051	2870.0625
2892.37692	2871.8625
2894.8718	2851.1625
2897.36515	2873.4625
2899.85698	2856.5625
2902.34727	2864.7625
2904.83604	2863.7625
2907.32328	2882.5625
2909.809	2880.6625
2912.29319	2866.9625
2914.77587	2875.1625
2917.25702	2893.1625
2919.73665	2892.4625
2922.21476	2887.2625
2924.69136	2893.5625
2927.16644	2870.4625
2929.64	2872.2625
2932.11205	2859.2625
2934.58258	2852.0625
2937.05161	2840.0625
2939.51912	2851.3625
2941.98513	2863.4625
2944.44962	2833.5625
2946.91261	2822.4625
2949.37409	2823.3625
2951.83407	2821.2625
2954.29254	2817.3625
2956.74951	2811.5625
2959.20498	2804.4625
2961.65895	2798.4625
2964.11142	2788.3625
2966.56239	2797.8625
2969.01186	2789.1625
2971.45984	2787.3625
2973.90632	2771.2625
2976.35131	2785.0625
2978.7948	2770.3625
2981.23681	2761.8625
2983.67732	2764.5625
2986.11635	2765.2625
2988.55388	2722.4625
2990.98993	2736.1625
2993.4245	2722.6625
2995.85758	2717.9625
2998.28917	2710.4625
3000.71928	2695.6625
3003.14791	2700.2625
3005.57506	2679.9625
3008.00073	2672.7625
3010.42493	2614.2625
3012.84764	2664.1625
3015.26888	2674.3625
3017.68865	2662.6625
3020.10694	2618.1625
3022.52376	2626.4625
3024.9391	2628.4625
3027.35298	2617.8625
3029.76539	2615.2625
3032.17632	2606.3625
3034.5858	2604.0625
3036.9938	2605.5625
3039.40034	2586.0625
3041.80542	2583.7625
3044.20903	2567.1625
3046.61118	2568.2625
3049.01187	2576.9625
3051.4111	2561.8625
3053.80888	2552.2625
3056.20519	2544.2625
3058.60005	2523.0625
3060.99345	2548.4625
3063.3854	2527.6625
3065.7759	2504.5625
3068.16494	2505.9625
3070.55254	2493.6625
3072.93868	2498.5625
3075.32338	2505.3625
3077.70662	2477.6625
3080.08842	2466.6625
3082.46878	2470.6625
3084.84769	2484.4625
3087.22515	2466.1625
3089.60118	2475.9625
3091.97576	2451.6625
3094.3489	2446.2625
3096.72061	2454.6625
3099.09087	2440.6625
3101.4597	2460.3625
3103.82709	2457.0625
3106.19305	2438.3625
3108.55757	2435.6625
3110.92066	2430.4625
3113.28232	2435.4625
3115.64255	2425.5625
3118.00134	2415.0625
3120.35871	2391.6625
3122.71466	2387.9625
3125.06917	2390.1625
3127.42226	2388.8625
3129.77393	2360.6625
3132.12417	2385.3625
3134.47299	2383.1625
3136.82039	2379.7625
3139.16636	2327.6625
3141.51092	2361.7625
3143.85406	2369.8625
3146.19579	2349.0625
3148.53609	2341.6625
3150.87499	2343.7625
3153.21246	2337.9625
3155.54853	2348.9625
3157.88318	2356.0625
3160.21642	2349.9625
3162.54826	2343.0625
3164.87868	2356.2625
3167.2077	2309.8625
3169.5353	2332.2625
3171.86151	2350.3625
3174.18631	2328.2625
3176.5097	2320.5625
3178.83169	2323.0625
3181.15228	2317.9625
3183.47147	2297.2625
3185.78926	2266.7625
3188.10565	2290.7625
3190.42065	2256.5625
3192.73424	2279.6625
3195.04645	2263.1625
3197.35725	2255.9625
3199.66667	2261.9625
3201.97469	2260.1625
3204.28132	2250.6625
3206.58656	2270.3625
3208.8904	2266.0625
3211.19287	2256.5625
3213.49394	2237.6625
3215.79363	2234.0625
3218.09193	2272.6625
3220.38884	2243.1625
3222.68438	2248.4625
3224.97853	2233.2625
3227.2713	2253.5625
3229.56269	2231.0625
3231.8527	2226.3625
3234.14133	2222.9625
3236.42858	2218.3625
3238.71446	2194.4625
3240.99896	2209.6625
3243.28209	2199.7625
3245.56384	2195.7625
3247.84423	2195.4625
3250.12324	2180.6625
3252.40088	2189.5625
3254.67715	2178.4625
3256.95205	2163.3625
3259.22558	2181.5625
3261.49775	2175.5625
3263.76855	2166.5625
3266.03799	2170.1625
3268.30606	2171.9625
3270.57277	2172.4625
3272.83812	2152.3625
3275.10211	2143.1625
3277.36474	2165.5625
3279.62601	2151.0625
3281.88593	2131.6625
3284.14448	2111.4625
3286.40168	2147.6625
3288.65753	2121.6625
3290.91202	2126.1625
3293.16516	2095.9625
3295.41695	2129.3625
3297.66738	2124.6625
3299.91647	2097.8625
3302.16421	2093.6625
3304.4106	2059.5625
3306.65564	2077.4625
3308.89933	2036.6625
3311.14169	2039.4625
3313.38269	2017.0625
3315.62236	1997.4625
3317.86068	1992.6625
3320.09766	1995.1625
3322.3333	1951.7625
3324.5676	1955.0625
3326.80056	1921.9625
3329.03219	1906.7625
3331.26248	-0.8375
3333.49143	-0.9375
3335.71905	-0.1375
