Data from AgNPs_UA_5uM_CRN_500uM_SU_RamanShift__202__12-03-03-179.txt Node

Date: Thu Aug 04 12:03:03 BST 2022
User: TCL
Spectrometer: QEP01345
Trigger mode: 4
Integration Time (sec): 1.000000E0
Scans to average: 10
Electric dark correction enabled: true
Nonlinearity correction enabled: false
Boxcar width: 0
XAxis mode: Raman Shifts
Number of Pixels in Spectrum: 1044
>>>>>Begin Spectral Data<<<<<
46.04893	-0.4375
50.45542	0.4625
54.85868	-0.1375
59.25871	-0.8375
63.6555	-56.6375
68.04907	-39.5375
72.43941	-72.0375
76.82654	-55.3375
81.21044	-56.1375
85.59113	-50.2375
89.96862	-74.7375
94.34289	-56.1375
98.71396	-76.4375
103.08183	-58.6375
107.4465	-49.2375
111.80798	-55.7375
116.16626	-43.4375
120.52136	-74.8375
124.87327	-49.6375
129.222	-62.8375
133.56755	-50.2375
137.90993	-62.1375
142.24913	-48.2375
146.58517	-41.8375
150.91804	-39.6375
155.24774	-26.0375
159.57429	-7.8375
163.89768	-4.7375
168.21792	41.4625
172.53501	59.8625
176.84895	143.5625
181.15975	280.0625
185.46741	430.8625
189.77193	615.1625
194.07331	901.7625
198.37157	1198.7625
202.6667	1473.5625
206.9587	1807.2625
211.24758	2123.6625
215.53334	2454.6625
219.81599	2807.6625
224.09553	3222.4625
228.37195	3653.0625
232.64527	4134.8625
236.91549	4602.5625
241.18261	4961.8625
245.44663	5246.8625
249.70755	5419.2625
253.96539	5541.6625
258.22014	5661.1625
262.4718	5732.4625
266.72039	5776.0625
270.96589	5731.4625
275.20832	5647.8625
279.44768	5513.7625
283.68397	5427.3625
287.91719	5351.7625
292.14735	5395.5625
296.37445	5568.0625
300.59849	5845.5625
304.81948	6188.8625
309.03742	6576.2625
313.25231	6818.0625
317.46415	6770.7625
321.67296	6379.5625
325.87872	5973.4625
330.08145	5758.0625
334.28114	5736.4625
338.47781	5781.3625
342.67145	5919.2625
346.86207	6174.5625
351.04966	6544.0625
355.23424	6947.5625
359.4158	7215.9625
363.59435	7263.0625
367.76989	7182.0625
371.94243	7058.1625
376.11196	6910.2625
380.27849	6868.3625
384.44203	6790.5625
388.60257	6756.8625
392.76012	6751.3625
396.91468	6858.0625
401.06626	7038.8625
405.21485	7066.7625
409.36047	6896.7625
413.50311	6578.7625
417.64277	6265.4625
421.77947	6066.2625
425.9132	6000.5625
430.04396	5976.4625
434.17176	6032.2625
438.2966	6120.0625
442.41849	6215.2625
446.53742	6326.1625
450.6534	6449.9625
454.76644	6509.6625
458.87653	6502.0625
462.98368	6467.2625
467.08789	6398.0625
471.18916	6328.1625
475.2875	6205.0625
479.38291	6078.9625
483.4754	6003.4625
487.56496	5946.3625
491.6516	5914.8625
495.73531	5928.9625
499.81612	5956.3625
503.89401	6030.8625
507.96899	6089.1625
512.04106	6192.6625
516.11023	6287.8625
520.1765	6349.6625
524.23987	6403.0625
528.30034	6394.6625
532.35792	6320.7625
536.41261	6254.8625
540.46441	6164.3625
544.51333	6114.1625
548.55936	6152.5625
552.60252	6293.7625
556.64279	6370.8625
560.6802	6525.3625
564.71473	6656.0625
568.7464	6859.6625
572.7752	6834.2625
576.80114	6502.9625
580.82422	6258.2625
584.84444	6163.7625
588.86181	6142.5625
592.87633	6169.5625
596.888	6297.0625
600.89682	6669.1625
604.9028	7660.7625
608.90594	9783.0625
612.90624	12177.4625
616.90371	11294.6625
620.89834	8153.2625
624.89015	6818.4625
628.87913	6609.5625
632.86528	6771.3625
636.84862	6918.4625
640.82913	6795.3625
644.80683	6432.3625
648.78172	6249.8625
652.75379	6278.0625
656.72306	6529.0625
660.68952	6757.3625
664.65319	6681.6625
668.61405	6438.1625
672.57211	6370.1625
676.52738	6368.2625
680.47986	6266.6625
684.42955	6163.4625
688.37646	6130.9625
692.32058	6137.1625
696.26192	6199.3625
700.20048	6309.7625
704.13626	6344.5625
708.06928	6293.4625
711.99952	6265.3625
715.927	6241.3625
719.85171	6279.7625
723.77365	6343.9625
727.69284	6311.0625
731.60928	6275.3625
735.52295	6259.7625
739.43388	6306.1625
743.34206	6314.1625
747.24749	6349.8625
751.15017	6358.7625
755.05012	6432.6625
758.94733	6821.7625
762.8418	7686.7625
766.73354	9035.9625
770.62254	10047.2625
774.50882	10137.4625
778.39237	9614.6625
782.27321	8669.7625
786.15132	7599.5625
790.02671	6918.0625
793.89938	6527.7625
797.76935	6419.5625
801.6366	6324.8625
805.50115	6273.0625
809.36299	6267.1625
813.22213	6246.1625
817.07857	6260.4625
820.93231	6259.6625
824.78336	6281.4625
828.63172	6315.7625
832.47738	6320.8625
836.32036	6306.7625
840.16066	6278.5625
843.99827	6262.5625
847.8332	6249.8625
851.66546	6254.8625
855.49504	6255.4625
859.32195	6297.6625
863.1462	6275.2625
866.96777	6270.3625
870.78668	6269.3625
874.60293	6315.7625
878.41652	6321.3625
882.22745	6381.6625
886.03573	6421.3625
889.84136	6420.4625
893.64433	6427.0625
897.44466	6410.5625
901.24235	6399.8625
905.0374	6414.7625
908.8298	6336.4625
912.61957	6297.2625
916.40671	6250.7625
920.19121	6312.2625
923.97308	6388.6625
927.75233	6451.2625
931.52895	6533.1625
935.30295	6491.0625
939.07433	6342.1625
942.84309	6216.3625
946.60924	6224.2625
950.37278	6171.1625
954.13371	6151.8625
957.89203	6157.0625
961.64774	6190.7625
965.40086	6145.7625
969.15137	6118.7625
972.89929	6157.6625
976.64461	6155.7625
980.38733	6188.1625
984.12747	6186.9625
987.86502	6180.5625
991.59999	6213.3625
995.33237	6282.5625
999.06217	6360.1625
1002.78939	6443.6625
1006.51404	6576.2625
1010.23611	6679.9625
1013.95561	6718.9625
1017.67255	6742.3625
1021.38692	6699.2625
1025.09872	6655.7625
1028.80796	6562.8625
1032.51465	6567.3625
1036.21877	6571.3625
1039.92035	6588.1625
1043.61937	6624.1625
1047.31584	6679.5625
1051.00976	6720.2625
1054.70114	6723.0625
1058.38998	6726.0625
1062.07627	6702.9625
1065.76003	6756.5625
1069.44126	6854.1625
1073.11995	6910.0625
1076.79611	7061.1625
1080.46974	7187.8625
1084.14085	7363.8625
1087.80943	7507.3625
1091.47549	7535.6625
1095.13903	7439.2625
1098.80005	7316.6625
1102.45857	7217.6625
1106.11456	7204.5625
1109.76805	7131.1625
1113.41903	7255.8625
1117.06751	7440.8625
1120.71348	7702.9625
1124.35696	8096.8625
1127.99793	8359.9625
1131.63641	8214.8625
1135.2724	7798.1625
1138.90589	7498.2625
1142.5369	7301.8625
1146.16542	7171.9625
1149.79145	7067.9625
1153.415	7019.5625
1157.03607	7025.5625
1160.65467	7113.8625
1164.27079	7323.4625
1167.88443	7593.3625
1171.49561	8012.5625
1175.10432	8631.7625
1178.71056	9510.8625
1182.31434	10353.2625
1185.91565	10613.7625
1189.51451	10448.1625
1193.11091	10194.4625
1196.70485	9931.7625
1200.29634	9715.6625
1203.88538	9414.5625
1207.47197	8983.9625
1211.05612	8481.2625
1214.63782	8074.5625
1218.21708	7827.7625
1221.79391	7681.9625
1225.36829	7596.9625
1228.94024	7602.1625
1232.50976	7599.8625
1236.07685	7648.2625
1239.6415	7662.0625
1243.20374	7701.1625
1246.76355	7722.6625
1250.32093	7785.7625
1253.8759	7864.9625
1257.42845	8056.7625
1260.97859	8256.2625
1264.52631	8510.7625
1268.07163	8640.9625
1271.61453	8760.3625
1275.15503	8813.2625
1278.69312	8837.6625
1282.22882	8887.4625
1285.76211	9090.8625
1289.29301	9363.8625
1292.82151	9620.7625
1296.34761	9854.7625
1299.87133	10253.3625
1303.39266	10972.9625
1306.9116	12117.0625
1310.42815	13404.4625
1313.94233	13832.6625
1317.45412	13024.9625
1320.96354	11864.2625
1324.47058	10839.3625
1327.97525	10065.1625
1331.47754	9655.9625
1334.97747	9566.8625
1338.47502	9677.7625
1341.97022	10061.5625
1345.46305	10784.0625
1348.95352	11893.7625
1352.44163	13179.1625
1355.92738	14551.8625
1359.41078	16250.3625
1362.89183	17794.5625
1366.37053	17136.1625
1369.84688	14234.9625
1373.32088	11506.5625
1376.79254	10100.4625
1380.26186	9427.2625
1383.72883	8994.1625
1387.19347	8606.2625
1390.65578	8249.1625
1394.11575	7991.1625
1397.57339	7808.3625
1401.0287	7726.5625
1404.48168	7672.8625
1407.93234	7703.9625
1411.38068	7719.2625
1414.82669	7803.6625
1418.27039	7886.1625
1421.71177	7890.5625
1425.15083	7785.3625
1428.58758	7695.1625
1432.02203	7717.4625
1435.45416	7807.0625
1438.88399	7814.3625
1442.31151	7811.8625
1445.73673	7851.7625
1449.15965	7927.2625
1452.58027	7925.8625
1455.9986	7931.7625
1459.41463	7940.5625
1462.82837	8037.7625
1466.23982	8217.9625
1469.64898	8438.4625
1473.05586	8589.3625
1476.46045	8678.3625
1479.86276	8756.7625
1483.26279	8864.8625
1486.66054	9071.8625
1490.05602	9331.5625
1493.44922	9897.9625
1496.84016	10783.6625
1500.22882	12183.3625
1503.61521	13932.7625
1506.99934	15742.2625
1510.38121	16949.3625
1513.76081	16802.7625
1517.13816	15238.7625
1520.51324	13061.3625
1523.88607	11336.0625
1527.25665	10312.6625
1530.62498	9799.9625
1533.99105	9594.4625
1537.35488	9460.5625
1540.71647	9341.0625
1544.07581	9226.8625
1547.4329	9122.3625
1550.78776	9000.3625
1554.14038	8905.1625
1557.49077	8882.8625
1560.83892	8984.6625
1564.18484	9190.7625
1567.52853	9540.6625
1570.86999	9849.8625
1574.20922	10007.5625
1577.54624	9876.4625
1580.88103	9366.0625
1584.2136	8673.5625
1587.54395	8315.0625
1590.87208	8248.0625
1594.19801	8406.2625
1597.52172	8764.5625
1600.84321	8918.0625
1604.16251	8773.2625
1607.47959	8569.3625
1610.79447	8402.5625
1614.10715	8098.0625
1617.41763	7793.8625
1620.7259	7513.7625
1624.03199	7366.5625
1627.33587	7321.7625
1630.63757	7329.6625
1633.93707	7576.7625
1637.23439	8018.6625
1640.52951	8702.1625
1643.82246	9714.9625
1647.11321	10889.5625
1650.40179	11635.7625
1653.68819	11268.7625
1656.97241	10008.2625
1660.25446	8576.1625
1663.53433	7576.9625
1666.81203	6950.2625
1670.08756	6621.0625
1673.36092	6439.6625
1676.63211	6295.6625
1679.90115	6184.2625
1683.16801	6108.5625
1686.43272	6036.6625
1689.69527	5977.9625
1692.95567	5918.4625
1696.2139	5903.1625
1699.46999	5856.5625
1702.72392	5845.6625
1705.97571	5847.0625
1709.22535	5836.4625
1712.47284	5869.1625
1715.71819	5880.6625
1718.96139	5898.0625
1722.20246	5860.3625
1725.44139	5820.8625
1728.67818	5798.1625
1731.91284	5757.5625
1735.14537	5706.9625
1738.37576	5690.7625
1741.60403	5651.2625
1744.83017	5633.7625
1748.05418	5649.6625
1751.27607	5632.8625
1754.49584	5618.6625
1757.71349	5569.6625
1760.92903	5574.2625
1764.14244	5522.6625
1767.35375	5538.0625
1770.56294	5500.1625
1773.77002	5498.6625
1776.97499	5504.9625
1780.17785	5500.9625
1783.37861	5476.1625
1786.57727	5493.4625
1789.77382	5427.4625
1792.96828	5465.5625
1796.16064	5454.1625
1799.3509	5438.6625
1802.53907	5460.9625
1805.72514	5417.9625
1808.90913	5390.7625
1812.09102	5380.4625
1815.27083	5387.6625
1818.44856	5378.8625
1821.6242	5366.6625
1824.79776	5340.2625
1827.96924	5328.5625
1831.13864	5297.2625
1834.30597	5300.5625
1837.47122	5285.7625
1840.6344	5273.7625
1843.7955	5261.2625
1846.95454	5264.1625
1850.11151	5279.9625
1853.26642	5232.5625
1856.41926	5247.4625
1859.57004	5248.9625
1862.71876	5241.2625
1865.86542	5250.5625
1869.01003	5232.8625
1872.15258	5207.4625
1875.29308	5225.6625
1878.43152	5236.2625
1881.56792	5198.5625
1884.70227	5170.9625
1887.83457	5181.6625
1890.96482	5152.9625
1894.09304	5161.3625
1897.21921	5155.2625
1900.34335	5172.7625
1903.46544	5142.1625
1906.58551	5168.3625
1909.70353	5141.0625
1912.81953	5131.2625
1915.93349	5117.5625
1919.04543	5102.8625
1922.15534	5120.0625
1925.26322	5084.2625
1928.36908	5088.1625
1931.47292	5083.2625
1934.57473	5079.5625
1937.67453	5042.9625
1940.77232	5017.2625
1943.86808	5018.7625
1946.96184	5013.6625
1950.05358	4971.7625
1953.14331	4954.8625
1956.23103	4968.7625
1959.31675	4940.0625
1962.40046	4881.0625
1965.48217	4909.0625
1968.56188	4901.7625
1971.63959	4872.9625
1974.7153	4882.9625
1977.78901	4864.5625
1980.86073	4841.2625
1983.93046	4795.7625
1986.99819	4743.4625
1990.06394	4749.4625
1993.1277	4780.5625
1996.18947	4745.0625
1999.24925	4719.0625
2002.30706	4717.8625
2005.36288	4707.1625
2008.41672	4684.3625
2011.46859	4649.3625
2014.51848	4657.9625
2017.56639	4629.7625
2020.61233	4598.6625
2023.6563	4613.5625
2026.6983	4576.6625
2029.73833	4568.3625
2032.7764	4590.0625
2035.8125	4532.5625
2038.84664	4528.5625
2041.87881	4518.2625
2044.90903	4535.5625
2047.93729	4512.6625
2050.96359	4498.0625
2053.98794	4490.8625
2057.01034	4503.8625
2060.03078	4478.8625
2063.04927	4464.6625
2066.06582	4481.9625
2069.08042	4461.4625
2072.09307	4468.8625
2075.10378	4467.7625
2078.11255	4454.8625
2081.11938	4448.7625
2084.12426	4439.7625
2087.12722	4437.5625
2090.12824	4437.2625
2093.12732	4431.0625
2096.12447	4454.1625
2099.11969	4428.7625
2102.11299	4419.9625
2105.10435	4440.0625
2108.09379	4440.1625
2111.08131	4430.1625
2114.0669	4425.5625
2117.05057	4430.7625
2120.03233	4419.4625
2123.01216	4445.5625
2125.99008	4453.2625
2128.96609	4454.5625
2131.94018	4479.6625
2134.91236	4460.7625
2137.88263	4432.7625
2140.851	4444.9625
2143.81746	4469.8625
2146.78201	4453.7625
2149.74466	4445.4625
2152.7054	4455.0625
2155.66425	4439.1625
2158.6212	4421.1625
2161.57625	4406.3625
2164.52941	4390.4625
2167.48067	4398.0625
2170.43004	4405.6625
2173.37752	4411.8625
2176.32311	4399.4625
2179.26681	4398.3625
2182.20863	4402.4625
2185.14856	4400.3625
2188.08661	4391.4625
2191.02278	4407.8625
2193.95707	4389.6625
2196.88948	4360.2625
2199.82001	4379.4625
2202.74867	4372.4625
2205.67545	4372.6625
2208.60037	4373.1625
2211.52341	4358.4625
2214.44458	4332.6625
2217.36388	4331.3625
2220.28132	4317.0625
2223.1969	4287.1625
2226.11061	4295.6625
2229.02246	4290.1625
2231.93245	4284.6625
2234.84058	4261.4625
2237.74686	4263.3625
2240.65128	4261.4625
2243.55385	4255.2625
2246.45456	4236.0625
2249.35343	4245.4625
2252.25044	4239.1625
2255.14561	4233.9625
2258.03893	4223.9625
2260.93041	4214.0625
2263.82004	4213.5625
2266.70783	4208.4625
2269.59378	4163.7625
2272.4779	4162.6625
2275.36017	4168.4625
2278.24061	4156.6625
2281.11922	4128.6625
2283.996	4132.0625
2286.87094	4113.6625
2289.74405	4116.1625
2292.61534	4110.7625
2295.4848	4115.7625
2298.35243	4100.5625
2301.21824	4081.3625
2304.08223	4078.7625
2306.94439	4088.3625
2309.80474	4079.5625
2312.66327	4085.8625
2315.51999	4071.0625
2318.37489	4072.5625
2321.22797	4034.2625
2324.07925	4039.0625
2326.92871	4038.7625
2329.77637	4007.9625
2332.62222	4001.4625
2335.46626	3982.9625
2338.3085	3979.1625
2341.14893	3989.1625
2343.98756	3996.5625
2346.8244	3988.3625
2349.65943	3969.1625
2352.49267	3978.2625
2355.32411	3987.7625
2358.15376	3974.8625
2360.98161	3996.5625
2363.80768	3950.5625
2366.63195	3970.1625
2369.45444	3972.9625
2372.27514	3986.5625
2375.09405	3963.5625
2377.91118	3938.3625
2380.72652	3930.7625
2383.54009	3921.3625
2386.35187	3941.5625
2389.16188	3897.1625
2391.97011	3911.7625
2394.77657	3885.8625
2397.58125	3895.2625
2400.38416	3888.3625
2403.18529	3867.5625
2405.98466	3855.7625
2408.78226	3855.2625
2411.57809	3839.2625
2414.37216	3838.5625
2417.16446	3836.7625
2419.955	3799.2625
2422.74378	3812.5625
2425.5308	3797.7625
2428.31606	3821.4625
2431.09956	3810.3625
2433.88131	3790.2625
2436.6613	3795.6625
2439.43954	3777.6625
2442.21603	3782.8625
2444.99077	3774.8625
2447.76377	3773.6625
2450.53501	3768.1625
2453.30451	3766.5625
2456.07226	3773.7625
2458.83827	3751.3625
2461.60254	3724.9625
2464.36507	3732.5625
2467.12586	3727.3625
2469.88492	3741.4625
2472.64224	3729.6625
2475.39782	3704.4625
2478.15167	3731.2625
2480.90379	3718.2625
2483.65417	3740.1625
2486.40283	3732.6625
2489.14976	3739.7625
2491.89497	3731.3625
2494.63845	3721.8625
2497.3802	3720.7625
2500.12024	3708.9625
2502.85855	3716.2625
2505.59514	3703.3625
2508.33002	3694.4625
2511.06318	3657.9625
2513.79462	3667.6625
2516.52435	3628.9625
2519.25237	3627.9625
2521.97867	3618.6625
2524.70327	3618.6625
2527.42616	3613.4625
2530.14734	3637.9625
2532.86681	3595.5625
2535.58458	3608.0625
2538.30065	3599.5625
2541.01501	3611.7625
2543.72768	3591.3625
2546.43864	3589.4625
2549.14791	3580.8625
2551.85548	3556.0625
2554.56136	3554.9625
2557.26554	3571.6625
2559.96803	3556.9625
2562.66883	3554.1625
2565.36794	3524.6625
2568.06536	3495.5625
2570.7611	3520.4625
2573.45514	3499.6625
2576.14751	3510.1625
2578.83819	3486.2625
2581.52719	3482.8625
2584.21451	3487.3625
2586.90015	3454.7625
2589.58411	3454.7625
2592.2664	3445.5625
2594.94701	3442.8625
2597.62594	3453.8625
2600.30321	3394.9625
2602.9788	3424.2625
2605.65273	3394.8625
2608.32498	3403.2625
2610.99557	3414.0625
2613.66449	3382.4625
2616.33175	3417.7625
2618.99734	3390.6625
2621.66128	3406.8625
2624.32355	3377.0625
2626.98416	3363.0625
2629.64311	3350.8625
2632.30041	3357.0625
2634.95605	3341.0625
2637.61004	3334.0625
2640.26238	3308.6625
2642.91306	3313.4625
2645.56209	3337.7625
2648.20948	3324.1625
2650.85521	3300.0625
2653.4993	3327.7625
2656.14175	3318.4625
2658.78255	3310.1625
2661.42171	3272.3625
2664.05923	3307.6625
2666.6951	3323.8625
2669.32934	3329.5625
2671.96194	3342.9625
2674.59291	3312.3625
2677.22224	3319.6625
2679.84993	3319.5625
2682.476	3307.6625
2685.10043	3290.3625
2687.72324	3295.1625
2690.34441	3287.5625
2692.96396	3283.9625
2695.58188	3310.3625
2698.19818	3286.9625
2700.81285	3302.4625
2703.4259	3268.4625
2706.03733	3254.3625
2708.64714	3256.8625
2711.25533	3285.9625
2713.86191	3278.2625
2716.46687	3280.8625
2719.07021	3278.6625
2721.67194	3260.5625
2724.27206	3282.0625
2726.87057	3271.7625
2729.46747	3259.9625
2732.06276	3273.7625
2734.65644	3245.7625
2737.24852	3250.3625
2739.83899	3231.6625
2742.42786	3244.9625
2745.01513	3248.9625
2747.60079	3215.7625
2750.18486	3219.4625
2752.76733	3217.2625
2755.3482	3210.2625
2757.92747	3210.8625
2760.50515	3191.8625
2763.08123	3188.7625
2765.65573	3183.9625
2768.22863	3183.2625
2770.79994	3165.9625
2773.36967	3160.7625
2775.9378	3157.9625
2778.50435	3151.2625
2781.06932	3149.9625
2783.6327	3129.0625
2786.1945	3153.6625
2788.75471	3125.3625
2791.31335	3139.7625
2793.87041	3133.1625
2796.42589	3102.0625
2798.97979	3099.6625
2801.53212	3108.3625
2804.08288	3111.2625
2806.63206	3088.1625
2809.17967	3079.1625
2811.72571	3083.7625
2814.27018	3082.9625
2816.81308	3069.0625
2819.35442	3042.2625
2821.89419	3046.2625
2824.43239	3045.1625
2826.96904	3066.2625
2829.50412	3041.0625
2832.03763	3036.8625
2834.56959	3036.1625
2837.1	3029.1625
2839.62884	3026.0625
2842.15613	3015.2625
2844.68186	3039.4625
2847.20604	2995.7625
2849.72867	3003.1625
2852.24974	2994.3625
2854.76927	2962.7625
2857.28724	2922.8625
2859.80367	2999.6625
2862.31855	2987.1625
2864.83189	2990.1625
2867.34368	2988.8625
2869.85393	2990.9625
2872.36264	2963.5625
2874.8698	2976.1625
2877.37543	2974.3625
2879.87952	2965.9625
2882.38207	2942.9625
2884.88308	2949.5625
2887.38256	2959.5625
2889.88051	2957.6625
2892.37692	2953.1625
2894.8718	2917.4625
2897.36515	2953.3625
2899.85698	2933.8625
2902.34727	2944.4625
2904.83604	2947.5625
2907.32328	2942.8625
2909.809	2953.5625
2912.29319	2942.9625
2914.77587	2954.1625
2917.25702	2979.9625
2919.73665	2974.7625
2922.21476	2963.3625
2924.69136	2957.5625
2927.16644	2941.4625
2929.64	2960.9625
2932.11205	2928.1625
2934.58258	2935.5625
2937.05161	2917.2625
2939.51912	2937.7625
2941.98513	2934.4625
2944.44962	2912.5625
2946.91261	2881.7625
2949.37409	2906.4625
2951.83407	2893.1625
2954.29254	2890.5625
2956.74951	2895.6625
2959.20498	2874.9625
2961.65895	2868.1625
2964.11142	2858.9625
2966.56239	2863.0625
2969.01186	2864.7625
2971.45984	2864.4625
2973.90632	2832.5625
2976.35131	2846.4625
2978.7948	2851.6625
2981.23681	2845.3625
2983.67732	2837.9625
2986.11635	2832.3625
2988.55388	2804.8625
2990.98993	2800.9625
2993.4245	2789.7625
2995.85758	2788.9625
2998.28917	2797.0625
3000.71928	2783.3625
3003.14791	2767.8625
3005.57506	2760.4625
3008.00073	2751.5625
3010.42493	2682.3625
3012.84764	2734.5625
3015.26888	2740.7625
3017.68865	2724.2625
3020.10694	2674.0625
3022.52376	2685.8625
3024.9391	2697.5625
3027.35298	2699.2625
3029.76539	2669.2625
3032.17632	2669.5625
3034.5858	2672.0625
3036.9938	2674.9625
3039.40034	2660.0625
3041.80542	2653.5625
3044.20903	2628.5625
3046.61118	2643.8625
3049.01187	2639.9625
3051.4111	2626.7625
3053.80888	2608.6625
3056.20519	2608.2625
3058.60005	2591.7625
3060.99345	2601.2625
3063.3854	2586.2625
3065.7759	2577.9625
3068.16494	2569.0625
3070.55254	2555.0625
3072.93868	2566.1625
3075.32338	2562.4625
3077.70662	2550.7625
3080.08842	2541.1625
3082.46878	2522.3625
3084.84769	2549.5625
3087.22515	2522.8625
3089.60118	2542.9625
3091.97576	2518.4625
3094.3489	2521.2625
3096.72061	2515.2625
3099.09087	2493.8625
3101.4597	2514.2625
3103.82709	2512.6625
3106.19305	2494.0625
3108.55757	2505.2625
3110.92066	2476.7625
3113.28232	2501.8625
3115.64255	2489.6625
3118.00134	2493.0625
3120.35871	2468.2625
3122.71466	2446.7625
3125.06917	2462.1625
3127.42226	2447.6625
3129.77393	2427.1625
3132.12417	2447.4625
3134.47299	2441.3625
3136.82039	2426.6625
3139.16636	2403.0625
3141.51092	2424.6625
3143.85406	2425.3625
3146.19579	2425.7625
3148.53609	2402.5625
3150.87499	2419.2625
3153.21246	2408.3625
3155.54853	2414.8625
3157.88318	2408.4625
3160.21642	2421.1625
3162.54826	2414.6625
3164.87868	2415.3625
3167.2077	2373.4625
3169.5353	2393.2625
3171.86151	2396.2625
3174.18631	2390.8625
3176.5097	2376.0625
3178.83169	2378.0625
3181.15228	2381.7625
3183.47147	2375.7625
3185.78926	2343.8625
3188.10565	2356.2625
3190.42065	2332.1625
3192.73424	2340.5625
3195.04645	2320.0625
3197.35725	2311.8625
3199.66667	2315.3625
3201.97469	2315.8625
3204.28132	2315.6625
3206.58656	2323.1625
3208.8904	2328.3625
3211.19287	2322.8625
3213.49394	2304.2625
3215.79363	2300.9625
3218.09193	2300.0625
3220.38884	2310.0625
3222.68438	2320.4625
3224.97853	2290.7625
3227.2713	2311.9625
3229.56269	2287.2625
3231.8527	2286.8625
3234.14133	2271.2625
3236.42858	2278.4625
3238.71446	2245.9625
3240.99896	2273.0625
3243.28209	2247.9625
3245.56384	2281.8625
3247.84423	2255.9625
3250.12324	2249.6625
3252.40088	2248.8625
3254.67715	2234.5625
3256.95205	2231.8625
3259.22558	2243.6625
3261.49775	2237.4625
3263.76855	2240.3625
3266.03799	2236.2625
3268.30606	2237.2625
3270.57277	2229.5625
3272.83812	2207.3625
3275.10211	2215.9625
3277.36474	2218.0625
3279.62601	2214.6625
3281.88593	2188.1625
3284.14448	2173.8625
3286.40168	2203.9625
3288.65753	2164.6625
3290.91202	2176.5625
3293.16516	2156.8625
3295.41695	2174.5625
3297.66738	2175.5625
3299.91647	2156.5625
3302.16421	2150.4625
3304.4106	2105.2625
3306.65564	2113.8625
3308.89933	2099.4625
3311.14169	2097.6625
3313.38269	2080.3625
3315.62236	2056.8625
3317.86068	2036.5625
3320.09766	2038.2625
3322.3333	2011.5625
3324.5676	1994.4625
3326.80056	1964.2625
3329.03219	1962.7625
3331.26248	0.0625
3333.49143	-1.3375
3335.71905	1.6625
