Data from AgNPs_APTES_FTO_UA_100uM_CRN_0uM_R6G_10uM_Scan_RamanShift__7__12-12-13-509.txt Node

Date: Thu Jun 23 12:12:13 BST 2022
User: TCL
Spectrometer: QEP01345
Trigger mode: 4
Integration Time (sec): 7.000000E0
Scans to average: 10
Electric dark correction enabled: true
Nonlinearity correction enabled: false
Boxcar width: 0
XAxis mode: Raman Shifts
Number of Pixels in Spectrum: 1044
>>>>>Begin Spectral Data<<<<<
46.04893	-0.0375
50.45542	0.0625
54.85868	-0.1375
59.25871	0.0625
63.6555	32.8625
68.04907	33.3625
72.43941	38.9625
76.82654	46.5625
81.21044	43.8625
85.59113	44.3625
89.96862	51.4625
94.34289	53.7625
98.71396	52.6625
103.08183	51.0625
107.4465	51.0625
111.80798	47.7625
116.16626	52.0625
120.52136	50.0625
124.87327	48.1625
129.222	52.2625
133.56755	51.7625
137.90993	52.3625
142.24913	52.1625
146.58517	54.9625
150.91804	53.4625
155.24774	63.7625
159.57429	68.5625
163.89768	78.3625
168.21792	92.1625
172.53501	111.1625
176.84895	139.9625
181.15975	189.9625
185.46741	259.4625
189.77193	342.7625
194.07331	451.6625
198.37157	587.1625
202.6667	720.9625
206.9587	863.5625
211.24758	1000.6625
215.53334	1143.3625
219.81599	1298.4625
224.09553	1473.6625
228.37195	1640.4625
232.64527	1832.5625
236.91549	2031.9625
241.18261	2215.9625
245.44663	2382.4625
249.70755	2515.7625
253.96539	2644.4625
258.22014	2724.0625
262.4718	2782.0625
266.72039	2794.1625
270.96589	2789.8625
275.20832	2732.4625
279.44768	2664.8625
283.68397	2575.1625
287.91719	2503.4625
292.14735	2434.0625
296.37445	2416.1625
300.59849	2436.9625
304.81948	2485.1625
309.03742	2533.1625
313.25231	2548.4625
317.46415	2493.2625
321.67296	2352.8625
325.87872	2229.5625
330.08145	2152.9625
334.28114	2138.3625
338.47781	2160.3625
342.67145	2189.1625
346.86207	2273.2625
351.04966	2361.4625
355.23424	2455.5625
359.4158	2524.3625
363.59435	2519.7625
367.76989	2499.9625
371.94243	2475.6625
376.11196	2444.6625
380.27849	2420.0625
384.44203	2397.8625
388.60257	2367.6625
392.76012	2362.9625
396.91468	2378.2625
401.06626	2422.0625
405.21485	2436.1625
409.36047	2394.9625
413.50311	2310.1625
417.64277	2229.7625
421.77947	2189.0625
425.9132	2173.5625
430.04396	2182.3625
434.17176	2195.7625
438.2966	2221.1625
442.41849	2247.7625
446.53742	2288.7625
450.6534	2308.5625
454.76644	2345.4625
458.87653	2334.1625
462.98368	2329.0625
467.08789	2326.5625
471.18916	2305.7625
475.2875	2271.1625
479.38291	2270.9625
483.4754	2266.8625
487.56496	2257.8625
491.6516	2249.9625
495.73531	2257.8625
499.81612	2262.5625
503.89401	2277.7625
507.96899	2290.7625
512.04106	2308.1625
516.11023	2330.7625
520.1765	2329.9625
524.23987	2342.2625
528.30034	2332.9625
532.35792	2293.4625
536.41261	2278.3625
540.46441	2248.9625
544.51333	2223.2625
548.55936	2230.7625
552.60252	2250.2625
556.64279	2263.6625
560.6802	2301.0625
564.71473	2341.2625
568.7464	2423.5625
572.7752	2441.3625
576.80114	2345.8625
580.82422	2283.5625
584.84444	2268.4625
588.86181	2278.9625
592.87633	2299.4625
596.888	2354.5625
600.89682	2460.2625
604.9028	2722.1625
608.90594	3368.1625
612.90624	4152.7625
616.90371	4081.3625
620.89834	3174.8625
624.89015	2698.8625
628.87913	2541.0625
632.86528	2524.4625
636.84862	2512.1625
640.82913	2459.3625
644.80683	2363.4625
648.78172	2305.4625
652.75379	2299.8625
656.72306	2355.7625
660.68952	2427.2625
664.65319	2427.1625
668.61405	2364.9625
672.57211	2343.3625
676.52738	2382.8625
680.47986	2435.1625
684.42955	2492.7625
688.37646	2530.9625
692.32058	2515.5625
696.26192	2467.7625
700.20048	2430.7625
704.13626	2410.4625
708.06928	2403.7625
711.99952	2374.7625
715.927	2367.7625
719.85171	2348.9625
723.77365	2336.7625
727.69284	2339.3625
731.60928	2307.2625
735.52295	2313.8625
739.43388	2304.3625
743.34206	2309.5625
747.24749	2296.8625
751.15017	2287.2625
755.05012	2310.1625
758.94733	2384.0625
762.8418	2574.7625
766.73354	2892.2625
770.62254	3202.4625
774.50882	3301.9625
778.39237	3192.6625
782.27321	2920.4625
786.15132	2636.0625
790.02671	2465.0625
793.89938	2376.4625
797.76935	2354.0625
801.6366	2366.2625
805.50115	2359.8625
809.36299	2371.9625
813.22213	2381.1625
817.07857	2375.5625
820.93231	2363.7625
824.78336	2357.8625
828.63172	2344.1625
832.47738	2330.4625
836.32036	2326.0625
840.16066	2321.7625
843.99827	2320.6625
847.8332	2319.1625
851.66546	2318.4625
855.49504	2292.9625
859.32195	2290.4625
863.1462	2293.0625
866.96777	2316.9625
870.78668	2339.2625
874.60293	2365.2625
878.41652	2395.7625
882.22745	2453.7625
886.03573	2517.4625
889.84136	2569.6625
893.64433	2601.3625
897.44466	2619.6625
901.24235	2646.9625
905.0374	2659.0625
908.8298	2674.3625
912.61957	2719.5625
916.40671	2785.3625
920.19121	2856.3625
923.97308	2925.7625
927.75233	2991.8625
931.52895	3013.0625
935.30295	2953.7625
939.07433	2839.1625
942.84309	2706.4625
946.60924	2601.3625
950.37278	2524.4625
954.13371	2453.1625
957.89203	2403.4625
961.64774	2339.5625
965.40086	2315.9625
969.15137	2272.2625
972.89929	2241.8625
976.64461	2210.5625
980.38733	2187.0625
984.12747	2161.7625
987.86502	2157.8625
991.59999	2160.5625
995.33237	2176.0625
999.06217	2170.4625
1002.78939	2184.0625
1006.51404	2208.8625
1010.23611	2235.2625
1013.95561	2238.7625
1017.67255	2238.7625
1021.38692	2236.5625
1025.09872	2227.6625
1028.80796	2213.2625
1032.51465	2207.2625
1036.21877	2203.1625
1039.92035	2221.5625
1043.61937	2217.7625
1047.31584	2219.2625
1051.00976	2220.3625
1054.70114	2228.0625
1058.38998	2198.6625
1062.07627	2187.5625
1065.76003	2176.5625
1069.44126	2156.8625
1073.11995	2157.4625
1076.79611	2159.3625
1080.46974	2187.2625
1084.14085	2217.0625
1087.80943	2266.5625
1091.47549	2258.7625
1095.13903	2224.8625
1098.80005	2148.8625
1102.45857	2101.5625
1106.11456	2089.6625
1109.76805	2105.0625
1113.41903	2142.1625
1117.06751	2205.2625
1120.71348	2280.9625
1124.35696	2386.6625
1127.99793	2513.5625
1131.63641	2544.3625
1135.2724	2444.9625
1138.90589	2345.8625
1142.5369	2288.8625
1146.16542	2216.7625
1149.79145	2176.1625
1153.415	2146.8625
1157.03607	2137.0625
1160.65467	2138.9625
1164.27079	2176.1625
1167.88443	2238.1625
1171.49561	2347.8625
1175.10432	2540.2625
1178.71056	2800.1625
1182.31434	3005.6625
1185.91565	3054.8625
1189.51451	2922.8625
1193.11091	2751.1625
1196.70485	2597.4625
1200.29634	2503.0625
1203.88538	2419.7625
1207.47197	2331.3625
1211.05612	2239.3625
1214.63782	2162.4625
1218.21708	2137.5625
1221.79391	2139.4625
1225.36829	2150.3625
1228.94024	2149.4625
1232.50976	2153.9625
1236.07685	2163.3625
1239.6415	2177.7625
1243.20374	2196.0625
1246.76355	2215.6625
1250.32093	2230.3625
1253.8759	2248.3625
1257.42845	2306.2625
1260.97859	2347.7625
1264.52631	2417.0625
1268.07163	2485.0625
1271.61453	2531.0625
1275.15503	2572.6625
1278.69312	2567.6625
1282.22882	2561.0625
1285.76211	2626.2625
1289.29301	2705.8625
1292.82151	2801.9625
1296.34761	2883.9625
1299.87133	3005.8625
1303.39266	3195.7625
1306.9116	3507.8625
1310.42815	3883.0625
1313.94233	4105.1625
1317.45412	3989.6625
1320.96354	3663.4625
1324.47058	3307.9625
1327.97525	3014.5625
1331.47754	2864.6625
1334.97747	2780.4625
1338.47502	2788.2625
1341.97022	2866.9625
1345.46305	3026.8625
1348.95352	3307.8625
1352.44163	3604.8625
1355.92738	3995.1625
1359.41078	4535.9625
1362.89183	5189.9625
1366.37053	5271.8625
1369.84688	4582.8625
1373.32088	3831.1625
1376.79254	3404.0625
1380.26186	3205.2625
1383.72883	3088.6625
1387.19347	3000.0625
1390.65578	2947.7625
1394.11575	2898.9625
1397.57339	2865.3625
1401.0287	2846.4625
1404.48168	2806.3625
1407.93234	2754.7625
1411.38068	2720.6625
1414.82669	2710.0625
1418.27039	2693.7625
1421.71177	2679.0625
1425.15083	2652.9625
1428.58758	2591.2625
1432.02203	2563.0625
1435.45416	2542.6625
1438.88399	2524.2625
1442.31151	2488.2625
1445.73673	2457.9625
1449.15965	2437.4625
1452.58027	2430.2625
1455.9986	2398.8625
1459.41463	2380.7625
1462.82837	2391.0625
1466.23982	2397.4625
1469.64898	2442.9625
1473.05586	2474.9625
1476.46045	2475.0625
1479.86276	2516.8625
1483.26279	2543.3625
1486.66054	2589.0625
1490.05602	2675.7625
1493.44922	2761.1625
1496.84016	2932.6625
1500.22882	3199.1625
1503.61521	3610.4625
1506.99934	4116.4625
1510.38121	4601.6625
1513.76081	4844.2625
1517.13816	4611.4625
1520.51324	4047.9625
1523.88607	3459.3625
1527.25665	3025.3625
1530.62498	2780.9625
1533.99105	2628.4625
1537.35488	2521.5625
1540.71647	2457.5625
1544.07581	2434.4625
1547.4329	2420.4625
1550.78776	2439.4625
1554.14038	2459.7625
1557.49077	2488.1625
1560.83892	2523.7625
1564.18484	2590.0625
1567.52853	2680.4625
1570.86999	2780.4625
1574.20922	2835.3625
1577.54624	2823.9625
1580.88103	2706.2625
1584.2136	2478.5625
1587.54395	2321.0625
1590.87208	2248.7625
1594.19801	2253.6625
1597.52172	2295.9625
1600.84321	2327.9625
1604.16251	2272.0625
1607.47959	2185.2625
1610.79447	2135.1625
1614.10715	2081.6625
1617.41763	2035.7625
1620.7259	1991.6625
1624.03199	1992.0625
1627.33587	1989.8625
1630.63757	2006.0625
1633.93707	2055.8625
1637.23439	2116.9625
1640.52951	2230.6625
1643.82246	2453.0625
1647.11321	2770.0625
1650.40179	3045.7625
1653.68819	3085.5625
1656.97241	2807.9625
1660.25446	2410.8625
1663.53433	2102.6625
1666.81203	1908.0625
1670.08756	1790.5625
1673.36092	1737.3625
1676.63211	1698.3625
1679.90115	1662.9625
1683.16801	1638.7625
1686.43272	1623.2625
1689.69527	1591.5625
1692.95567	1571.4625
1696.2139	1543.2625
1699.46999	1504.7625
1702.72392	1484.2625
1705.97571	1487.0625
1709.22535	1491.5625
1712.47284	1492.2625
1715.71819	1493.3625
1718.96139	1482.0625
1722.20246	1461.2625
1725.44139	1452.9625
1728.67818	1442.6625
1731.91284	1417.4625
1735.14537	1401.0625
1738.37576	1393.2625
1741.60403	1387.4625
1744.83017	1380.6625
1748.05418	1363.6625
1751.27607	1357.3625
1754.49584	1340.0625
1757.71349	1316.9625
1760.92903	1299.5625
1764.14244	1311.5625
1767.35375	1291.6625
1770.56294	1288.1625
1773.77002	1286.8625
1776.97499	1302.7625
1780.17785	1304.9625
1783.37861	1296.1625
1786.57727	1298.8625
1789.77382	1295.8625
1792.96828	1293.0625
1796.16064	1290.2625
1799.3509	1296.5625
1802.53907	1288.3625
1805.72514	1280.7625
1808.90913	1283.1625
1812.09102	1266.4625
1815.27083	1261.4625
1818.44856	1266.0625
1821.6242	1258.1625
1824.79776	1272.1625
1827.96924	1255.4625
1831.13864	1248.7625
1834.30597	1248.0625
1837.47122	1242.0625
1840.6344	1245.6625
1843.7955	1245.1625
1846.95454	1225.1625
1850.11151	1230.5625
1853.26642	1230.1625
1856.41926	1226.3625
1859.57004	1228.6625
1862.71876	1220.3625
1865.86542	1221.1625
1869.01003	1216.9625
1872.15258	1219.2625
1875.29308	1217.2625
1878.43152	1207.6625
1881.56792	1206.1625
1884.70227	1197.4625
1887.83457	1198.0625
1890.96482	1198.4625
1894.09304	1190.2625
1897.21921	1192.7625
1900.34335	1180.9625
1903.46544	1186.9625
1906.58551	1185.9625
1909.70353	1175.5625
1912.81953	1181.4625
1915.93349	1170.4625
1919.04543	1174.4625
1922.15534	1160.9625
1925.26322	1173.3625
1928.36908	1164.9625
1931.47292	1155.1625
1934.57473	1157.1625
1937.67453	1147.1625
1940.77232	1143.1625
1943.86808	1145.9625
1946.96184	1133.6625
1950.05358	1133.4625
1953.14331	1132.0625
1956.23103	1126.3625
1959.31675	1127.6625
1962.40046	1115.0625
1965.48217	1116.2625
1968.56188	1110.8625
1971.63959	1107.1625
1974.7153	1098.9625
1977.78901	1106.2625
1980.86073	1098.0625
1983.93046	1088.7625
1986.99819	1090.5625
1990.06394	1081.7625
1993.1277	1081.2625
1996.18947	1070.3625
1999.24925	1074.5625
2002.30706	1063.6625
2005.36288	1065.3625
2008.41672	1055.2625
2011.46859	1056.0625
2014.51848	1055.8625
2017.56639	1048.0625
2020.61233	1041.4625
2023.6563	1038.7625
2026.6983	1036.9625
2029.73833	1031.2625
2032.7764	1034.5625
2035.8125	1020.7625
2038.84664	1022.5625
2041.87881	1018.7625
2044.90903	1030.1625
2047.93729	1027.1625
2050.96359	1022.1625
2053.98794	1025.7625
2057.01034	1025.2625
2060.03078	1028.3625
2063.04927	1035.5625
2066.06582	1030.5625
2069.08042	1031.0625
2072.09307	1035.7625
2075.10378	1040.9625
2078.11255	1042.3625
2081.11938	1047.6625
2084.12426	1055.3625
2087.12722	1058.0625
2090.12824	1060.6625
2093.12732	1067.7625
2096.12447	1067.9625
2099.11969	1067.6625
2102.11299	1059.7625
2105.10435	1062.8625
2108.09379	1068.6625
2111.08131	1074.4625
2114.0669	1064.2625
2117.05057	1063.8625
2120.03233	1049.5625
2123.01216	1058.3625
2125.99008	1052.2625
2128.96609	1051.3625
2131.94018	1046.0625
2134.91236	1033.8625
2137.88263	1036.8625
2140.851	1034.2625
2143.81746	1027.5625
2146.78201	1009.5625
2149.74466	1015.0625
2152.7054	1007.5625
2155.66425	994.7625
2158.6212	993.3625
2161.57625	989.9625
2164.52941	981.7625
2167.48067	977.4625
2170.43004	972.0625
2173.37752	979.3625
2176.32311	967.4625
2179.26681	970.5625
2182.20863	975.8625
2185.14856	973.7625
2188.08661	964.2625
2191.02278	965.7625
2193.95707	962.8625
2196.88948	968.2625
2199.82001	961.5625
2202.74867	956.9625
2205.67545	961.4625
2208.60037	951.5625
2211.52341	940.2625
2214.44458	936.5625
2217.36388	938.2625
2220.28132	937.7625
2223.1969	936.2625
2226.11061	928.6625
2229.02246	931.2625
2231.93245	923.7625
2234.84058	922.3625
2237.74686	917.2625
2240.65128	920.5625
2243.55385	917.0625
2246.45456	916.4625
2249.35343	918.3625
2252.25044	907.8625
2255.14561	913.6625
2258.03893	906.4625
2260.93041	903.2625
2263.82004	896.1625
2266.70783	904.8625
2269.59378	907.6625
2272.4779	904.7625
2275.36017	904.9625
2278.24061	897.7625
2281.11922	894.2625
2283.996	894.7625
2286.87094	890.7625
2289.74405	888.2625
2292.61534	889.8625
2295.4848	875.1625
2298.35243	881.8625
2301.21824	875.4625
2304.08223	874.9625
2306.94439	874.9625
2309.80474	875.0625
2312.66327	869.6625
2315.51999	867.5625
2318.37489	864.3625
2321.22797	869.0625
2324.07925	866.5625
2326.92871	856.0625
2329.77637	861.7625
2332.62222	861.1625
2335.46626	851.3625
2338.3085	855.9625
2341.14893	845.3625
2343.98756	844.6625
2346.8244	837.2625
2349.65943	842.5625
2352.49267	849.2625
2355.32411	841.7625
2358.15376	845.3625
2360.98161	841.8625
2363.80768	843.9625
2366.63195	844.4625
2369.45444	848.8625
2372.27514	842.6625
2375.09405	839.6625
2377.91118	846.3625
2380.72652	834.6625
2383.54009	828.9625
2386.35187	826.1625
2389.16188	826.8625
2391.97011	826.3625
2394.77657	821.0625
2397.58125	820.6625
2400.38416	813.4625
2403.18529	808.1625
2405.98466	800.5625
2408.78226	803.0625
2411.57809	810.1625
2414.37216	802.2625
2417.16446	806.1625
2419.955	795.2625
2422.74378	798.1625
2425.5308	795.4625
2428.31606	801.4625
2431.09956	794.6625
2433.88131	789.7625
2436.6613	789.5625
2439.43954	797.9625
2442.21603	785.6625
2444.99077	788.6625
2447.76377	788.9625
2450.53501	788.5625
2453.30451	786.1625
2456.07226	777.7625
2458.83827	782.9625
2461.60254	785.9625
2464.36507	778.2625
2467.12586	775.4625
2469.88492	779.5625
2472.64224	778.9625
2475.39782	775.8625
2478.15167	770.9625
2480.90379	773.4625
2483.65417	773.0625
2486.40283	777.2625
2489.14976	775.4625
2491.89497	775.4625
2494.63845	772.0625
2497.3802	763.9625
2500.12024	770.6625
2502.85855	766.0625
2505.59514	763.4625
2508.33002	764.5625
2511.06318	764.8625
2513.79462	756.6625
2516.52435	751.6625
2519.25237	750.4625
2521.97867	739.2625
2524.70327	739.6625
2527.42616	739.8625
2530.14734	741.2625
2532.86681	735.2625
2535.58458	730.7625
2538.30065	736.6625
2541.01501	735.8625
2543.72768	737.1625
2546.43864	737.7625
2549.14791	727.8625
2551.85548	730.6625
2554.56136	727.8625
2557.26554	730.0625
2559.96803	729.8625
2562.66883	721.5625
2565.36794	724.8625
2568.06536	723.1625
2570.7611	726.5625
2573.45514	717.8625
2576.14751	717.2625
2578.83819	713.6625
2581.52719	714.5625
2584.21451	706.0625
2586.90015	715.6625
2589.58411	706.1625
2592.2664	713.1625
2594.94701	702.3625
2597.62594	702.8625
2600.30321	701.3625
2602.9788	701.1625
2605.65273	696.4625
2608.32498	701.4625
2610.99557	696.3625
2613.66449	695.6625
2616.33175	702.7625
2618.99734	687.6625
2621.66128	693.0625
2624.32355	689.7625
2626.98416	690.9625
2629.64311	681.6625
2632.30041	689.4625
2634.95605	680.7625
2637.61004	679.6625
2640.26238	681.4625
2642.91306	676.5625
2645.56209	675.2625
2648.20948	678.1625
2650.85521	674.3625
2653.4993	679.1625
2656.14175	681.7625
2658.78255	676.8625
2661.42171	676.7625
2664.05923	672.5625
2666.6951	677.9625
2669.32934	677.2625
2671.96194	677.3625
2674.59291	674.2625
2677.22224	679.5625
2679.84993	673.9625
2682.476	674.0625
2685.10043	676.5625
2687.72324	672.2625
2690.34441	672.1625
2692.96396	677.0625
2695.58188	677.4625
2698.19818	670.5625
2700.81285	671.9625
2703.4259	658.4625
2706.03733	621.6625
2708.64714	643.2625
2711.25533	660.6625
2713.86191	661.7625
2716.46687	667.4625
2719.07021	669.0625
2721.67194	681.1625
2724.27206	674.9625
2726.87057	673.3625
2729.46747	674.1625
2732.06276	674.9625
2734.65644	670.2625
2737.24852	674.2625
2739.83899	668.6625
2742.42786	671.8625
2745.01513	664.9625
2747.60079	664.2625
2750.18486	658.6625
2752.76733	662.9625
2755.3482	667.0625
2757.92747	660.5625
2760.50515	649.6625
2763.08123	658.1625
2765.65573	654.8625
2768.22863	656.5625
2770.79994	647.0625
2773.36967	653.3625
2775.9378	651.4625
2778.50435	655.7625
2781.06932	652.5625
2783.6327	651.5625
2786.1945	645.5625
2788.75471	648.8625
2791.31335	645.1625
2793.87041	651.9625
2796.42589	642.7625
2798.97979	640.0625
2801.53212	640.2625
2804.08288	637.1625
2806.63206	633.8625
2809.17967	632.9625
2811.72571	633.5625
2814.27018	636.0625
2816.81308	637.6625
2819.35442	636.6625
2821.89419	630.4625
2824.43239	633.2625
2826.96904	633.3625
2829.50412	630.9625
2832.03763	627.1625
2834.56959	632.0625
2837.1	635.3625
2839.62884	636.2625
2842.15613	627.0625
2844.68186	632.7625
2847.20604	635.7625
2849.72867	641.4625
2852.24974	645.2625
2854.76927	638.3625
2857.28724	624.3625
2859.80367	635.7625
2862.31855	639.8625
2864.83189	639.6625
2867.34368	638.3625
2869.85393	645.9625
2872.36264	646.9625
2874.8698	648.6625
2877.37543	641.4625
2879.87952	645.2625
2882.38207	641.9625
2884.88308	648.2625
2887.38256	652.9625
2889.88051	651.6625
2892.37692	651.1625
2894.8718	655.6625
2897.36515	654.7625
2899.85698	658.9625
2902.34727	661.3625
2904.83604	672.1625
2907.32328	682.3625
2909.809	681.3625
2912.29319	689.3625
2914.77587	691.5625
2917.25702	698.9625
2919.73665	696.9625
2922.21476	696.3625
2924.69136	705.2625
2927.16644	707.4625
2929.64	707.3625
2932.11205	706.0625
2934.58258	702.8625
2937.05161	702.4625
2939.51912	696.7625
2941.98513	694.4625
2944.44962	680.4625
2946.91261	679.4625
2949.37409	679.1625
2951.83407	678.0625
2954.29254	669.5625
2956.74951	663.8625
2959.20498	656.1625
2961.65895	645.1625
2964.11142	650.4625
2966.56239	649.9625
2969.01186	646.7625
2971.45984	654.4625
2973.90632	642.4625
2976.35131	636.4625
2978.7948	638.0625
2981.23681	637.0625
2983.67732	636.5625
2986.11635	635.8625
2988.55388	624.2625
2990.98993	629.9625
2993.4245	621.2625
2995.85758	629.8625
2998.28917	629.0625
3000.71928	627.1625
3003.14791	623.5625
3005.57506	625.1625
3008.00073	627.3625
3010.42493	633.1625
3012.84764	625.5625
3015.26888	629.1625
3017.68865	627.0625
3020.10694	625.0625
3022.52376	630.4625
3024.9391	629.8625
3027.35298	626.3625
3029.76539	631.9625
3032.17632	628.0625
3034.5858	624.0625
3036.9938	635.0625
3039.40034	636.7625
3041.80542	631.0625
3044.20903	626.7625
3046.61118	637.1625
3049.01187	634.4625
3051.4111	634.9625
3053.80888	643.8625
3056.20519	647.1625
3058.60005	643.4625
3060.99345	636.7625
3063.3854	645.6625
3065.7759	639.1625
3068.16494	641.8625
3070.55254	649.8625
3072.93868	652.7625
3075.32338	654.3625
3077.70662	652.9625
3080.08842	658.1625
3082.46878	657.4625
3084.84769	659.8625
3087.22515	663.6625
3089.60118	666.2625
3091.97576	675.6625
3094.3489	668.5625
3096.72061	671.2625
3099.09087	680.5625
3101.4597	691.6625
3103.82709	696.0625
3106.19305	688.4625
3108.55757	694.4625
3110.92066	703.4625
3113.28232	696.1625
3115.64255	711.3625
3118.00134	709.1625
3120.35871	714.7625
3122.71466	718.2625
3125.06917	715.4625
3127.42226	723.9625
3129.77393	724.2625
3132.12417	733.2625
3134.47299	738.5625
3136.82039	743.4625
3139.16636	747.4625
3141.51092	759.0625
3143.85406	764.3625
3146.19579	758.3625
3148.53609	773.7625
3150.87499	775.1625
3153.21246	777.9625
3155.54853	789.1625
3157.88318	794.5625
3160.21642	796.8625
3162.54826	805.9625
3164.87868	807.9625
3167.2077	819.8625
3169.5353	825.1625
3171.86151	831.1625
3174.18631	839.5625
3176.5097	845.5625
3178.83169	846.6625
3181.15228	854.3625
3183.47147	852.2625
3185.78926	854.3625
3188.10565	859.6625
3190.42065	861.4625
3192.73424	867.2625
3195.04645	864.7625
3197.35725	867.8625
3199.66667	881.8625
3201.97469	881.6625
3204.28132	889.2625
3206.58656	896.5625
3208.8904	895.8625
3211.19287	898.8625
3213.49394	906.3625
3215.79363	909.5625
3218.09193	908.2625
3220.38884	907.0625
3222.68438	904.7625
3224.97853	908.4625
3227.2713	916.1625
3229.56269	919.2625
3231.8527	928.6625
3234.14133	918.5625
3236.42858	918.9625
3238.71446	925.8625
3240.99896	932.0625
3243.28209	927.9625
3245.56384	923.9625
3247.84423	926.4625
3250.12324	928.3625
3252.40088	932.4625
3254.67715	926.3625
3256.95205	922.5625
3259.22558	927.8625
3261.49775	932.1625
3263.76855	930.6625
3266.03799	930.1625
3268.30606	929.2625
3270.57277	929.9625
3272.83812	929.6625
3275.10211	924.9625
3277.36474	920.9625
3279.62601	923.6625
3281.88593	923.5625
3284.14448	930.0625
3286.40168	925.1625
3288.65753	924.9625
3290.91202	928.9625
3293.16516	926.9625
3295.41695	927.2625
3297.66738	919.1625
3299.91647	913.3625
3302.16421	913.1625
3304.4106	910.3625
3306.65564	907.9625
3308.89933	899.8625
3311.14169	895.4625
3313.38269	884.5625
3315.62236	882.3625
3317.86068	885.2625
3320.09766	869.4625
3322.3333	869.9625
3324.5676	853.8625
3326.80056	835.5625
3329.03219	839.8625
3331.26248	-0.9375
3333.49143	-0.3375
3335.71905	0.3625
