#Wave		#Intensity
2001.242188	29421.574219
2000.272461	29231.080078
1999.302734	29306.171875
1998.333008	29125.660156
1997.363281	29125.585938
1996.392578	29508.740234
1995.422852	29278.199219
1994.452148	28804.857422
1993.481445	29295.513672
1992.510742	29170.251953
1991.540039	29112.603516
1990.568359	29062.480469
1989.596680	29002.367188
1988.625977	29177.394531
1987.654297	28969.730469
1986.681641	29009.677734
1985.709961	28867.111328
1984.738281	29159.513672
1983.765625	29061.953125
1982.792969	28931.941406
1981.820313	28944.375000
1980.847656	28729.503906
1979.874023	29218.958984
1978.901367	29009.105469
1977.927734	29196.265625
1976.954102	28881.654297
1975.980469	28749.330078
1975.006836	29116.085938
1974.032227	28936.365234
1973.058594	28724.281250
1972.083984	29145.710938
1971.109375	28656.890625
1970.134766	28621.966797
1969.160156	28928.531250
1968.184570	29095.429688
1967.209961	28878.548828
1966.234375	28851.078125
1965.258789	28858.488281
1964.283203	29142.324219
1963.306641	29351.361328
1962.331055	28937.951172
1961.354492	28853.240234
1960.377930	28835.750000
1959.401367	28666.484375
1958.424805	28775.908203
1957.447266	28942.500000
1956.470703	28584.298828
1955.493164	28631.511719
1954.515625	28502.203125
1953.538086	29056.472656
1952.560547	28743.228516
1951.582031	28604.025391
1950.604492	28892.164063
1949.625977	28626.304688
1948.647461	29033.541016
1947.668945	28596.421875
1946.689453	28648.515625
1945.710938	28792.427734
1944.731445	28464.769531
1943.751953	28303.468750
1942.772461	28281.148438
1941.792969	28933.494141
1940.813477	28796.992188
1939.833008	28392.751953
1938.852539	28638.166016
1937.873047	28828.962891
1936.891602	28447.228516
1935.911133	28600.822266
1934.930664	28689.953125
1933.949219	28466.960938
1932.967773	28466.927734
1931.986328	28979.431641
1931.004883	28513.894531
1930.023438	28605.431641
1929.041016	28936.982422
1928.059570	28419.734375
1927.077148	28615.138672
1926.094727	28540.869141
1925.112305	28300.933594
1924.128906	28595.154297
1923.146484	28577.781250
1922.163086	28528.283203
1921.179688	28656.732422
1920.196289	28471.339844
1919.212891	28481.171875
1918.228516	28984.990234
1917.245117	28698.382813
1916.260742	28266.199219
1915.276367	28589.576172
1914.291992	28648.738281
1913.307617	28853.478516
1912.322266	28749.724609
1911.336914	28660.806641
1910.352539	28300.605469
1909.367188	28549.648438
1908.380859	28438.619141
1907.395508	28445.957031
1906.409180	28672.656250
1905.423828	28433.515625
1904.437500	28783.330078
1903.451172	28494.982422
1902.463867	28332.349609
1901.477539	28558.863281
1900.490234	28265.779297
1899.503906	28578.384766
1898.516602	28787.503906
1897.528320	28253.363281
1896.541016	28558.421875
1895.553711	28145.048828
1894.565430	28691.056641
1893.577148	28432.728516
1892.588867	28523.626953
1891.600586	28678.410156
1890.611328	28444.794922
1889.623047	28501.238281
1888.633789	28660.853516
1887.644531	28365.947266
1886.655273	28550.089844
1885.666016	28189.000000
1884.675781	28255.253906
1883.686523	28508.050781
1882.696289	28237.968750
1881.706055	28682.087891
1880.715820	28296.750000
1879.724609	28527.279297
1878.734375	28630.187500
1877.743164	28487.832031
1876.751953	28377.400391
1875.760742	28580.783203
1874.769531	28480.175781
1873.778320	28205.613281
1872.786133	28563.273438
1871.793945	28832.617188
1870.801758	28420.978516
1869.809570	28200.488281
1868.817383	28646.035156
1867.824219	28540.634766
1866.832031	28334.921875
1865.838867	28454.744141
1864.845703	28452.189453
1863.851563	28425.171875
1862.858398	28801.720703
1861.865234	28767.312500
1860.871094	28307.498047
1859.876953	28500.525391
1858.882813	28766.808594
1857.887695	28549.152344
1856.893555	28680.953125
1855.898438	28822.476563
1854.904297	28284.974609
1853.909180	28541.287109
1852.913086	28472.787109
1851.917969	28550.777344
1850.922852	28355.384766
1849.926758	28535.853516
1848.930664	28723.576172
1847.934570	28391.650391
1846.938477	28657.376953
1845.941406	28423.115234
1844.945313	28574.152344
1843.948242	28439.929688
1842.951172	28310.626953
1841.954102	28610.244141
1840.956055	28919.498047
1839.958984	28570.943359
1838.960938	28473.367188
1837.962891	28672.900391
1836.964844	28468.212891
1835.966797	28684.714844
1834.968750	28511.734375
1833.969727	28287.714844
1832.970703	28620.910156
1831.971680	28739.929688
1830.972656	28841.880859
1829.973633	28386.949219
1828.973633	28685.851563
1827.974609	28627.322266
1826.974609	28668.458984
1825.974609	28702.287109
1824.974609	28896.451172
1823.973633	28677.603516
1822.973633	28859.558594
1821.972656	28876.328125
1820.971680	28638.173828
1819.970703	28786.052734
1818.968750	28421.794922
1817.967773	28492.009766
1816.965820	29078.953125
1815.964844	29051.998047
1814.961914	28760.703125
1813.959961	28680.464844
1812.958008	28874.208984
1811.955078	28825.490234
1810.953125	28776.787109
1809.950195	28912.253906
1808.947266	28677.003906
1807.943359	28625.927734
1806.940430	28860.638672
1805.936523	28497.187500
1804.932617	28913.408203
1803.928711	28826.013672
1802.924805	29041.160156
1801.920898	28581.140625
1800.916016	28863.990234
1799.911133	28890.345703
1798.907227	28902.179688
1797.901367	29163.058594
1796.896484	28739.679688
1795.891602	29094.759766
1794.885742	29133.128906
1793.879883	28473.183594
1792.874023	29074.535156
1791.868164	28873.757813
1790.862305	29122.236328
1789.855469	29360.966797
1788.848633	29039.537109
1787.842773	29174.406250
1786.834961	29053.421875
1785.828125	28980.734375
1784.821289	29108.302734
1783.813477	29093.517578
1782.805664	29187.257813
1781.797852	29471.443359
1780.790039	29311.955078
1779.782227	29130.828125
1778.773438	29465.476563
1777.764648	29190.417969
1776.755859	29594.796875
1775.747070	29755.763672
1774.738281	29314.630859
1773.729492	29446.697266
1772.719727	29383.720703
1771.709961	29325.580078
1770.700195	29361.310547
1769.690430	29519.736328
1768.680664	29495.277344
1767.669922	29581.462891
1766.659180	29157.808594
1765.648438	29320.960938
1764.637695	29786.949219
1763.626953	29538.933594
1762.615234	29677.898438
1761.604492	29670.251953
1760.592773	29955.677734
1759.581055	29943.179688
1758.569336	29750.580078
1757.556641	29771.732422
1756.544922	29879.296875
1755.532227	29655.605469
1754.519531	29981.519531
1753.506836	29832.263672
1752.494141	30074.070313
1751.480469	29960.824219
1750.466797	30178.539063
1749.454102	30036.542969
1748.440430	30261.357422
1747.425781	30023.525391
1746.412109	29936.742188
1745.397461	30528.017578
1744.383789	30422.009766
1743.369141	30325.619141
1742.353516	30346.595703
1741.338867	30415.447266
1740.324219	30448.367188
1739.308594	30081.589844
1738.292969	30377.773438
1737.277344	30798.257813
1736.261719	30883.707031
1735.245117	30679.738281
1734.229492	30779.521484
1733.212891	30453.710938
1732.196289	31036.349609
1731.179688	31006.957031
1730.162109	31773.281250
1729.145508	31571.751953
1728.127930	31523.167969
1727.110352	31498.482422
1726.092773	31769.892578
1725.075195	32103.279297
1724.056641	32257.521484
1723.039063	31788.820313
1722.020508	32341.544922
1721.001953	31973.191406
1719.983398	32380.183594
1718.963867	32696.406250
1717.945313	32588.083984
1716.925781	32687.210938
1715.906250	33024.656250
1714.886719	33111.753906
1713.867188	32569.769531
1712.846680	33190.550781
1711.826172	33113.214844
1710.806641	32935.882813
1709.786133	33049.097656
1708.764648	33093.238281
1707.744141	32930.277344
1706.722656	33267.132813
1705.701172	33166.062500
1704.679688	33409.976563
1703.658203	33170.960938
1702.636719	33547.957031
1701.614258	33304.242188
1700.592773	33010.687500
1699.570313	33088.027344
1698.547852	33103.550781
1697.524414	33539.617188
1696.501953	33317.492188
1695.478516	33373.339844
1694.456055	33666.640625
1693.432617	33347.257813
1692.408203	33666.570313
1691.384766	33589.394531
1690.360352	34105.511719
1689.336914	33909.652344
1688.312500	33915.496094
1687.288086	34001.980469
1686.262695	33737.472656
1685.238281	33978.066406
1684.212891	34424.808594
1683.187500	34108.214844
1682.162109	34417.332031
1681.136719	34487.042969
1680.110352	34523.562500
1679.084961	34597.964844
1678.058594	34902.031250
1677.032227	34995.277344
1676.005859	34676.601563
1674.978516	34788.781250
1673.952148	35002.675781
1672.924805	34932.582031
1671.897461	35006.808594
1670.870117	35104.656250
1669.842773	35098.425781
1668.814453	35269.511719
1667.787109	35244.335938
1666.758789	34907.207031
1665.730469	35189.289063
1664.701172	34859.371094
1663.672852	35346.863281
1662.643555	35654.695313
1661.615234	35424.039063
1660.585938	35783.683594
1659.555664	35437.421875
1658.526367	35711.968750
1657.497070	35800.007813
1656.466797	35854.988281
1655.436523	35546.695313
1654.406250	35679.523438
1653.375977	35755.710938
1652.344727	35954.460938
1651.313477	35908.000000
1650.282227	35604.679688
1649.250977	36029.546875
1648.219727	35978.378906
1647.188477	35851.859375
1646.156250	36055.082031
1645.124023	36347.703125
1644.091797	36023.429688
1643.059570	36217.093750
1642.027344	36236.542969
1640.994141	35966.574219
1639.961914	35964.882813
1638.928711	36367.750000
1637.895508	36377.742188
1636.861328	36509.996094
1635.828125	36813.812500
1634.793945	36386.542969
1633.759766	36680.867188
1632.725586	36829.414063
1631.691406	36510.425781
1630.656250	36515.675781
1629.622070	37098.605469
1628.586914	37223.488281
1627.551758	37047.847656
1626.516602	37292.390625
1625.480469	37778.546875
1624.445313	37982.984375
1623.409180	37959.804688
1622.373047	38461.996094
1621.336914	38180.789063
1620.300781	38821.089844
1619.263672	39353.332031
1618.227539	39606.480469
1617.190430	39805.640625
1616.153320	40869.250000
1615.115234	41398.398438
1614.078125	42177.957031
1613.040039	42186.835938
1612.001953	43090.058594
1610.963867	43014.500000
1609.925781	42534.082031
1608.887695	42343.992188
1607.848633	42058.042969
1606.809570	41847.046875
1605.770508	41191.769531
1604.731445	40770.554688
1603.692383	40225.578125
1602.652344	39729.882813
1601.613281	39056.746094
1600.573242	39260.082031
1599.533203	38757.808594
1598.492188	38162.281250
1597.452148	37823.855469
1596.411133	37483.214844
1595.370117	37280.433594
1594.329102	37476.859375
1593.288086	37274.148438
1592.247070	36849.839844
1591.205078	37025.238281
1590.163086	36818.046875
1589.121094	36655.234375
1588.079102	36758.285156
1587.036133	36283.156250
1585.994141	36232.402344
1584.951172	36431.015625
1583.908203	36499.078125
1582.865234	36289.894531
1581.822266	36120.382813
1580.778320	36395.718750
1579.734375	36549.878906
1578.691406	36501.457031
1577.646484	36606.250000
1576.602539	36710.945313
1575.558594	36815.640625
1574.513672	36920.433594
1573.468750	37025.226563
1572.423828	37130.019531
1571.378906	37234.812500
1570.333008	37339.703125
1569.288086	36917.015625
1568.242188	36501.445313
1567.196289	36237.039063
1566.150391	36246.832031
1565.103516	35743.347656
1564.057617	35778.765625
1563.010742	35830.417969
1561.963867	35222.816406
1560.916992	35536.804688
1559.869141	35003.718750
1558.822266	34788.667969
1557.774414	34861.324219
1556.726563	34910.757813
1555.678711	34948.578125
1554.630859	34629.359375
1553.582031	34644.035156
1552.534180	34477.937500
1551.485352	34497.269531
1550.436523	34046.296875
1549.386719	34260.261719
1548.337891	34756.687500
1547.288086	34312.855469
1546.238281	33910.851563
1545.188477	34043.667969
1544.138672	34199.582031
1543.088867	34087.035156
1542.038086	34185.046875
1540.987305	34100.292969
1539.936523	34036.386719
1538.885742	34238.394531
1537.834961	34026.531250
1536.783203	33763.890625
1535.731445	33612.265625
1534.679688	34045.253906
1533.627930	33884.390625
1532.576172	33982.265625
1531.523438	33784.519531
1530.471680	33928.554688
1529.418945	34257.210938
1528.366211	33600.218750
1527.312500	33684.207031
1526.259766	33779.699219
1525.206055	33686.000000
1524.152344	33677.667969
1523.098633	33618.605469
1522.044922	33649.480469
1520.990234	33408.335938
1519.936523	33646.660156
1518.881836	33463.207031
1517.827148	33305.160156
1516.772461	33078.066406
1515.716797	33175.785156
1514.662109	32932.671875
1513.606445	33053.402344
1512.550781	33111.937500
1511.495117	33322.343750
1510.438477	33026.453125
1509.382813	33124.066406
1508.326172	33274.550781
1507.269531	33516.968750
1506.212891	33235.042969
1505.155273	33203.804688
1504.098633	33007.078125
1503.041016	32718.498047
1501.983398	32691.958984
1500.925781	33028.402344
1499.867188	32687.140625
1498.809570	32998.199219
1497.750977	32909.628906
1496.692383	32765.996094
1495.633789	32923.089844
1494.575195	32873.589844
1493.515625	32787.394531
1492.457031	32714.992188
1491.397461	32883.445313
1490.337891	32909.656250
1489.277344	32844.144531
1488.217773	32796.996094
1487.157227	32454.199219
1486.096680	32837.945313
1485.036133	32715.212891
1483.975586	32881.152344
1482.915039	32797.386719
1481.853516	32846.464844
1480.791992	33012.289063
1479.730469	32933.121094
1478.668945	32995.875000
1477.606445	33054.031250
1476.544922	33361.539063
1475.482422	33037.601563
1474.419922	33525.675781
1473.357422	33540.242188
1472.293945	33541.085938
1471.231445	33349.917969
1470.167969	33357.648438
1469.104492	33385.937500
1468.041016	33448.484375
1466.976563	33593.238281
1465.913086	33772.195313
1464.848633	33681.652344
1463.784180	33773.773438
1462.719727	33703.804688
1461.655273	33793.601563
1460.589844	33527.421875
1459.524414	33781.472656
1458.458984	33871.207031
1457.393555	34049.847656
1456.328125	33580.878906
1455.261719	33752.664063
1454.196289	34006.437500
1453.129883	33740.546875
1452.063477	33791.449219
1450.996094	33742.097656
1449.929688	33813.476563
1448.862305	33736.812500
1447.794922	33883.296875
1446.727539	34255.093750
1445.660156	34103.277344
1444.591797	34133.562500
1443.524414	34293.515625
1442.456055	34169.066406
1441.387695	34497.257813
1440.318359	34582.015625
1439.250000	34687.207031
1438.180664	34715.070313
1437.111328	34761.105469
1436.041992	35061.617188
1434.972656	35282.507813
1433.903320	35096.718750
1432.833008	35231.218750
1431.762695	35799.363281
1430.692383	35490.984375
1429.622070	35734.289063
1428.550781	36145.441406
1427.480469	36295.507813
1426.409180	36461.394531
1425.337891	36339.160156
1424.266602	37169.449219
1423.194336	36915.617188
1422.122070	37115.277344
1421.050781	37289.929688
1419.978516	37367.070313
1418.905273	37378.476563
1417.833008	37514.468750
1416.759766	37426.183594
1415.687500	37170.347656
1414.614258	37102.531250
1413.540039	36720.074219
1412.466797	36856.058594
1411.392578	36333.480469
1410.319336	36313.367188
1409.245117	36028.589844
1408.169922	36085.433594
1407.095703	35714.871094
1406.020508	36348.273438
1404.946289	35808.257813
1403.871094	36039.121094
1402.794922	36043.929688
1401.719727	35818.292969
1400.643555	36405.925781
1399.568359	36480.671875
1398.492188	35907.335938
1397.415039	36341.109375
1396.338867	36467.742188
1395.261719	36361.875000
1394.185547	36382.402344
1393.108398	36998.507813
1392.031250	37091.089844
1390.953125	37271.589844
1389.875977	37282.914063
1388.797852	37427.238281
1387.719727	37303.289063
1386.641602	37837.425781
1385.562500	37364.203125
1384.484375	37681.867188
1383.405273	37758.414063
1382.326172	37366.527344
1381.247070	37915.921875
1380.166992	37346.304688
1379.087891	37312.566406
1378.007813	36966.042969
1376.927734	37148.371094
1375.847656	37191.164063
1374.767578	36901.070313
1373.686523	36824.707031
1372.605469	36658.441406
1371.524414	36838.406250
1370.443359	36150.773438
1369.362305	36719.507813
1368.280273	36072.582031
1367.199219	36387.292969
1366.117188	36068.554688
1365.034180	36695.269531
1363.952148	36803.148438
1362.870117	37133.207031
1361.787109	37059.179688
1360.704102	37032.300781
1359.621094	37498.980469
1358.537109	37402.496094
1357.454102	37070.566406
1356.370117	36980.914063
1355.286133	36667.109375
1354.202148	36745.667969
1353.118164	36319.964844
1352.033203	35984.042969
1350.948242	36078.355469
1349.863281	35417.824219
1348.778320	35590.582031
1347.693359	35834.921875
1346.607422	35210.605469
1345.521484	35175.148438
1344.435547	35289.636719
1343.349609	34981.222656
1342.263672	35019.644531
1341.176758	35082.652344
1340.090820	35161.289063
1339.003906	35423.230469
1337.916016	35276.003906
1336.829102	35756.847656
1335.741211	35334.765625
1334.654297	35406.574219
1333.566406	35773.210938
1332.478516	35704.214844
1331.389648	36059.496094
1330.301758	36231.582031
1329.212891	36198.250000
1328.124023	36372.476563
1327.035156	36171.781250
1325.945313	36321.406250
1324.856445	36546.812500
1323.766602	36796.667969
1322.676758	36923.796875
1321.586914	37530.179688
1320.496094	37418.636719
1319.406250	38064.816406
1318.315430	38889.011719
1317.224609	39151.527344
1316.133789	39810.402344
1315.041992	40589.292969
1313.951172	40497.343750
1312.859375	40946.363281
1311.767578	41074.726563
1310.675781	41205.261719
1309.583008	40832.929688
1308.491211	40634.238281
1307.398438	39855.140625
1306.305664	39598.878906
1305.212891	39198.195313
1304.119141	38908.800781
1303.026367	38823.976563
1301.932617	38710.289063
1300.838867	38505.558594
1299.744141	38727.378906
1298.650391	38849.175781
1297.555664	39368.386719
1296.461914	39498.902344
1295.366211	39902.386719
1294.271484	40003.902344
1293.176758	40129.792969
1292.081055	39789.761719
1290.985352	39824.699219
1289.889648	39711.039063
1288.793945	39269.273438
1287.697266	38951.804688
1286.601563	39048.921875
1285.504883	38392.554688
1284.408203	38671.414063
1283.311523	38008.707031
1282.213867	38338.472656
1281.116211	37478.976563
1280.018555	37596.171875
1278.920898	37157.703125
1277.823242	37150.972656
1276.725586	36761.421875
1275.626953	36991.488281
1274.528320	36781.281250
1273.429688	36277.003906
1272.330078	36365.507813
1271.231445	36190.894531
1270.131836	35903.613281
1269.032227	35994.343750
1267.932617	35788.957031
1266.833008	35530.617188
1265.732422	35795.859375
1264.632813	35257.140625
1263.532227	35226.460938
1262.430664	35557.835938
1261.330078	35313.007813
1260.228516	35260.261719
1259.127930	35567.175781
1258.026367	34949.660156
1256.924805	34833.042969
1255.822266	35369.203125
1254.720703	34860.089844
1253.618164	34531.921875
1252.515625	34748.261719
1251.413086	34656.015625
1250.309570	34627.695313
1249.207031	34696.308594
1248.103516	34623.937500
1247.000000	34807.027344
1245.895508	34675.218750
1244.791992	34475.218750
1243.687500	34523.980469
1242.583008	34856.574219
1241.478516	34683.046875
1240.374023	34795.527344
1239.269531	34767.218750
1238.164063	35273.226563
1237.058594	35244.835938
1235.953125	35031.824219
1234.847656	34878.222656
1233.741211	35111.382813
1232.635742	34992.968750
1231.529297	35221.628906
1230.422852	34936.335938
1229.315430	35461.328125
1228.208984	35002.671875
1227.101563	34851.453125
1225.994141	34981.175781
1224.886719	34865.117188
1223.779297	35220.730469
1222.670898	34970.882813
1221.562500	35214.507813
1220.454102	35004.210938
1219.345703	34730.421875
1218.237305	35017.789063
1217.127930	34757.242188
1216.018555	34829.792969
1214.909180	34792.792969
1213.799805	34797.417969
1212.690430	34607.160156
1211.580078	34581.167969
1210.469727	34975.433594
1209.359375	34879.347656
1208.249023	35183.707031
1207.138672	34728.839844
1206.027344	35378.699219
1204.916016	35238.867188
1203.804688	35523.253906
1202.693359	35658.882813
1201.581055	35272.093750
1200.469727	35700.542969
1199.357422	35639.425781
1198.245117	35663.523438
1197.131836	35672.320313
1196.019531	35838.339844
1194.906250	36360.167969
1193.792969	36381.925781
1192.679688	36139.597656
1191.566406	35873.351563
1190.452148	35825.371094
1189.337891	35352.054688
1188.223633	35829.773438
1187.109375	35328.281250
1185.995117	35483.175781
1184.879883	35123.601563
1183.764648	35402.695313
1182.649414	35487.761719
1181.534180	35472.585938
1180.418945	35054.460938
1179.302734	35085.097656
1178.186523	34636.710938
1177.070313	34900.339844
1175.954102	35000.632813
1174.837891	34757.058594
1173.720703	34400.433594
1172.603516	34420.269531
1171.486328	34498.820313
1170.369141	34601.261719
1169.250977	34203.609375
1168.132813	34421.269531
1167.015625	34165.062500
1165.896484	34384.824219
1164.778320	34413.316406
1163.660156	34548.234375
1162.541016	34446.378906
1161.421875	34416.210938
1160.302734	34197.183594
1159.182617	34358.082031
1158.063477	33963.351563
1156.943359	34163.289063
1155.823242	34254.683594
1154.703125	34189.871094
1153.582031	34433.023438
1152.461914	33977.925781
1151.340820	34420.464844
1150.219727	34011.046875
1149.097656	34043.847656
1147.976563	33929.304688
1146.854492	34276.210938
1145.732422	34228.804688
1144.610352	34170.589844
1143.488281	34510.761719
1142.365234	34599.707031
1141.243164	34814.144531
1140.120117	34571.933594
1138.996094	34892.304688
1137.873047	34924.871094
1136.750000	35011.488281
1135.625977	35301.328125
1134.501953	34840.890625
1133.377930	35117.683594
1132.252930	34717.953125
1131.127930	35249.625000
1130.003906	35016.355469
1128.878906	35161.156250
1127.752930	34949.582031
1126.627930	35478.660156
1125.501953	34774.910156
1124.375977	34852.734375
1123.250000	34949.945313
1122.124023	34792.535156
1120.997070	34915.605469
1119.871094	34756.097656
1118.744141	34391.789063
1117.617188	34650.691406
1116.489258	34721.957031
1115.362305	34569.058594
1114.234375	34491.632813
1113.106445	34651.218750
1111.978516	34685.808594
1110.849609	34517.949219
1109.721680	34591.308594
1108.592773	34240.535156
1107.463867	34684.128906
1106.333984	34789.695313
1105.205078	34774.726563
1104.075195	34811.390625
1102.945313	34587.789063
1101.815430	34510.500000
1100.685547	34650.390625
1099.554688	34730.039063
1098.424805	34833.300781
1097.293945	34915.031250
1096.162109	34955.914063
1095.031250	34397.457031
1093.899414	34760.566406
1092.768555	34483.648438
1091.636719	34767.171875
1090.503906	34859.546875
1089.372070	34541.980469
1088.239258	34546.386719
1087.106445	34428.507813
1085.973633	34514.437500
1084.840820	34345.132813
1083.708008	34548.972656
1082.574219	34392.585938
1081.440430	34643.492188
1080.306641	34849.308594
1079.171875	34422.976563
1078.038086	34573.054688
1076.903320	34780.906250
1075.768555	34179.218750
1074.633789	34551.921875
1073.498047	34430.000000
1072.363281	34436.535156
1071.227539	34259.039063
1070.091797	34648.562500
1068.956055	34804.785156
1067.819336	34332.175781
1066.682617	34426.382813
1065.546875	34916.066406
1064.409180	35005.855469
1063.272461	34687.425781
1062.135742	34403.292969
1060.998047	34572.167969
1059.860352	34657.675781
1058.722656	34365.160156
1057.583984	34792.296875
1056.446289	34198.859375
1055.307617	34935.347656
1054.168945	34517.085938
1053.029297	34604.636719
1051.890625	34397.769531
1050.750977	34372.265625
1049.611328	34242.285156
1048.471680	34442.808594
1047.332031	34474.863281
1046.191406	34270.332031
1045.051758	33912.457031
1043.911133	34394.109375
1042.769531	34519.863281
1041.628906	34289.914063
1040.487305	34445.449219
1039.346680	34398.679688
1038.205078	34422.167969
1037.062500	34417.980469
1035.920898	34307.402344
1034.778320	34428.746094
1033.635742	34411.792969
1032.493164	34205.582031
1031.350586	34526.730469
1030.207031	34292.933594
1029.063477	34133.613281
1027.919922	34335.593750
1026.776367	34044.593750
1025.632813	34633.121094
1024.488281	34705.343750
1023.343750	34391.070313
1022.199219	34157.589844
1021.054688	34679.855469
1019.910156	34580.109375
1018.764648	34259.718750
1017.619141	34751.972656
1016.473633	34397.730469
1015.327148	34611.964844
1014.181641	34109.453125
1013.035156	34319.417969
1011.888672	34463.597656
1010.742188	34533.554688
1009.594727	34321.687500
1008.448242	34467.902344
1007.300781	34368.375000
1006.153320	34656.402344
1005.005859	34724.132813
1003.857422	35105.125000
1002.708984	34971.687500
1001.560547	35375.765625
1000.412109	35877.015625
999.263672	35713.890625
998.114258	35717.898438
996.965820	35584.460938
995.816406	36078.953125
994.666016	35624.214844
993.516602	36181.917969
992.366211	35156.835938
991.215820	35530.621094
990.065430	35517.750000
988.915039	35306.375000
987.763672	35304.101563
986.613281	35069.621094
985.461914	35510.613281
984.309570	35392.238281
983.158203	35356.187500
982.005859	35579.605469
980.854492	34944.566406
979.701172	35450.535156
978.548828	35119.335938
977.396484	35622.976563
976.243164	35454.140625
975.089844	35434.972656
973.936523	35148.257813
972.783203	35436.667969
971.628906	34933.144531
970.474609	35189.902344
969.320313	35191.843750
968.166016	35094.855469
967.010742	34987.382813
965.856445	34850.492188
964.701172	35020.773438
963.545898	35222.539063
962.390625	34862.777344
961.234375	35335.707031
960.078125	34990.769531
958.921875	35322.687500
957.765625	35332.988281
956.609375	35105.882813
955.452148	35494.308594
954.294922	35305.054688
953.137695	35514.820313
951.980469	35302.539063
950.822266	35373.691406
949.665039	34953.753906
948.506836	34985.074219
947.347656	35207.285156
946.189453	35135.773438
945.030273	35074.773438
943.872070	35519.078125
942.712891	35411.910156
941.552734	35206.269531
940.393555	35325.507813
939.233398	35287.562500
938.073242	35408.832031
936.913086	35634.769531
935.752930	35301.539063
934.591797	35688.613281
933.430664	35587.835938
932.269531	35692.187500
931.108398	35553.781250
929.947266	35892.398438
928.785156	35661.972656
927.623047	35868.695313
926.460938	35629.988281
925.298828	36043.593750
924.135742	36156.074219
922.972656	35829.675781
921.810547	36222.117188
920.646484	36133.960938
919.483398	36446.835938
918.319336	36177.000000
917.155273	36566.992188
915.991211	36658.343750
914.827148	36566.007813
913.662109	36379.804688
912.498047	36865.429688
911.333008	36791.875000
910.167969	37016.562500
909.001953	37245.332031
907.836914	37319.753906
906.670898	37292.015625
905.504883	37441.417969
904.337891	37142.804688
903.171875	37123.441406
902.004883	37295.695313
900.837891	36966.039063
899.670898	36957.125000
898.503906	37183.429688
897.335938	36831.074219
896.167969	37090.609375
895.000000	37000.535156
893.832031	36933.375000
892.663086	36689.460938
891.495117	36971.699219
890.326172	36935.753906
889.156250	36673.265625
887.987305	36506.468750
886.817383	36528.804688
885.648438	36733.937500
884.478516	36749.988281
883.307617	36880.246094
882.137695	37186.929688
880.966797	36908.117188
879.795898	37272.789063
878.625000	37573.000000
877.454102	37771.437500
876.282227	37517.609375
875.110352	37991.808594
873.938477	38237.746094
872.766602	38106.281250
871.593750	38298.210938
870.421875	37876.648438
869.249023	38159.710938
868.076172	37930.984375
866.902344	38302.996094
865.729492	38869.523438
864.555664	38907.875000
863.381836	38540.476563
862.207031	39487.464844
861.033203	39533.949219
859.858398	39576.281250
858.683594	39436.566406
857.508789	39445.804688
856.333984	39262.734375
855.158203	39230.652344
853.982422	38822.386719
852.806641	38554.796875
851.630859	38710.886719
850.454102	38881.375000
849.278320	38733.718750
848.101563	38652.195313
846.924805	38634.707031
845.747070	38831.914063
844.570313	39076.515625
843.392578	39081.652344
842.214844	38810.320313
841.036133	39502.410156
839.858398	39460.023438
838.679688	39708.394531
837.500977	40639.078125
836.322266	40394.496094
835.143555	40578.667969
833.963867	40391.878906
832.784180	40269.019531
831.604492	40335.699219
830.424805	39957.531250
829.244141	39505.382813
828.063477	39397.183594
826.882813	39393.988281
825.702148	39040.964844
824.521484	38860.894531
823.339844	38707.628906
822.158203	38749.804688
820.976563	38752.894531
819.794922	38334.519531
818.612305	38395.234375
817.430664	38550.464844
816.248047	38576.183594
815.064453	38868.960938
813.881836	38266.082031
812.698242	38622.468750
811.514648	38414.078125
810.331055	38335.093750
809.147461	38301.292969
807.962891	38640.980469
806.778320	38814.355469
805.593750	38813.300781
804.409180	38849.160156
803.224609	39124.921875
802.039063	38621.503906
800.853516	38563.082031
799.667969	38107.093750
798.482422	38251.640625
797.295898	38217.898438
796.109375	38028.496094
794.922852	37787.968750
793.736328	37611.000000
792.548828	37558.972656
791.362305	37506.960938
790.174805	37366.972656
788.986328	37744.671875
787.798828	37185.335938
786.610352	37493.390625
785.421875	37339.187500
784.233398	37606.203125
783.044922	37139.285156
781.856445	37308.136719
780.666992	36884.355469
779.477539	37149.210938
778.288086	36897.187500
777.097656	37063.910156
775.907227	37057.015625
774.717773	36978.671875
773.526367	36975.871094
772.335938	36905.730469
771.144531	37094.730469
769.954102	36816.515625
768.762695	36923.878906
767.570313	37159.667969
766.378906	37273.039063
765.186523	37451.593750
763.994141	37513.914063
762.801758	37431.535156
761.609375	37660.890625
760.416016	37413.523438
759.222656	37964.558594
758.029297	37764.058594
756.835938	38131.601563
755.641602	38305.648438
754.447266	38121.468750
753.252930	38301.550781
752.058594	37867.226563
750.864258	37732.039063
749.668945	37985.296875
748.473633	37860.296875
747.278320	37786.164063
746.083008	37750.667969
744.886719	37546.535156
743.690430	37545.632813
742.494141	37268.484375
741.297852	36837.093750
740.100586	37128.703125
738.904297	37004.039063
737.707031	37041.792969
736.509766	36777.164063
735.311523	36922.476563
734.113281	36822.277344
732.916016	37308.257813
731.716797	36840.992188
730.518555	37156.480469
729.320313	37019.820313
728.121094	36974.406250
726.921875	36726.382813
725.721680	36731.687500
724.522461	36716.730469
723.322266	36728.109375
722.122070	36869.062500
720.921875	36677.964844
719.721680	36497.054688
718.520508	36631.898438
717.319336	36631.128906
716.118164	36780.054688
714.916992	36807.574219
713.714844	37124.242188
712.513672	36850.441406
711.311523	37162.937500
710.108398	37372.246094
708.906250	37478.421875
707.703125	37527.992188
706.500000	37422.011719
705.296875	37303.949219
704.093750	37603.886719
702.889648	37471.703125
701.685547	37513.144531
700.481445	37479.902344
699.277344	37708.960938
698.072266	37623.246094
696.868164	37946.980469
695.663086	38367.378906
694.457031	38190.859375
693.251953	38091.000000
692.045898	38293.476563
690.839844	38123.109375
689.633789	38184.476563
688.427734	38344.519531
687.220703	38375.617188
686.013672	38100.652344
684.806641	38141.843750
683.599609	37951.554688
682.391602	37612.425781
681.184570	37879.019531
679.976563	37550.082031
678.767578	37335.906250
677.559570	37340.988281
676.350586	37529.019531
675.141602	37735.066406
673.932617	37521.007813
672.723633	37630.531250
671.513672	37577.285156
670.303711	37650.597656
669.093750	37569.250000
667.883789	37550.171875
666.672852	37715.785156
665.462891	37375.554688
664.251953	37334.445313
663.040039	37389.652344
661.829102	37196.101563
660.617188	37489.972656
659.405273	37438.839844
658.193359	37299.515625
656.981445	37549.097656
655.768555	36888.746094
654.555664	37649.250000
653.342773	37688.273438
652.129883	37004.222656
650.916016	37674.160156
649.702148	37881.335938
648.488281	37908.273438
647.274414	38453.566406
646.059570	38650.472656
644.845703	39041.367188
643.630859	39306.093750
642.416016	39458.722656
641.200195	39255.375000
639.984375	39305.992188
638.769531	39558.472656
637.552734	38965.515625
636.336914	38988.183594
635.120117	38735.160156
633.904297	38715.914063
632.687500	38660.730469
631.469727	38256.167969
630.252930	38250.992188
629.035156	37667.027344
627.817383	37845.539063
626.599609	37762.632813
625.380859	37639.855469
624.163086	37684.648438
622.944336	37496.132813
621.724609	37877.843750
620.505859	37629.562500
619.286133	37915.449219
618.066406	37559.656250
616.846680	37797.636719
615.626953	37569.464844
614.406250	37478.777344
613.186523	37859.980469
611.965820	37612.015625
610.744141	37955.234375
609.523438	37995.863281
608.301758	37982.765625
607.080078	37603.675781
605.858398	37884.980469
604.635742	38372.960938
603.414063	37876.718750
602.191406	37708.609375
600.968750	37949.933594
599.745117	38197.121094
598.522461	37943.625000
597.298828	38156.957031
596.075195	38010.789063
594.850586	38283.582031
593.626953	38244.632813
592.402344	38356.523438
591.177734	38579.488281
589.953125	38965.042969
588.727539	38834.746094
587.501953	38639.054688
586.276367	38752.738281
585.050781	39217.261719
583.825195	39045.382813
582.598633	39388.792969
581.372070	39371.480469
580.145508	39764.218750
578.917969	39475.511719
577.691406	39689.863281
576.463867	40252.574219
575.236328	40049.046875
574.007813	40603.554688
572.780273	40451.476563
571.551758	40443.871094
570.323242	40374.949219
569.094727	40076.656250
567.865234	40203.566406
566.635742	40029.953125
565.406250	39399.851563
564.176758	39522.855469
562.947266	39513.445313
561.716797	39476.378906
560.486328	39231.957031
559.255859	39321.328125
558.024414	39122.433594
556.793945	38919.660156
555.562500	39018.902344
554.331055	38451.203125
553.098633	38479.472656
551.867188	38401.226563
550.634766	38246.097656
549.402344	38445.914063
548.168945	38107.511719
546.936523	38451.144531
545.703125	38475.429688
544.469727	38523.347656
543.236328	38135.933594
542.001953	38524.589844
540.767578	38082.187500
539.533203	38039.578125
538.298828	38457.550781
537.064453	38013.437500
535.829102	38063.332031
534.593750	38404.339844
533.358398	38448.238281
532.122070	38610.105469
530.886719	38760.109375
529.650391	38862.878906
528.414063	38859.484375
527.176758	39060.437500
525.940430	39113.976563
524.703125	39344.265625
523.465820	38786.984375
522.227539	38720.765625
520.990234	39151.226563
519.751953	39067.296875
518.513672	38720.449219
517.275391	38879.910156
516.036133	38915.734375
514.796875	39410.460938
513.557617	39575.582031
512.318359	39321.093750
511.079102	39207.832031
509.838867	39361.128906
508.598633	39179.320313
507.358398	39179.761719
506.117188	39137.113281
504.876953	38986.773438
503.635742	38969.625000
502.394531	39181.511719
501.152344	39164.328125
499.911133	39141.281250
498.668945	39022.378906
497.425781	38838.964844
496.183594	39211.031250
494.941406	39383.515625
493.698242	39405.398438
492.455078	38928.863281
491.210938	39652.378906
489.967773	39162.296875
488.723633	39594.421875
487.479492	39643.582031
486.235352	39093.242188
484.990234	39581.750000
483.745117	39781.179688
482.500000	39797.082031
481.254883	39643.218750
480.008789	40016.144531
478.763672	40275.800781
477.517578	40034.171875
476.271484	40204.031250
475.024414	40432.308594
473.777344	40348.652344
472.530273	40307.898438
471.283203	40031.414063
470.036133	40399.792969
468.788086	40598.593750
467.540039	40598.703125
466.291992	40573.503906
465.043945	40653.421875
463.794922	40141.699219
462.545898	40682.796875
461.296875	40898.812500
460.047852	41283.960938
458.797852	41404.492188
457.547852	41134.187500
456.297852	41394.656250
455.047852	40972.859375
453.796875	41073.921875
452.545898	41670.347656
451.294922	41483.757813
450.043945	42011.906250
448.792969	42126.277344
447.541016	42269.726563
446.289063	42267.546875
445.036133	42705.871094
443.784180	42647.339844
442.531250	42928.296875
441.278320	42772.769531
440.025391	42609.542969
438.771484	42512.292969
437.518555	42095.246094
436.264648	42002.000000
435.010742	40963.230469
433.755859	41453.343750
432.500977	40910.910156
431.246094	40877.984375
429.991211	40626.285156
428.736328	40136.574219
427.480469	40699.917969
426.224609	40434.839844
424.968750	40311.097656
423.712891	40179.660156
422.456055	40129.496094
421.199219	40578.214844
419.942383	40303.738281
418.685547	40201.386719
417.427734	40423.730469
416.169922	40514.601563
414.912109	40566.804688
413.654297	40354.382813
412.395508	40379.558594
411.136719	40227.097656
409.877930	40219.468750
408.619141	40370.093750
407.359375	40140.535156
406.099609	40213.945313
404.839844	40383.769531
403.580078	40399.246094
402.319336	40424.359375
401.059570	40493.796875
