#Wave		#Intensity
2001.242188	30489.353516
2000.272461	30481.833984
1999.302734	30205.855469
1998.333008	30318.349609
1997.363281	30217.857422
1996.392578	30450.535156
1995.422852	30259.898438
1994.452148	30702.812500
1993.481445	30607.326172
1992.510742	30251.558594
1991.540039	30646.689453
1990.568359	30388.621094
1989.596680	30305.759766
1988.625977	30330.482422
1987.654297	30337.689453
1986.681641	29984.833984
1985.709961	30217.093750
1984.738281	30194.318359
1983.765625	30166.550781
1982.792969	30223.748047
1981.820313	30450.800781
1980.847656	30472.957031
1979.874023	30120.500000
1978.901367	30102.751953
1977.927734	30379.593750
1976.954102	30386.765625
1975.980469	30653.474609
1975.006836	30433.533203
1974.032227	30368.339844
1973.058594	30188.431641
1972.083984	30245.501953
1971.109375	30055.701172
1970.134766	30122.744141
1969.160156	30429.044922
1968.184570	30279.183594
1967.209961	30034.687500
1966.234375	29949.716797
1965.258789	30098.910156
1964.283203	30155.904297
1963.306641	29986.294922
1962.331055	30289.750000
1961.354492	30077.859375
1960.377930	30366.257813
1959.401367	30363.433594
1958.424805	30273.539063
1957.447266	30034.433594
1956.470703	29964.521484
1955.493164	30260.140625
1954.515625	30423.894531
1953.538086	30065.619141
1952.560547	29814.328125
1951.582031	29898.560547
1950.604492	29798.925781
1949.625977	30126.546875
1948.647461	29803.398438
1947.668945	29927.296875
1946.689453	29944.400391
1945.710938	29924.267578
1944.731445	30189.531250
1943.751953	29680.554688
1942.772461	29767.148438
1941.792969	29774.339844
1940.813477	29756.726563
1939.833008	29664.734375
1938.852539	29714.080078
1937.873047	29530.416016
1936.891602	30038.230469
1935.911133	29668.738281
1934.930664	29732.908203
1933.949219	29730.177734
1932.967773	29616.005859
1931.986328	29539.013672
1931.004883	29798.728516
1930.023438	29588.070313
1929.041016	29850.156250
1928.059570	29706.367188
1927.077148	29700.619141
1926.094727	29694.871094
1925.112305	29689.123047
1924.128906	29683.369141
1923.146484	29677.621094
1922.163086	29671.869141
1921.179688	29666.115234
1920.196289	29660.361328
1919.212891	29654.607422
1918.228516	29683.990234
1917.245117	29844.244141
1916.260742	29441.488281
1915.276367	29498.044922
1914.291992	29835.957031
1913.307617	29690.060547
1912.322266	29292.544922
1911.336914	29361.416016
1910.352539	29417.929688
1909.367188	29420.169922
1908.380859	29767.595703
1907.395508	29700.744141
1906.409180	29237.087891
1905.423828	29862.830078
1904.437500	29362.347656
1903.451172	29763.669922
1902.463867	29421.013672
1901.477539	29711.365234
1900.490234	29317.128906
1899.503906	29085.503906
1898.516602	29791.718750
1897.528320	29254.941406
1896.541016	29244.888672
1895.553711	29689.939453
1894.565430	29470.744141
1893.577148	29654.927734
1892.588867	29312.876953
1891.600586	29551.103516
1890.611328	29012.560547
1889.623047	29265.498047
1888.633789	29402.865234
1887.644531	29296.984375
1886.655273	29173.947266
1885.666016	28937.988281
1884.675781	29303.654297
1883.686523	29219.953125
1882.696289	29224.640625
1881.706055	29317.667969
1880.715820	29310.064453
1879.724609	29432.478516
1878.734375	28696.410156
1877.743164	29100.896484
1876.751953	29235.539063
1875.760742	29448.576172
1874.769531	28972.818359
1873.778320	29102.507813
1872.786133	29305.654297
1871.793945	28859.564453
1870.801758	29194.937500
1869.809570	29086.957031
1868.817383	29052.464844
1867.824219	28969.025391
1866.832031	28799.951172
1865.838867	29294.095703
1864.845703	29024.707031
1863.851563	28897.294922
1862.858398	29070.757813
1861.865234	29043.638672
1860.871094	29219.458984
1859.876953	28925.871094
1858.882813	28923.228516
1857.887695	28908.369141
1856.893555	29301.531250
1855.898438	28820.035156
1854.904297	28565.845703
1853.909180	28949.089844
1852.913086	29022.125000
1851.917969	28843.705078
1850.922852	28765.412109
1849.926758	28918.966797
1848.930664	29309.125000
1847.934570	29069.791016
1846.938477	29289.058594
1845.941406	29069.318359
1844.945313	28954.490234
1843.948242	28939.644531
1842.951172	29175.835938
1841.954102	29134.150391
1840.956055	29048.625000
1839.958984	29520.953125
1838.960938	29250.289063
1837.962891	29018.679688
1836.964844	29166.955078
1835.966797	29203.201172
1834.968750	29127.482422
1833.969727	29112.621094
1832.970703	29251.037109
1831.971680	29058.585938
1830.972656	29367.207031
1829.973633	29067.806641
1828.973633	29371.453125
1827.974609	29351.695313
1826.974609	29205.566406
1825.974609	29052.197266
1824.974609	29156.408203
1823.973633	28859.785156
1822.973633	29248.140625
1821.972656	29208.994141
1820.971680	29283.966797
1819.970703	29363.763672
1818.968750	29280.929688
1817.967773	29013.708984
1816.965820	29122.621094
1815.964844	29498.318359
1814.961914	29095.382813
1813.959961	29398.205078
1812.958008	29155.435547
1811.955078	29014.556641
1810.953125	29343.888672
1809.950195	29154.562500
1808.947266	29144.578125
1807.943359	29216.951172
1806.940430	29657.412109
1805.936523	29475.423828
1804.932617	29644.535156
1803.928711	29392.416016
1802.924805	29353.351563
1801.920898	28890.859375
1800.916016	29309.130859
1799.911133	29098.363281
1798.907227	29284.285156
1797.901367	29499.154297
1796.896484	29757.462891
1795.891602	29353.390625
1794.885742	29459.380859
1793.879883	29838.369141
1792.874023	29108.355469
1791.868164	29714.318359
1790.862305	29368.564453
1789.855469	29406.843750
1788.848633	29338.888672
1787.842773	29555.771484
1786.834961	29497.462891
1785.828125	29460.890625
1784.821289	29839.267578
1783.813477	29983.544922
1782.805664	29505.583984
1781.797852	29239.972656
1780.790039	29545.794922
1779.782227	29376.677734
1778.773438	29863.105469
1777.764648	29812.054688
1776.755859	29500.845703
1775.747070	29681.097656
1774.738281	29697.531250
1773.729492	29957.138672
1772.719727	29682.228516
1771.709961	29864.724609
1770.700195	29960.521484
1769.690430	29868.611328
1768.680664	29918.666016
1767.669922	29877.302734
1766.659180	29886.453125
1765.648438	29864.343750
1764.637695	29835.027344
1763.626953	29788.896484
1762.615234	30026.343750
1761.604492	29912.919922
1760.592773	30063.777344
1759.581055	29779.857422
1758.569336	30002.724609
1757.556641	30045.441406
1756.544922	30373.802734
1755.532227	29960.417969
1754.519531	30108.701172
1753.506836	30192.152344
1752.494141	29800.603516
1751.480469	30327.779297
1750.466797	30471.093750
1749.454102	30252.322266
1748.440430	30103.146484
1747.425781	30596.337891
1746.412109	30574.154297
1745.397461	30401.037109
1744.383789	30225.583984
1743.369141	30495.664063
1742.353516	30645.919922
1741.338867	30018.015625
1740.324219	30264.048828
1739.308594	30653.591797
1738.292969	30763.029297
1737.277344	30984.871094
1736.261719	30871.746094
1735.245117	30761.052734
1734.229492	30846.474609
1733.212891	31051.406250
1732.196289	31069.814453
1731.179688	31327.207031
1730.162109	31651.416016
1729.145508	31390.181641
1728.127930	31635.435547
1727.110352	31603.564453
1726.092773	31574.091797
1725.075195	31995.845703
1724.056641	32037.919922
1723.039063	32562.062500
1722.020508	32642.197266
1721.001953	32407.390625
1719.983398	32666.417969
1718.963867	32903.886719
1717.945313	32998.207031
1716.925781	32806.410156
1715.906250	32824.437500
1714.886719	32887.734375
1713.867188	33153.542969
1712.846680	33445.460938
1711.826172	33399.042969
1710.806641	33176.410156
1709.786133	33220.535156
1708.764648	33062.289063
1707.744141	33315.875000
1706.722656	33586.027344
1705.701172	33825.148438
1704.679688	33383.808594
1703.658203	33465.898438
1702.636719	33714.421875
1701.614258	33646.628906
1700.592773	33704.851563
1699.570313	33782.066406
1698.547852	33414.859375
1697.524414	33508.730469
1696.501953	33699.960938
1695.478516	33268.832031
1694.456055	34162.957031
1693.432617	33893.351563
1692.408203	33861.230469
1691.384766	34028.488281
1690.360352	34036.691406
1689.336914	34184.875000
1688.312500	34110.019531
1687.288086	34087.367188
1686.262695	34460.738281
1685.238281	34359.789063
1684.212891	34557.558594
1683.187500	34390.257813
1682.162109	34334.394531
1681.136719	34714.492188
1680.110352	35021.019531
1679.084961	35244.542969
1678.058594	34781.265625
1677.032227	34933.718750
1676.005859	35126.363281
1674.978516	34833.750000
1673.952148	34822.835938
1672.924805	35081.636719
1671.897461	35439.691406
1670.870117	35629.703125
1669.842773	35578.449219
1668.814453	35725.804688
1667.787109	36343.507813
1666.758789	35370.429688
1665.730469	35770.578125
1664.701172	35712.250000
1663.672852	35413.003906
1662.643555	35425.609375
1661.615234	35339.031250
1660.585938	35377.613281
1659.555664	35387.851563
1658.526367	35671.847656
1657.497070	35873.156250
1656.466797	35444.488281
1655.436523	36051.472656
1654.406250	35830.457031
1653.375977	35831.164063
1652.344727	35999.253906
1651.313477	35653.433594
1650.282227	35984.101563
1649.250977	36029.546875
1648.219727	36400.074219
1647.188477	36019.093750
1646.156250	36106.890625
1645.124023	36312.386719
1644.091797	36280.035156
1643.059570	36308.890625
1642.027344	36380.097656
1640.994141	36343.039063
1639.961914	36564.769531
1638.928711	36807.585938
1637.895508	36417.722656
1636.861328	36601.695313
1635.828125	36863.179688
1634.793945	36826.066406
1633.759766	37066.265625
1632.725586	36859.960938
1631.691406	37118.855469
1630.656250	37286.058594
1629.622070	37643.414063
1628.586914	37481.753906
1627.551758	37773.214844
1626.516602	37916.707031
1625.480469	37905.265625
1624.445313	38485.074219
1623.409180	38745.648438
1622.373047	39003.781250
1621.336914	39346.242188
1620.300781	39618.238281
1619.263672	40110.488281
1618.227539	40258.031250
1617.190430	40841.378906
1616.153320	41253.484375
1615.115234	42178.441406
1614.078125	42644.023438
1613.040039	43221.839844
1612.001953	43687.066406
1610.963867	43826.757813
1609.925781	43715.976563
1608.887695	43015.562500
1607.848633	42783.304688
1606.809570	42841.179688
1605.770508	42307.335938
1604.731445	41715.226563
1603.692383	40662.761719
1602.652344	40580.718750
1601.613281	40400.546875
1600.573242	40017.152344
1599.533203	39643.234375
1598.492188	39605.804688
1597.452148	39084.964844
1596.411133	39379.210938
1595.370117	38963.644531
1594.329102	38482.871094
1593.288086	38807.398438
1592.247070	38926.480469
1591.205078	38515.953125
1590.163086	38352.812500
1589.121094	38513.882813
1588.079102	38087.320313
1587.036133	37775.136719
1585.994141	38073.738281
1584.951172	37794.292969
1583.908203	37824.832031
1582.865234	37689.960938
1581.822266	38321.425781
1580.778320	38193.496094
1579.734375	38505.664063
1578.691406	38426.628906
1577.646484	38287.109375
1576.602539	38564.179688
1575.558594	38529.382813
1574.513672	38722.562500
1573.468750	38636.578125
1572.423828	39220.335938
1571.378906	38725.089844
1570.333008	38948.312500
1569.288086	38615.976563
1568.242188	38334.882813
1567.196289	37800.644531
1566.150391	37645.230469
1565.103516	37280.843750
1564.057617	36909.621094
1563.010742	36415.480469
1561.963867	36736.277344
1560.916992	36307.324219
1559.869141	35862.281250
1558.822266	35642.433594
1557.774414	35863.390625
1556.726563	35550.855469
1555.678711	35611.750000
1554.630859	35315.593750
1553.582031	35415.914063
1552.534180	35655.246094
1551.485352	35185.453125
1550.436523	34935.914063
1549.386719	35221.523438
1548.337891	35013.750000
1547.288086	35120.953125
1546.238281	34827.609375
1545.188477	34890.828125
1544.138672	34877.648438
1543.088867	34762.667969
1542.038086	34180.417969
1540.987305	34389.417969
1539.936523	34096.511719
1538.885742	34344.753906
1537.834961	34539.738281
1536.783203	34156.816406
1535.731445	34458.062500
1534.679688	34223.160156
1533.627930	34043.785156
1532.576172	34111.609375
1531.523438	34006.210938
1530.471680	34175.601563
1529.418945	33643.164063
1528.366211	33826.406250
1527.312500	33619.593750
1526.259766	33664.339844
1525.206055	34032.019531
1524.152344	33617.703125
1523.098633	33814.613281
1522.044922	33561.871094
1520.990234	33157.074219
1519.936523	33333.218750
1518.881836	33345.687500
1517.827148	33507.906250
1516.772461	33273.863281
1515.716797	33035.296875
1514.662109	33374.785156
1513.606445	33034.984375
1512.550781	33137.257813
1511.495117	32970.226563
1510.438477	32780.246094
1509.382813	32645.542969
1508.326172	32966.324219
1507.269531	33153.605469
1506.212891	32949.921875
1505.155273	32835.972656
1504.098633	32830.089844
1503.041016	32769.058594
1501.983398	32772.378906
1500.925781	32796.375000
1499.867188	32779.015625
1498.809570	32678.988281
1497.750977	32815.492188
1496.692383	32341.298828
1495.633789	32737.173828
1494.575195	32944.726563
1493.515625	32429.462891
1492.457031	32740.226563
1491.397461	32640.322266
1490.337891	32512.933594
1489.277344	32374.125000
1488.217773	32299.550781
1487.157227	32605.470703
1486.096680	32938.777344
1485.036133	32738.125000
1483.975586	32691.023438
1482.915039	32605.000000
1481.853516	32802.957031
1480.791992	32405.572266
1479.730469	32624.091797
1478.668945	32535.849609
1477.606445	32264.576172
1476.544922	32601.968750
1475.482422	32454.300781
1474.419922	32631.443359
1473.357422	32474.673828
1472.293945	32386.544922
1471.231445	32483.060547
1470.167969	32579.666016
1469.104492	32676.271484
1468.041016	32772.875000
1466.976563	32869.570313
1465.913086	32966.171875
1464.848633	33062.867188
1463.784180	32887.996094
1462.719727	32601.341797
1461.655273	32953.785156
1460.589844	32952.433594
1459.524414	33466.656250
1458.458984	33036.402344
1457.393555	32781.898438
1456.328125	33179.585938
1455.261719	33166.792969
1454.196289	32613.816406
1453.129883	32815.335938
1452.063477	32932.476563
1450.996094	33097.417969
1449.929688	33157.523438
1448.862305	33418.003906
1447.794922	33227.582031
1446.727539	33248.929688
1445.660156	33645.804688
1444.591797	33803.601563
1443.524414	33727.000000
1442.456055	33896.097656
1441.387695	33996.902344
1440.318359	33833.890625
1439.250000	33955.128906
1438.180664	34133.152344
1437.111328	34222.472656
1436.041992	34486.726563
1434.972656	34148.832031
1433.903320	34467.515625
1432.833008	35008.652344
1431.762695	34695.820313
1430.692383	35025.582031
1429.622070	35132.777344
1428.550781	35466.878906
1427.480469	35512.687500
1426.409180	35966.835938
1425.337891	36273.382813
1424.266602	36636.511719
1423.194336	35997.320313
1422.122070	36788.828125
1421.050781	36800.343750
1419.978516	36775.597656
1418.905273	37074.859375
1417.833008	36710.265625
1416.759766	36676.480469
1415.687500	36851.046875
1414.614258	36534.230469
1413.540039	36588.777344
1412.466797	36061.628906
1411.392578	35817.531250
1410.319336	35641.398438
1409.245117	35729.992188
1408.169922	35325.503906
1407.095703	35787.234375
1406.020508	35495.921875
1404.946289	35681.671875
1403.871094	35758.871094
1402.794922	35752.433594
1401.719727	35831.851563
1400.643555	36080.648438
1399.568359	35706.027344
1398.492188	35993.140625
1397.415039	35828.625000
1396.338867	35542.277344
1395.261719	36007.554688
1394.185547	36199.632813
1393.108398	36118.664063
1392.031250	36238.472656
1390.953125	36561.203125
1389.875977	36883.816406
1388.797852	36674.277344
1387.719727	36902.082031
1386.641602	37098.253906
1385.562500	37301.113281
1384.484375	36931.699219
1383.405273	36902.519531
1382.326172	36889.113281
1381.247070	36864.453125
1380.166992	36718.238281
1379.087891	36376.261719
1378.007813	36560.984375
1376.927734	36198.906250
1375.847656	35929.187500
1374.767578	36028.417969
1373.686523	35922.980469
1372.605469	35630.968750
1371.524414	35932.503906
1370.443359	35804.664063
1369.362305	35503.839844
1368.280273	35650.210938
1367.199219	35735.875000
1366.117188	35610.398438
1365.034180	35334.523438
1363.952148	35671.640625
1362.870117	36015.371094
1361.787109	36341.023438
1360.704102	36718.160156
1359.621094	36583.660156
1358.537109	36442.476563
1357.454102	36225.097656
1356.370117	36411.390625
1355.286133	36066.304688
1354.202148	36082.210938
1353.118164	35566.988281
1352.033203	35526.960938
1350.948242	34926.894531
1349.863281	34902.671875
1348.778320	35041.929688
1347.693359	34272.113281
1346.607422	34299.503906
1345.521484	34584.273438
1344.435547	34387.816406
1343.349609	34755.246094
1342.263672	34462.640625
1341.176758	34550.351563
1340.090820	34418.886719
1339.003906	34788.277344
1337.916016	34732.812500
1336.829102	34643.847656
1335.741211	34829.757813
1334.654297	34894.957031
1333.566406	34776.968750
1332.478516	35081.117188
1331.389648	35077.011719
1330.301758	35122.019531
1329.212891	35479.507813
1328.124023	35540.046875
1327.035156	35446.601563
1325.945313	35839.527344
1324.856445	35572.082031
1323.766602	36138.789063
1322.676758	36455.562500
1321.586914	36636.230469
1320.496094	37033.035156
1319.406250	37726.085938
1318.315430	38352.042969
1317.224609	38692.625000
1316.133789	39271.402344
1315.041992	39994.714844
1313.951172	39994.160156
1312.859375	40394.300781
1311.767578	40593.980469
1310.675781	40381.914063
1309.583008	40383.507813
1308.491211	40313.917969
1307.398438	39150.113281
1306.305664	39147.476563
1305.212891	39040.347656
1304.119141	38610.941406
1303.026367	38388.375000
1301.932617	37959.238281
1300.838867	38116.769531
1299.744141	38347.542969
1298.650391	38784.773438
1297.555664	39155.226563
1296.461914	38963.875000
1295.366211	39587.199219
1294.271484	40026.097656
1293.176758	39659.398438
1292.081055	39718.769531
1290.985352	39786.992188
1289.889648	39467.101563
1288.793945	39020.941406
1287.697266	38648.101563
1286.601563	38723.109375
1285.504883	38031.343750
1284.408203	38343.503906
1283.311523	38225.796875
1282.213867	37786.984375
1281.116211	37994.937500
1280.018555	37866.281250
1278.920898	36965.121094
1277.823242	37370.078125
1276.725586	36934.023438
1275.626953	36564.492188
1274.528320	36389.753906
1273.429688	36184.113281
1272.330078	36347.820313
1271.231445	35879.171875
1270.131836	36153.390625
1269.032227	35740.195313
1267.932617	35667.425781
1266.833008	35336.207031
1265.732422	35036.031250
1264.632813	35416.148438
1263.532227	35350.109375
1262.430664	35597.574219
1261.330078	35273.281250
1260.228516	35141.093750
1259.127930	35090.593750
1258.026367	35468.070313
1256.924805	34846.273438
1255.822266	34974.472656
1254.720703	35104.824219
1253.618164	34789.839844
1252.515625	34741.648438
1251.413086	34988.761719
1250.309570	34755.480469
1249.207031	34907.777344
1248.103516	34760.488281
1247.000000	34661.695313
1245.895508	34736.863281
1244.791992	34631.503906
1243.687500	34700.042969
1242.583008	34695.945313
1241.478516	35015.246094
1240.374023	34808.726563
1239.269531	35108.093750
1238.164063	34600.390625
1237.058594	34640.273438
1235.953125	34950.496094
1234.847656	34678.238281
1233.741211	34794.984375
1232.635742	34687.613281
1231.529297	34397.972656
1230.422852	34512.507813
1229.315430	34872.902344
1228.208984	35022.429688
1227.101563	34462.972656
1225.994141	34893.398438
1224.886719	34582.089844
1223.779297	34948.722656
1222.670898	34558.558594
1221.562500	34751.824219
1220.454102	34848.550781
1219.345703	34322.707031
1218.237305	34756.984375
1217.127930	34402.261719
1216.018555	34463.921875
1214.909180	34518.988281
1213.799805	34600.316406
1212.690430	34488.921875
1211.580078	34681.871094
1210.469727	34623.031250
1209.359375	34130.902344
1208.249023	34227.531250
1207.138672	34737.593750
1206.027344	34602.226563
1204.916016	34595.933594
1203.804688	34847.640625
1202.693359	34806.324219
1201.581055	35090.683594
1200.469727	34457.128906
1199.357422	35261.445313
1198.245117	35084.640625
1197.131836	35301.031250
1196.019531	35211.625000
1194.906250	35493.410156
1193.792969	35353.792969
1192.679688	35281.886719
1191.566406	35306.011719
1190.452148	35197.046875
1189.337891	35051.035156
1188.223633	34830.929688
1187.109375	34680.675781
1185.995117	34800.804688
1184.879883	34356.351563
1183.764648	34376.246094
1182.649414	34457.140625
1181.534180	34337.585938
1180.418945	34181.039063
1179.302734	34100.773438
1178.186523	34562.683594
1177.070313	34205.902344
1175.954102	34325.910156
1174.837891	33880.082031
1173.720703	33860.851563
1172.603516	33604.519531
1171.486328	33702.792969
1170.369141	33450.929688
1169.250977	33497.011719
1168.132813	33458.300781
1167.015625	33126.203125
1165.896484	33391.781250
1164.778320	32892.523438
1163.660156	33158.050781
1162.541016	33688.429688
1161.421875	33380.468750
1160.302734	33406.949219
1159.182617	33513.726563
1158.063477	33394.765625
1156.943359	33718.484375
1155.823242	33540.953125
1154.703125	33701.847656
1153.582031	33721.722656
1152.461914	33490.082031
1151.340820	33481.804688
1150.219727	33254.621094
1149.097656	33675.457031
1147.976563	33716.976563
1146.854492	33366.394531
1145.732422	33856.281250
1144.610352	33789.472656
1143.488281	33765.988281
1142.365234	33673.238281
1141.243164	34030.687500
1140.120117	34139.160156
1138.996094	34037.738281
1137.873047	34009.894531
1136.750000	34129.121094
1135.625977	34254.789063
1134.501953	34047.480469
1133.377930	33835.921875
1132.252930	33808.132813
1131.127930	33966.171875
1130.003906	33746.097656
1128.878906	33822.011719
1127.752930	33727.296875
1126.627930	33816.136719
1125.501953	34127.292969
1124.375977	33743.351563
1123.250000	34002.613281
1122.124023	33860.476563
1120.997070	33560.917969
1119.871094	33884.769531
1118.744141	33628.437500
1117.617188	33641.699219
1116.489258	33187.191406
1115.362305	33866.472656
1114.234375	33394.847656
1113.106445	33580.484375
1111.978516	33617.429688
1110.849609	33486.375000
1109.721680	33923.812500
1108.592773	33108.152344
1107.463867	33396.980469
1106.333984	33287.578125
1105.205078	33434.257813
1104.075195	33477.621094
1102.945313	33381.164063
1101.815430	33473.980469
1100.685547	33637.710938
1099.554688	33674.554688
1098.424805	33535.136719
1097.293945	33645.042969
1096.162109	33436.929688
1095.031250	33495.257813
1093.899414	33433.289063
1092.768555	33764.296875
1091.636719	33519.812500
1090.503906	33294.730469
1089.372070	33258.593750
1088.239258	33334.042969
1087.106445	33355.832031
1085.973633	33135.234375
1084.840820	33229.960938
1083.708008	33641.992188
1082.574219	33177.062500
1081.440430	32909.496094
1080.306641	33392.074219
1079.171875	33368.820313
1078.038086	33703.320313
1076.903320	33898.476563
1075.768555	33532.511719
1074.633789	33714.781250
1073.498047	33462.433594
1072.363281	33312.906250
1071.227539	33711.234375
1070.091797	33414.093750
1068.956055	33497.812500
1067.819336	33763.289063
1066.682617	33739.996094
1065.546875	33458.023438
1064.409180	33592.968750
1063.272461	33539.796875
1062.135742	33747.320313
1060.998047	33798.816406
1059.860352	33470.097656
1058.722656	33587.824219
1057.583984	33722.585938
1056.446289	33793.253906
1055.307617	33644.054688
1054.168945	33322.058594
1053.029297	34005.097656
1051.890625	34020.195313
1050.750977	33574.597656
1049.611328	33781.683594
1048.471680	33634.773438
1047.332031	33641.394531
1046.191406	33748.179688
1045.051758	33520.378906
1043.911133	33980.800781
1042.769531	33595.414063
1041.628906	33550.917969
1040.487305	33898.222656
1039.346680	33787.687500
1038.205078	33875.140625
1037.062500	33822.105469
1035.920898	33703.128906
1034.778320	33573.558594
1033.635742	34237.382813
1032.493164	33505.945313
1031.350586	33799.585938
1030.207031	33867.781250
1029.063477	34178.246094
1027.919922	34006.222656
1026.776367	34278.300781
1025.632813	34087.199219
1024.488281	33953.511719
1023.343750	34117.148438
1022.199219	34045.070313
1021.054688	34153.441406
1019.910156	34024.074219
1018.764648	34253.355469
1017.619141	34412.535156
1016.473633	34092.292969
1015.327148	34459.273438
1014.181641	34181.542969
1013.035156	34279.136719
1011.888672	34389.414063
1010.742188	34525.078125
1009.594727	34611.957031
1008.448242	34425.535156
1007.300781	35031.300781
1006.153320	34660.636719
1005.005859	34912.566406
1003.857422	35323.156250
1002.708984	35524.074219
1001.560547	36192.554688
1000.412109	36120.316406
999.263672	36644.601563
998.114258	36574.417969
996.965820	36645.925781
995.816406	36451.035156
994.666016	36015.250000
993.516602	35852.242188
992.366211	36037.921875
991.215820	35739.761719
990.065430	35471.281250
988.915039	35648.480469
987.763672	35282.988281
986.613281	35325.050781
985.461914	35468.402344
984.309570	35550.500000
983.158203	35208.500000
982.005859	35438.273438
980.854492	35322.082031
979.701172	34691.421875
978.548828	35271.132813
977.396484	34895.761719
976.243164	35121.160156
975.089844	35003.019531
973.936523	34594.191406
972.783203	34665.757813
971.628906	34613.042969
970.474609	34215.039063
969.320313	34604.503906
968.166016	34894.902344
967.010742	34568.613281
965.856445	34423.378906
964.701172	34341.308594
963.545898	34854.476563
962.390625	34488.472656
961.234375	34358.074219
960.078125	34620.804688
958.921875	34246.636719
957.765625	34765.644531
956.609375	34391.582031
955.452148	34908.269531
954.294922	34910.234375
953.137695	34836.609375
951.980469	34576.167969
950.822266	34754.500000
949.665039	34271.718750
948.506836	34899.050781
947.347656	34376.558594
946.189453	34514.941406
945.030273	34498.089844
943.872070	34259.003906
942.712891	34500.042969
941.552734	34652.964844
940.393555	34713.628906
939.233398	34608.753906
938.073242	34975.226563
936.913086	34723.742188
935.752930	34604.261719
934.591797	34660.683594
933.430664	34857.324219
932.269531	34850.894531
931.108398	34850.738281
929.947266	34858.949219
928.785156	34821.144531
927.623047	34758.253906
926.460938	35126.097656
925.298828	35322.386719
924.135742	35025.347656
922.972656	34709.609375
921.810547	34991.523438
920.646484	35254.531250
919.483398	35350.359375
918.319336	35251.953125
917.155273	35151.492188
915.991211	35445.582031
914.827148	35537.125000
913.662109	35574.378906
912.498047	35951.671875
911.333008	35842.824219
910.167969	35930.046875
909.001953	35762.859375
907.836914	36152.339844
906.670898	36431.207031
905.504883	36055.625000
904.337891	36163.554688
903.171875	35858.984375
902.004883	35775.292969
900.837891	35612.503906
899.670898	35757.906250
898.503906	35803.335938
897.335938	35497.023438
896.167969	35623.632813
895.000000	35542.152344
893.832031	35758.144531
892.663086	35672.503906
891.495117	35638.878906
890.326172	35588.628906
889.156250	35727.542969
887.987305	35795.750000
886.817383	35745.496094
885.648438	35761.734375
884.478516	35800.812500
883.307617	35775.500000
882.137695	36055.394531
880.966797	35822.460938
879.795898	36579.593750
878.625000	36464.921875
877.454102	36624.148438
876.282227	36930.585938
875.110352	37191.285156
873.938477	37147.078125
872.766602	37515.437500
871.593750	37183.070313
870.421875	37366.843750
869.249023	37420.015625
868.076172	37346.796875
866.902344	37702.343750
865.729492	37716.070313
864.555664	38276.386719
863.381836	38530.128906
862.207031	38618.195313
861.033203	38577.933594
859.858398	38879.058594
858.683594	38931.843750
857.508789	38746.769531
856.333984	38594.847656
855.158203	38467.789063
853.982422	38249.828125
852.806641	37759.152344
851.630859	37886.457031
850.454102	38019.914063
849.278320	37911.660156
848.101563	37704.320313
846.924805	37817.085938
845.747070	37942.191406
844.570313	37770.042969
843.392578	38171.625000
842.214844	38185.179688
841.036133	38774.242188
839.858398	38917.609375
838.679688	38898.019531
837.500977	38942.347656
836.322266	39178.355469
835.143555	39037.132813
833.963867	39522.347656
832.784180	39142.136719
831.604492	39194.609375
830.424805	38915.503906
829.244141	38251.472656
828.063477	37853.242188
826.882813	38210.523438
825.702148	37695.148438
824.521484	37828.058594
823.339844	37921.835938
822.158203	37262.832031
820.976563	37535.570313
819.794922	37337.402344
818.612305	37459.968750
817.430664	37555.773438
816.248047	37559.074219
815.064453	37453.492188
813.881836	37547.183594
812.698242	37316.363281
811.514648	37609.207031
810.331055	37680.230469
809.147461	37958.527344
807.962891	37943.269531
806.778320	37837.738281
805.593750	37957.894531
804.409180	38153.886719
803.224609	38103.734375
802.039063	37928.539063
800.853516	37599.671875
799.667969	37473.820313
798.482422	37395.136719
797.295898	37377.945313
796.109375	37252.195313
794.922852	37048.675781
793.736328	36818.605469
792.548828	36652.085938
791.362305	36375.097656
790.174805	37102.988281
788.986328	36418.863281
787.798828	36491.871094
786.610352	36208.976563
785.421875	36506.929688
784.233398	35880.660156
783.044922	36405.453125
781.856445	36365.984375
780.666992	36428.691406
779.477539	36231.921875
778.288086	35978.027344
777.097656	36161.257813
775.907227	36405.675781
774.717773	36237.628906
773.526367	36434.988281
772.335938	36022.113281
771.144531	36217.402344
769.954102	36428.929688
768.762695	36234.511719
767.570313	36827.281250
766.378906	36534.996094
765.186523	36522.082031
763.994141	36525.472656
762.801758	36583.875000
761.609375	36854.132813
760.416016	37036.699219
759.222656	37105.152344
758.029297	37444.386719
756.835938	37382.445313
755.641602	37369.378906
754.447266	37169.093750
753.252930	37617.921875
752.058594	37106.425781
750.864258	36918.500000
749.668945	37367.117188
748.473633	37175.144531
747.278320	36643.777344
746.083008	37027.156250
744.886719	36902.402344
743.690430	36655.800781
742.494141	36297.570313
741.297852	36353.757813
740.100586	36239.367188
738.904297	36386.898438
737.707031	36274.570313
736.509766	36685.843750
735.311523	36226.554688
734.113281	35950.000000
732.916016	36117.718750
731.716797	36244.820313
730.518555	36254.277344
729.320313	36204.949219
728.121094	36143.476563
726.921875	36231.968750
725.721680	35931.453125
724.522461	35961.210938
723.322266	36063.859375
722.122070	35658.250000
720.921875	36072.671875
719.721680	35855.441406
718.520508	35970.167969
717.319336	36125.316406
716.118164	35972.925781
714.916992	35903.511719
713.714844	36307.304688
712.513672	36078.132813
711.311523	36127.996094
710.108398	36460.777344
708.906250	36474.175781
707.703125	36517.871094
706.500000	37080.652344
705.296875	36621.363281
704.093750	37313.136719
702.889648	36611.722656
701.685547	36693.691406
700.481445	36916.886719
699.277344	36782.882813
698.072266	36997.906250
696.868164	36999.058594
695.663086	37298.652344
694.457031	37346.117188
693.251953	37750.343750
692.045898	37717.089844
690.839844	37953.851563
689.633789	37793.648438
688.427734	38084.687500
687.220703	37799.660156
686.013672	37891.253906
684.806641	37491.617188
683.599609	37339.691406
682.391602	37614.437500
681.184570	37695.929688
679.976563	37167.882813
678.767578	37072.437500
677.559570	36952.898438
676.350586	37577.269531
675.141602	37089.832031
673.932617	37330.085938
672.723633	37138.246094
671.513672	36978.617188
670.303711	36987.769531
669.093750	37131.460938
667.883789	37212.859375
666.672852	37015.187500
665.462891	37106.605469
664.251953	36977.253906
663.040039	36914.156250
661.829102	37091.792969
660.617188	36741.898438
659.405273	36913.484375
658.193359	36393.339844
656.981445	36464.699219
655.768555	36910.789063
654.555664	36986.027344
653.342773	37149.382813
652.129883	37282.632813
650.916016	37255.625000
649.702148	37587.015625
648.488281	37487.890625
647.274414	37919.183594
646.059570	38014.132813
644.845703	38027.019531
643.630859	38629.988281
642.416016	39126.734375
641.200195	39157.394531
639.984375	38812.195313
638.769531	38956.832031
637.552734	38723.707031
636.336914	38346.804688
635.120117	38103.890625
633.904297	37823.117188
632.687500	37644.289063
631.469727	37663.187500
630.252930	37376.660156
629.035156	37499.378906
627.817383	37370.625000
626.599609	37098.273438
625.380859	37242.914063
624.163086	36926.808594
622.944336	37041.511719
621.724609	37243.890625
620.505859	36941.910156
619.286133	36895.125000
618.066406	37203.007813
616.846680	37028.695313
615.626953	37216.933594
614.406250	37192.027344
613.186523	37121.335938
611.965820	37345.277344
610.744141	37465.640625
609.523438	36987.019531
608.301758	36942.277344
607.080078	36983.078125
605.858398	37304.273438
604.635742	37179.960938
603.414063	37407.558594
602.191406	37092.457031
600.968750	37377.613281
599.745117	37328.871094
598.522461	37238.429688
597.298828	37400.253906
596.075195	37407.128906
594.850586	37489.441406
593.626953	37678.914063
592.402344	37911.972656
591.177734	38033.824219
589.953125	38205.226563
588.727539	37950.109375
587.501953	37952.894531
586.276367	38586.187500
585.050781	38638.406250
583.825195	38589.523438
582.598633	38871.589844
581.372070	39064.386719
580.145508	39098.644531
578.917969	39239.832031
577.691406	39644.320313
576.463867	39428.992188
575.236328	40027.273438
574.007813	39572.484375
572.780273	39719.378906
571.551758	39605.082031
570.323242	39910.140625
569.094727	39548.656250
567.865234	39323.730469
566.635742	39387.496094
565.406250	39486.812500
564.176758	38910.281250
562.947266	38758.738281
561.716797	38567.742188
560.486328	38716.503906
559.255859	38332.074219
558.024414	38151.132813
556.793945	37966.308594
555.562500	37757.871094
554.331055	38293.359375
553.098633	37976.433594
551.867188	38225.687500
550.634766	37776.773438
549.402344	37775.574219
548.168945	37496.433594
546.936523	37558.351563
545.703125	37791.675781
544.469727	37623.011719
543.236328	37478.042969
542.001953	37756.539063
540.767578	37733.675781
539.533203	37815.156250
538.298828	37546.253906
537.064453	37220.382813
535.829102	37587.195313
534.593750	37513.230469
533.358398	38180.761719
532.122070	37799.949219
530.886719	37883.261719
529.650391	37850.570313
528.414063	37916.148438
527.176758	38333.421875
525.940430	38446.031250
524.703125	38153.980469
523.465820	38060.378906
522.227539	38324.156250
520.990234	37822.238281
519.751953	38276.335938
518.513672	38237.718750
517.275391	38697.449219
516.036133	38823.539063
514.796875	38414.167969
513.557617	38846.148438
512.318359	38480.054688
511.079102	38265.023438
509.838867	38287.199219
508.598633	38244.707031
507.358398	38390.289063
506.117188	38533.859375
504.876953	38317.054688
503.635742	38166.894531
502.394531	38142.074219
501.152344	38305.144531
499.911133	38411.406250
498.668945	38378.722656
497.425781	38240.421875
496.183594	38213.644531
494.941406	37864.250000
493.698242	38169.886719
492.455078	38262.363281
491.210938	38620.566406
489.967773	38267.449219
488.723633	38758.347656
487.479492	38608.453125
486.235352	38689.031250
484.990234	38437.675781
483.745117	38883.273438
482.500000	38427.054688
481.254883	39126.140625
480.008789	38808.558594
478.763672	39197.175781
477.517578	39291.171875
476.271484	39498.218750
475.024414	39391.335938
473.777344	39693.781250
472.530273	39653.152344
471.283203	39918.414063
470.036133	39330.386719
468.788086	39535.230469
467.540039	39607.589844
466.291992	39469.664063
465.043945	39471.929688
463.794922	39647.394531
462.545898	39704.105469
461.296875	39972.832031
460.047852	39788.277344
458.797852	39489.058594
457.547852	40300.109375
456.297852	40203.066406
455.047852	40164.363281
453.796875	40446.289063
452.545898	40784.445313
451.294922	40487.308594
450.043945	41139.937500
448.792969	40772.941406
447.541016	41103.007813
446.289063	41306.785156
445.036133	41330.015625
443.784180	41902.304688
442.531250	41841.996094
441.278320	41657.582031
440.025391	41257.996094
438.771484	41201.714844
437.518555	40653.109375
436.264648	40213.238281
435.010742	40143.617188
433.755859	39942.285156
432.500977	40035.437500
431.246094	39940.707031
429.991211	39567.207031
428.736328	39404.847656
427.480469	39387.703125
426.224609	39651.144531
424.968750	39274.105469
423.712891	39442.683594
422.456055	39119.972656
421.199219	39224.707031
419.942383	39325.527344
418.685547	39200.167969
417.427734	38993.691406
416.169922	39417.160156
414.912109	39166.285156
413.654297	39154.992188
412.395508	39222.875000
411.136719	39004.996094
409.877930	39157.812500
408.619141	39476.539063
407.359375	39225.925781
406.099609	39588.890625
404.839844	39143.535156
403.580078	39494.800781
402.319336	39140.250000
401.059570	39377.644531
