#Wave		#Intensity
2001.242188	29820.111328
2000.272461	29885.281250
1999.302734	30007.875000
1998.333008	29917.445313
1997.363281	30057.523438
1996.392578	29949.580078
1995.422852	30042.021484
1994.452148	29961.658203
1993.481445	30126.662109
1992.510742	29838.560547
1991.540039	30126.152344
1990.568359	29993.281250
1989.596680	29420.154297
1988.625977	30272.953125
1987.654297	29940.056641
1986.681641	29819.808594
1985.709961	29717.099609
1984.738281	30049.345703
1983.765625	29451.810547
1982.792969	29694.033203
1981.820313	29893.699219
1980.847656	29868.492188
1979.874023	29636.015625
1978.901367	30040.330078
1977.927734	30232.302734
1976.954102	29892.548828
1975.980469	29727.607422
1975.006836	30021.832031
1974.032227	29797.046875
1973.058594	29973.921875
1972.083984	30028.535156
1971.109375	30095.595703
1970.134766	29878.429688
1969.160156	29923.058594
1968.184570	29900.380859
1967.209961	30189.171875
1966.234375	29675.679688
1965.258789	30086.455078
1964.283203	29847.099609
1963.306641	30075.933594
1962.331055	29931.261719
1961.354492	30167.466797
1960.377930	29731.656250
1959.401367	29539.841797
1958.424805	29738.669922
1957.447266	30002.099609
1956.470703	29778.003906
1955.493164	29553.986328
1954.515625	29730.294922
1953.538086	29941.339844
1952.560547	29707.466797
1951.582031	30042.673828
1950.604492	29716.945313
1949.625977	29957.644531
1948.647461	29949.917969
1947.668945	29716.244141
1946.689453	29688.699219
1945.710938	29470.041016
1944.731445	29829.689453
1943.751953	29645.818359
1942.772461	30079.730469
1941.792969	29833.869141
1940.813477	29615.371094
1939.833008	29726.722656
1938.852539	29895.050781
1937.873047	29299.902344
1936.891602	29609.501953
1935.911133	30127.125000
1934.930664	29923.662109
1933.949219	29727.701172
1932.967773	29863.652344
1931.986328	29380.548828
1931.004883	29806.154297
1930.023438	29954.394531
1929.041016	30122.376953
1928.059570	29914.207031
1927.077148	29963.390625
1926.094727	29822.103516
1925.112305	29717.958984
1924.128906	30024.292969
1923.146484	30031.392578
1922.163086	29526.847656
1921.179688	29390.695313
1920.196289	29546.148438
1919.212891	29859.650391
1918.228516	29432.052734
1917.245117	29728.177734
1916.260742	29688.398438
1915.276367	30036.212891
1914.291992	29668.117188
1913.307617	29734.480469
1912.322266	29657.714844
1911.336914	29753.658203
1910.352539	29824.902344
1909.367188	29984.898438
1908.380859	30028.953125
1907.395508	29557.763672
1906.409180	29892.716797
1905.423828	29579.431641
1904.437500	29983.251953
1903.451172	29362.125000
1902.463867	29576.183594
1901.477539	29236.080078
1900.490234	29661.832031
1899.503906	29316.908203
1898.516602	30087.078125
1897.528320	29493.648438
1896.541016	29692.689453
1895.553711	29773.580078
1894.565430	29623.238281
1893.577148	29913.138672
1892.588867	29497.281250
1891.600586	29489.646484
1890.611328	29831.027344
1889.623047	29958.492188
1888.633789	29557.656250
1887.644531	29984.822266
1886.655273	30112.189453
1885.666016	29529.812500
1884.675781	29730.871094
1883.686523	29664.279297
1882.696289	29538.804688
1881.706055	29607.236328
1880.715820	29741.888672
1879.724609	29866.681641
1878.734375	29873.699219
1877.743164	29763.003906
1876.751953	29735.710938
1875.760742	29473.089844
1874.769531	30198.298828
1873.778320	29536.251953
1872.786133	29776.072266
1871.793945	29763.492188
1870.801758	29550.078125
1869.809570	30049.339844
1868.817383	29542.140625
1867.824219	29563.876953
1866.832031	29649.240234
1865.838867	29820.218750
1864.845703	29807.638672
1863.851563	29961.404297
1862.858398	29466.976563
1861.865234	29774.804688
1860.871094	29725.562500
1859.876953	29918.341797
1858.882813	29785.988281
1857.887695	29961.582031
1856.893555	29450.566406
1855.898438	29626.154297
1854.904297	29830.988281
1853.909180	29610.851563
1852.913086	30028.023438
1851.917969	29893.367188
1850.922852	29836.855469
1849.926758	29658.351563
1848.930664	30038.621094
1847.934570	29947.958984
1846.938477	29945.128906
1845.941406	29686.257813
1844.945313	29993.107422
1843.948242	29358.919922
1842.951172	29685.212891
1841.954102	29882.242188
1840.956055	29640.658203
1839.958984	29937.496094
1838.960938	29805.582031
1837.962891	30070.628906
1836.964844	29999.599609
1835.966797	30033.267578
1834.968750	30081.523438
1833.969727	30081.093750
1832.970703	30119.591797
1831.971680	30094.828125
1830.972656	29775.792969
1829.973633	30361.439453
1828.973633	29950.080078
1827.974609	30396.931641
1826.974609	30073.203125
1825.974609	30048.466797
1824.974609	30269.119141
1823.973633	30105.898438
1822.973633	30309.457031
1821.972656	30267.695313
1820.971680	30240.513672
1819.970703	30128.382813
1818.968750	30001.728516
1817.967773	30108.062500
1816.965820	29979.027344
1815.964844	30114.431641
1814.961914	30155.205078
1813.959961	30091.695313
1812.958008	30054.876953
1811.955078	30127.144531
1810.953125	30342.375000
1809.950195	30564.796875
1808.947266	30004.621094
1807.943359	30478.933594
1806.940430	30146.617188
1805.936523	30100.138672
1804.932617	30027.046875
1803.928711	30198.449219
1802.924805	30149.564453
1801.920898	30197.480469
1800.916016	30085.708984
1799.911133	30827.818359
1798.907227	30510.408203
1797.901367	30398.636719
1796.896484	30630.193359
1795.891602	30593.369141
1794.885742	30401.888672
1793.879883	30205.640625
1792.874023	30374.251953
1791.868164	30451.017578
1790.862305	30409.419922
1789.855469	30503.050781
1788.848633	30589.406250
1787.842773	30605.732422
1786.834961	30378.308594
1785.828125	30392.251953
1784.821289	30251.791016
1783.813477	30569.660156
1782.805664	30670.373047
1781.797852	30833.740234
1780.790039	30336.509766
1779.782227	30519.158203
1778.773438	30966.826172
1777.764648	30602.351563
1776.755859	30625.857422
1775.747070	30972.103516
1774.738281	30807.695313
1773.729492	30243.660156
1772.719727	30912.367188
1771.709961	30945.417969
1770.700195	30858.132813
1769.690430	30883.960938
1768.680664	30813.554688
1767.669922	31087.115234
1766.659180	31026.312500
1765.648438	30886.189453
1764.637695	30823.039063
1763.626953	31185.326172
1762.615234	30896.255859
1761.604492	30869.171875
1760.592773	31003.046875
1759.581055	31062.416016
1758.569336	31429.138672
1757.556641	31185.890625
1756.544922	31237.992188
1755.532227	31386.076172
1754.519531	31217.351563
1753.506836	31456.556641
1752.494141	31671.687500
1751.480469	31680.478516
1750.466797	31411.099609
1749.454102	31873.068359
1748.440430	31476.701172
1747.425781	31377.664063
1746.412109	31360.134766
1745.397461	31994.281250
1744.383789	31686.798828
1743.369141	31659.640625
1742.353516	31941.390625
1741.338867	31710.689453
1740.324219	31652.417969
1739.308594	32230.787109
1738.292969	31992.974609
1737.277344	32200.244141
1736.261719	32031.888672
1735.245117	31870.765625
1734.229492	32336.193359
1733.212891	32588.673828
1732.196289	32193.279297
1731.179688	33129.214844
1730.162109	32819.882813
1729.145508	33148.546875
1728.127930	32870.371094
1727.110352	32998.296875
1726.092773	33233.625000
1725.075195	33311.300781
1724.056641	33852.019531
1723.039063	33910.460938
1722.020508	33861.507813
1721.001953	34051.140625
1719.983398	34114.281250
1718.963867	33903.144531
1717.945313	34157.042969
1716.925781	34344.097656
1715.906250	34013.847656
1714.886719	34281.886719
1713.867188	34683.265625
1712.846680	34605.652344
1711.826172	34458.988281
1710.806641	34533.855469
1709.786133	34949.183594
1708.764648	34669.218750
1707.744141	34479.800781
1706.722656	35118.613281
1705.701172	35031.492188
1704.679688	34442.441406
1703.658203	34697.976563
1702.636719	34822.621094
1701.614258	34875.890625
1700.592773	34881.597656
1699.570313	35060.804688
1698.547852	35064.097656
1697.524414	35003.234375
1696.501953	34904.378906
1695.478516	34933.816406
1694.456055	35314.707031
1693.432617	35669.339844
1692.408203	35162.125000
1691.384766	35198.609375
1690.360352	35814.109375
1689.336914	35499.312500
1688.312500	35898.664063
1687.288086	35572.105469
1686.262695	35710.449219
1685.238281	35787.097656
1684.212891	36197.960938
1683.187500	36321.898438
1682.162109	36218.296875
1681.136719	36083.929688
1680.110352	36593.933594
1679.084961	37051.652344
1678.058594	36372.562500
1677.032227	36290.347656
1676.005859	36781.007813
1674.978516	37011.156250
1673.952148	37025.882813
1672.924805	37227.511719
1671.897461	37064.781250
1670.870117	37183.550781
1669.842773	37174.582031
1668.814453	37380.761719
1667.787109	37081.015625
1666.758789	37376.941406
1665.730469	37252.156250
1664.701172	37892.878906
1663.672852	37326.328125
1662.643555	37596.015625
1661.615234	37539.753906
1660.585938	37797.503906
1659.555664	37656.242188
1658.526367	37621.234375
1657.497070	37815.117188
1656.466797	38011.289063
1655.436523	37945.566406
1654.406250	37886.941406
1653.375977	37868.417969
1652.344727	38109.230469
1651.313477	37791.320313
1650.282227	38074.476563
1649.250977	37832.082031
1648.219727	38284.746094
1647.188477	38155.460938
1646.156250	38257.007813
1645.124023	38184.281250
1644.091797	38488.242188
1643.059570	38314.281250
1642.027344	38771.078125
1640.994141	38371.246094
1639.961914	38423.238281
1638.928711	39209.054688
1637.895508	38839.925781
1636.861328	39402.019531
1635.828125	38997.722656
1634.793945	39124.757813
1633.759766	39484.398438
1632.725586	39862.703125
1631.691406	39550.222656
1630.656250	39742.828125
1629.622070	40038.691406
1628.586914	39932.953125
1627.551758	40881.273438
1626.516602	40519.593750
1625.480469	40988.750000
1624.445313	41460.085938
1623.409180	41412.828125
1622.373047	41984.769531
1621.336914	42394.699219
1620.300781	42710.703125
1619.263672	43441.503906
1618.227539	44249.382813
1617.190430	44215.730469
1616.153320	44959.921875
1615.115234	45633.578125
1614.078125	46178.175781
1613.040039	47233.054688
1612.001953	47713.957031
1610.963867	47923.152344
1609.925781	48052.703125
1608.887695	47763.347656
1607.848633	47303.308594
1606.809570	46684.371094
1605.770508	46035.246094
1604.731445	45454.164063
1603.692383	45116.425781
1602.652344	44201.453125
1601.613281	44069.710938
1600.573242	43230.019531
1599.533203	42902.253906
1598.492188	42539.570313
1597.452148	42120.960938
1596.411133	42279.238281
1595.370117	41776.777344
1594.329102	41661.960938
1593.288086	41402.496094
1592.247070	41381.113281
1591.205078	41583.699219
1590.163086	41275.394531
1589.121094	41279.699219
1588.079102	41032.179688
1587.036133	41486.445313
1585.994141	41259.953125
1584.951172	41101.121094
1583.908203	41056.511719
1582.865234	41202.937500
1581.822266	41391.238281
1580.778320	41411.800781
1579.734375	42026.074219
1578.691406	41606.539063
1577.646484	41391.972656
1576.602539	41959.375000
1575.558594	41896.050781
1574.513672	42532.941406
1573.468750	42741.656250
1572.423828	42854.949219
1571.378906	43119.328125
1570.333008	42883.824219
1569.288086	43122.531250
1568.242188	43138.074219
1567.196289	42602.976563
1566.150391	42404.890625
1565.103516	41888.695313
1564.057617	41779.046875
1563.010742	41606.746094
1561.963867	41617.890625
1560.916992	40856.183594
1559.869141	40825.683594
1558.822266	40437.914063
1557.774414	40827.343750
1556.726563	40224.019531
1555.678711	40221.476563
1554.630859	40130.832031
1553.582031	40040.214844
1552.534180	40093.320313
1551.485352	40248.355469
1550.436523	39722.226563
1549.386719	40018.562500
1548.337891	40196.683594
1547.288086	39348.988281
1546.238281	40200.839844
1545.188477	39885.812500
1544.138672	39992.082031
1543.088867	39637.863281
1542.038086	39956.968750
1540.987305	40107.109375
1539.936523	39422.359375
1538.885742	39750.574219
1537.834961	39403.640625
1536.783203	39851.929688
1535.731445	39567.496094
1534.679688	39657.460938
1533.627930	39701.195313
1532.576172	39352.261719
1531.523438	39435.289063
1530.471680	39446.707031
1529.418945	39670.496094
1528.366211	39391.054688
1527.312500	39651.691406
1526.259766	39312.363281
1525.206055	39425.285156
1524.152344	38993.859375
1523.098633	39095.261719
1522.044922	39330.351563
1520.990234	39422.437500
1519.936523	39164.167969
1518.881836	39371.460938
1517.827148	39320.640625
1516.772461	39315.910156
1515.716797	39695.789063
1514.662109	39631.117188
1513.606445	39181.992188
1512.550781	39580.101563
1511.495117	39515.484375
1510.438477	39593.546875
1509.382813	39694.585938
1508.326172	39376.953125
1507.269531	39625.179688
1506.212891	39661.773438
1505.155273	39362.703125
1504.098633	39702.734375
1503.041016	39679.539063
1501.983398	39550.652344
1500.925781	39557.351563
1499.867188	39343.546875
1498.809570	39251.531250
1497.750977	39278.941406
1496.692383	39246.652344
1495.633789	39140.925781
1494.575195	39354.218750
1493.515625	39069.539063
1492.457031	39287.355469
1491.397461	39124.347656
1490.337891	39174.667969
1489.277344	38922.320313
1488.217773	39050.593750
1487.157227	39041.300781
1486.096680	39015.972656
1485.036133	38983.777344
1483.975586	39001.988281
1482.915039	39384.347656
1481.853516	39370.417969
1480.791992	39555.679688
1479.730469	39230.402344
1478.668945	39546.070313
1477.606445	39182.011719
1476.544922	39156.679688
1475.482422	39506.500000
1474.419922	39574.886719
1473.357422	39684.406250
1472.293945	39366.363281
1471.231445	39462.164063
1470.167969	39594.496094
1469.104492	39843.308594
1468.041016	39447.785156
1466.976563	38979.304688
1465.913086	39317.156250
1464.848633	39579.539063
1463.784180	39410.347656
1462.719727	39355.339844
1461.655273	39336.867188
1460.589844	39448.457031
1459.524414	39548.597656
1458.458984	39628.171875
1457.393555	39698.593750
1456.328125	39568.343750
1455.261719	39572.640625
1454.196289	39189.457031
1453.129883	39462.718750
1452.063477	39275.636719
1450.996094	39569.285156
1449.929688	39869.656250
1448.862305	39657.546875
1447.794922	39561.628906
1446.727539	39602.328125
1445.660156	39929.785156
1444.591797	40309.460938
1443.524414	40277.191406
1442.456055	40110.722656
1441.387695	40628.890625
1440.318359	40871.722656
1439.250000	40880.296875
1438.180664	41011.609375
1437.111328	40949.695313
1436.041992	41414.976563
1434.972656	41493.863281
1433.903320	41350.117188
1432.833008	41440.339844
1431.762695	41671.031250
1430.692383	41901.718750
1429.622070	42132.410156
1428.550781	42363.308594
1427.480469	42594.000000
1426.409180	42824.898438
1425.337891	43363.839844
1424.266602	43537.468750
1423.194336	43649.808594
1422.122070	44142.964844
1421.050781	44461.417969
1419.978516	44482.878906
1418.905273	44456.753906
1417.833008	44419.304688
1416.759766	44436.230469
1415.687500	44405.589844
1414.614258	43829.300781
1413.540039	43764.824219
1412.466797	43358.601563
1411.392578	43228.601563
1410.319336	42727.593750
1409.245117	42658.828125
1408.169922	42519.972656
1407.095703	42944.226563
1406.020508	42719.453125
1404.946289	42438.246094
1403.871094	42575.250000
1402.794922	43021.781250
1401.719727	43052.441406
1400.643555	42918.195313
1399.568359	43262.785156
1398.492188	43194.027344
1397.415039	43416.527344
1396.338867	43356.792969
1395.261719	43376.066406
1394.185547	43451.742188
1393.108398	43852.253906
1392.031250	43783.453125
1390.953125	44310.050781
1389.875977	44450.882813
1388.797852	44632.242188
1387.719727	44723.378906
1386.641602	44674.753906
1385.562500	44614.882813
1384.484375	44712.722656
1383.405273	44815.031250
1382.326172	44250.722656
1381.247070	44359.828125
1380.166992	44189.753906
1379.087891	44150.277344
1378.007813	43863.281250
1376.927734	43898.121094
1375.847656	43723.742188
1374.767578	43794.578125
1373.686523	43166.042969
1372.605469	43342.621094
1371.524414	43215.667969
1370.443359	43255.070313
1369.362305	43076.492188
1368.280273	42922.691406
1367.199219	43123.851563
1366.117188	43722.457031
1365.034180	43429.398438
1363.952148	43767.300781
1362.870117	43914.285156
1361.787109	44225.046875
1360.704102	44066.730469
1359.621094	44437.917969
1358.537109	44297.562500
1357.454102	43912.808594
1356.370117	44523.738281
1355.286133	44103.207031
1354.202148	43606.621094
1353.118164	42760.613281
1352.033203	43071.062500
1350.948242	43146.175781
1349.863281	41975.933594
1348.778320	41683.953125
1347.693359	41965.257813
1346.607422	41664.425781
1345.521484	41708.382813
1344.435547	41519.589844
1343.349609	41165.300781
1342.263672	41688.027344
1341.176758	41020.714844
1340.090820	41572.343750
1339.003906	41672.152344
1337.916016	41510.386719
1336.829102	41482.773438
1335.741211	41785.878906
1334.654297	41722.476563
1333.566406	41956.179688
1332.478516	41828.000000
1331.389648	42005.777344
1330.301758	42335.296875
1329.212891	42218.269531
1328.124023	42168.238281
1327.035156	42667.125000
1325.945313	42884.734375
1324.856445	43142.414063
1323.766602	43498.121094
1322.676758	43833.632813
1321.586914	43819.019531
1320.496094	44377.234375
1319.406250	45396.542969
1318.315430	45553.214844
1317.224609	46297.933594
1316.133789	47438.839844
1315.041992	48537.015625
1313.951172	48570.542969
1312.859375	48461.582031
1311.767578	48884.597656
1310.675781	48582.019531
1309.583008	48348.519531
1308.491211	48288.609375
1307.398438	47975.179688
1306.305664	47568.464844
1305.212891	46374.863281
1304.119141	46186.417969
1303.026367	45900.253906
1301.932617	45836.398438
1300.838867	45985.839844
1299.744141	46321.808594
1298.650391	46115.769531
1297.555664	46746.906250
1296.461914	47018.171875
1295.366211	47531.273438
1294.271484	47837.796875
1293.176758	47733.726563
1292.081055	47115.015625
1290.985352	47166.371094
1289.889648	46940.503906
1288.793945	46679.238281
1287.697266	46367.078125
1286.601563	45988.539063
1285.504883	45534.789063
1284.408203	45568.636719
1283.311523	45210.378906
1282.213867	45202.187500
1281.116211	44454.386719
1280.018555	44278.066406
1278.920898	44272.257813
1277.823242	43281.566406
1276.725586	43625.562500
1275.626953	43469.425781
1274.528320	43563.300781
1273.429688	43369.628906
1272.330078	42866.457031
1271.231445	42745.937500
1270.131836	42525.988281
1269.032227	42091.746094
1267.932617	41856.527344
1266.833008	42061.023438
1265.732422	41872.273438
1264.632813	41626.175781
1263.532227	42135.296875
1262.430664	41677.304688
1261.330078	40947.992188
1260.228516	41370.894531
1259.127930	41144.957031
1258.026367	41247.792969
1256.924805	40801.394531
1255.822266	41312.214844
1254.720703	41240.781250
1253.618164	40981.996094
1252.515625	41020.843750
1251.413086	40907.628906
1250.309570	40715.136719
1249.207031	41024.953125
1248.103516	40949.230469
1247.000000	41142.183594
1245.895508	40795.667969
1244.791992	40889.519531
1243.687500	40772.054688
1242.583008	40986.894531
1241.478516	40959.652344
1240.374023	41242.566406
1239.269531	41252.671875
1238.164063	41339.726563
1237.058594	41508.093750
1235.953125	41498.359375
1234.847656	41400.718750
1233.741211	41239.394531
1232.635742	41260.464844
1231.529297	41334.234375
1230.422852	41368.453125
1229.315430	40915.226563
1228.208984	41103.167969
1227.101563	41319.570313
1225.994141	41259.398438
1224.886719	41245.320313
1223.779297	41628.289063
1222.670898	41276.386719
1221.562500	41350.019531
1220.454102	41232.882813
1219.345703	40925.082031
1218.237305	40525.343750
1217.127930	40940.882813
1216.018555	40479.937500
1214.909180	40652.195313
1213.799805	40642.613281
1212.690430	40646.171875
1211.580078	40562.156250
1210.469727	40832.765625
1209.359375	40987.285156
1208.249023	40951.382813
1207.138672	40729.546875
1206.027344	41032.726563
1204.916016	41320.488281
1203.804688	41074.648438
1202.693359	41491.273438
1201.581055	41282.644531
1200.469727	41334.132813
1199.357422	41774.507813
1198.245117	41795.304688
1197.131836	41986.449219
1196.019531	41904.566406
1194.906250	42117.449219
1193.792969	41983.175781
1192.679688	42403.300781
1191.566406	42096.636719
1190.452148	42278.781250
1189.337891	41662.507813
1188.223633	41587.312500
1187.109375	41453.273438
1185.995117	41565.632813
1184.879883	41407.664063
1183.764648	41323.847656
1182.649414	41242.238281
1181.534180	41010.343750
1180.418945	40706.652344
1179.302734	40612.128906
1178.186523	40754.964844
1177.070313	40231.613281
1175.954102	40740.117188
1174.837891	40351.875000
1173.720703	40124.773438
1172.603516	39867.300781
1171.486328	39716.488281
1170.369141	39707.078125
1169.250977	39541.128906
1168.132813	39423.062500
1167.015625	39576.703125
1165.896484	39799.824219
1164.778320	39499.273438
1163.660156	39357.398438
1162.541016	39311.132813
1161.421875	39432.078125
1160.302734	39160.027344
1159.182617	39235.371094
1158.063477	38841.921875
1156.943359	39067.007813
1155.823242	39057.714844
1154.703125	39074.449219
1153.582031	39143.222656
1152.461914	38873.730469
1151.340820	38758.250000
1150.219727	38896.394531
1149.097656	38228.359375
1147.976563	38737.042969
1146.854492	38712.644531
1145.732422	38686.089844
1144.610352	38847.933594
1143.488281	38821.359375
1142.365234	39292.660156
1141.243164	39348.253906
1140.120117	39005.671875
1138.996094	39323.074219
1137.873047	39222.882813
1136.750000	39646.093750
1135.625977	39558.851563
1134.501953	39791.597656
1133.377930	39308.804688
1132.252930	39679.820313
1131.127930	39363.593750
1130.003906	39540.031250
1128.878906	39267.140625
1127.752930	39797.691406
1126.627930	39099.503906
1125.501953	39245.628906
1124.375977	39344.218750
1123.250000	39315.453125
1122.124023	38976.007813
1120.997070	39199.703125
1119.871094	39069.605469
1118.744141	38583.753906
1117.617188	39089.824219
1116.489258	38679.589844
1115.362305	38670.363281
1114.234375	38230.183594
1113.106445	38104.707031
1111.978516	38584.542969
1110.849609	38609.796875
1109.721680	38266.835938
1108.592773	38210.324219
1107.463867	38267.914063
1106.333984	38560.046875
1105.205078	37784.863281
1104.075195	38533.039063
1102.945313	38153.894531
1101.815430	38050.148438
1100.685547	38068.988281
1099.554688	38274.843750
1098.424805	38719.191406
1097.293945	38297.371094
1096.162109	38657.757813
1095.031250	38590.539063
1093.899414	38014.335938
1092.768555	38138.367188
1091.636719	37959.636719
1090.503906	37978.449219
1089.372070	37943.597656
1088.239258	37940.945313
1087.106445	37779.535156
1085.973633	37714.707031
1084.840820	37806.453125
1083.708008	37623.710938
1082.574219	38069.160156
1081.440430	37993.601563
1080.306641	38033.789063
1079.171875	38001.117188
1078.038086	37809.925781
1076.903320	37914.378906
1075.768555	37858.179688
1074.633789	38294.441406
1073.498047	38126.878906
1072.363281	38134.878906
1071.227539	38067.976563
1070.091797	38050.304688
1068.956055	38083.976563
1067.819336	38077.000000
1066.682617	38510.507813
1065.546875	38552.625000
1064.409180	38519.910156
1063.272461	38352.566406
1062.135742	38366.906250
1060.998047	38787.136719
1059.860352	38429.734375
1058.722656	38196.324219
1057.583984	38261.917969
1056.446289	38265.578125
1055.307617	38363.144531
1054.168945	38078.695313
1053.029297	37947.964844
1051.890625	37753.285156
1050.750977	38183.585938
1049.611328	37809.808594
1048.471680	38171.714844
1047.332031	38418.378906
1046.191406	38059.675781
1045.051758	38080.398438
1043.911133	38152.238281
1042.769531	37874.718750
1041.628906	38165.925781
1040.487305	38356.945313
1039.346680	37843.230469
1038.205078	37910.785156
1037.062500	37601.636719
1035.920898	38033.046875
1034.778320	38194.125000
1033.635742	38093.531250
1032.493164	37827.097656
1031.350586	37652.187500
1030.207031	38098.066406
1029.063477	37829.648438
1027.919922	38037.328125
1026.776367	38298.042969
1025.632813	37800.320313
1024.488281	38058.855469
1023.343750	38175.023438
1022.199219	38197.734375
1021.054688	37689.773438
1019.910156	37960.867188
1018.764648	37947.531250
1017.619141	38182.406250
1016.473633	37916.621094
1015.327148	38605.246094
1014.181641	38509.097656
1013.035156	37944.484375
1011.888672	38323.265625
1010.742188	38002.589844
1009.594727	37764.660156
1008.448242	37997.097656
1007.300781	37994.347656
1006.153320	38385.468750
1005.005859	38588.015625
1003.857422	38879.394531
1002.708984	39041.558594
1001.560547	39914.648438
1000.412109	40214.078125
999.263672	40179.183594
998.114258	40757.613281
996.965820	40993.281250
995.816406	40738.394531
994.666016	40815.449219
993.516602	40359.921875
992.366211	40384.191406
991.215820	40714.769531
990.065430	40274.289063
988.915039	40192.968750
987.763672	39803.417969
986.613281	39836.203125
985.461914	40001.941406
984.309570	39929.164063
983.158203	39573.695313
982.005859	39981.968750
980.854492	40107.476563
979.701172	39941.949219
978.548828	39827.074219
977.396484	39400.277344
976.243164	39978.902344
975.089844	39324.664063
973.936523	39420.652344
972.783203	39510.285156
971.628906	39283.992188
970.474609	39173.585938
969.320313	39000.066406
968.166016	39123.378906
967.010742	39309.773438
965.856445	39031.117188
964.701172	39023.929688
963.545898	39220.750000
962.390625	39179.878906
961.234375	39113.792969
960.078125	39400.875000
958.921875	39156.125000
957.765625	39344.328125
956.609375	39150.097656
955.452148	39611.296875
954.294922	39018.062500
953.137695	39040.265625
951.980469	38863.023438
950.822266	38983.894531
949.665039	38831.906250
948.506836	38864.613281
947.347656	38964.433594
946.189453	38948.859375
945.030273	38570.503906
943.872070	38756.281250
942.712891	39011.167969
941.552734	39096.187500
940.393555	39088.976563
939.233398	39337.367188
938.073242	38844.140625
936.913086	39172.066406
935.752930	39129.242188
934.591797	39251.820313
933.430664	39290.628906
932.269531	38839.710938
931.108398	39079.445313
929.947266	39699.832031
928.785156	39506.351563
927.623047	39620.351563
926.460938	39347.500000
925.298828	39632.902344
924.135742	39021.554688
922.972656	39480.351563
921.810547	39447.988281
920.646484	39455.328125
919.483398	39748.789063
918.319336	39426.140625
917.155273	39504.457031
915.991211	39413.667969
914.827148	39959.437500
913.662109	40308.867188
912.498047	39854.972656
911.333008	39893.496094
910.167969	39923.664063
909.001953	40005.945313
907.836914	40277.898438
906.670898	40307.976563
905.504883	40321.367188
904.337891	40361.835938
903.171875	40531.441406
902.004883	40721.812500
900.837891	40152.046875
899.670898	40213.332031
898.503906	40332.875000
897.335938	40190.140625
896.167969	40361.660156
895.000000	39942.269531
893.832031	40330.093750
892.663086	40237.371094
891.495117	39955.464844
890.326172	40207.937500
889.156250	40391.726563
887.987305	40351.003906
886.817383	40142.000000
885.648438	40425.406250
884.478516	40332.769531
883.307617	40439.519531
882.137695	40612.667969
880.966797	40841.796875
879.795898	40678.582031
878.625000	41202.269531
877.454102	41221.613281
876.282227	41294.882813
875.110352	41301.757813
873.938477	41872.625000
872.766602	41427.441406
871.593750	41687.156250
870.421875	41356.152344
869.249023	41711.089844
868.076172	41813.164063
866.902344	42109.890625
865.729492	41926.070313
864.555664	42357.242188
863.381836	42641.277344
862.207031	42703.750000
861.033203	42993.816406
859.858398	43592.046875
858.683594	42828.957031
857.508789	43398.035156
856.333984	43044.679688
855.158203	42788.617188
853.982422	42416.898438
852.806641	42278.839844
851.630859	42456.968750
850.454102	42269.371094
849.278320	42191.308594
848.101563	42197.945313
846.924805	42066.242188
845.747070	42048.121094
844.570313	41823.613281
843.392578	42317.304688
842.214844	42257.878906
841.036133	42359.371094
839.858398	42359.765625
838.679688	42931.339844
837.500977	43067.691406
836.322266	42857.703125
835.143555	43084.691406
833.963867	43326.019531
832.784180	43107.851563
831.604492	42772.359375
830.424805	42830.324219
829.244141	42560.886719
828.063477	42260.671875
826.882813	41571.566406
825.702148	41882.812500
824.521484	41148.765625
823.339844	41538.140625
822.158203	41094.414063
820.976563	41436.359375
819.794922	41181.957031
818.612305	41096.203125
817.430664	41076.242188
816.248047	41128.203125
815.064453	41348.605469
813.881836	41195.093750
812.698242	41236.730469
811.514648	41007.320313
810.331055	41053.078125
809.147461	41096.765625
807.962891	40959.851563
806.778320	41846.792969
805.593750	41771.324219
804.409180	41373.882813
803.224609	41768.109375
802.039063	41787.000000
800.853516	41488.164063
799.667969	41281.660156
798.482422	40694.105469
797.295898	40246.078125
796.109375	40580.664063
794.922852	40462.535156
793.736328	40379.253906
792.548828	40656.300781
791.362305	40063.367188
790.174805	39818.539063
788.986328	39406.027344
787.798828	39844.644531
786.610352	39759.519531
785.421875	39451.531250
784.233398	39209.078125
783.044922	39469.562500
781.856445	39247.628906
780.666992	39060.515625
779.477539	39418.941406
778.288086	39119.519531
777.097656	39204.140625
775.907227	39454.113281
774.717773	39177.300781
773.526367	39176.136719
772.335938	39501.476563
771.144531	39077.902344
769.954102	39309.300781
768.762695	39248.957031
767.570313	39531.210938
766.378906	39193.570313
765.186523	39365.656250
763.994141	39676.257813
762.801758	39882.824219
761.609375	39910.031250
760.416016	40026.847656
759.222656	39992.921875
758.029297	40132.074219
756.835938	40149.027344
755.641602	40436.679688
754.447266	40058.777344
753.252930	40342.265625
752.058594	40243.210938
750.864258	39830.976563
749.668945	39984.199219
748.473633	39958.453125
747.278320	39455.023438
746.083008	39388.734375
744.886719	39365.136719
743.690430	39264.347656
742.494141	39252.968750
741.297852	39142.078125
740.100586	39073.867188
738.904297	38735.683594
737.707031	39154.695313
736.509766	39017.519531
735.311523	38612.574219
734.113281	38956.316406
732.916016	38533.273438
731.716797	38933.675781
730.518555	38634.468750
729.320313	38748.882813
728.121094	38772.054688
726.921875	38618.929688
725.721680	38690.738281
724.522461	38689.593750
723.322266	38830.210938
722.122070	38586.070313
720.921875	38787.382813
719.721680	38486.660156
718.520508	38418.769531
717.319336	38571.437500
716.118164	38620.878906
714.916992	38864.460938
713.714844	38739.921875
712.513672	38763.015625
711.311523	38778.015625
710.108398	38851.617188
708.906250	38939.332031
707.703125	39641.164063
706.500000	39421.675781
705.296875	39184.093750
704.093750	39618.960938
702.889648	39542.921875
701.685547	39555.718750
700.481445	39469.628906
699.277344	39438.046875
698.072266	39854.292969
696.868164	39860.964844
695.663086	39869.652344
694.457031	40221.066406
693.251953	40219.597656
692.045898	40341.062500
690.839844	40359.718750
689.633789	40269.574219
688.427734	40531.953125
687.220703	40403.546875
686.013672	40416.128906
684.806641	40154.921875
683.599609	40485.550781
682.391602	39733.417969
681.184570	39890.968750
679.976563	39440.964844
678.767578	39618.617188
677.559570	39446.320313
676.350586	40042.078125
675.141602	39568.250000
673.932617	39450.316406
672.723633	39840.781250
671.513672	39873.507813
670.303711	39763.609375
669.093750	39430.843750
667.883789	39551.964844
666.672852	39327.757813
665.462891	39053.460938
664.251953	39082.269531
663.040039	38842.222656
661.829102	38867.046875
660.617188	39090.414063
659.405273	38688.074219
658.193359	39107.855469
656.981445	38874.031250
655.768555	38744.503906
654.555664	39125.964844
653.342773	38713.968750
652.129883	39279.558594
650.916016	39350.300781
649.702148	39427.023438
648.488281	39599.800781
647.274414	39914.613281
646.059570	40245.316406
644.845703	40503.867188
643.630859	40712.312500
642.416016	40806.679688
641.200195	41440.894531
639.984375	41263.195313
638.769531	40885.683594
637.552734	40886.015625
636.336914	40356.855469
635.120117	39927.781250
633.904297	39872.359375
632.687500	39653.210938
631.469727	39559.921875
630.252930	39524.558594
629.035156	39036.156250
627.817383	38990.925781
626.599609	39099.324219
625.380859	38768.851563
624.163086	38795.484375
622.944336	38435.281250
621.724609	38788.906250
620.505859	38945.074219
619.286133	38704.605469
618.066406	38589.753906
616.846680	38817.578125
615.626953	39071.207031
614.406250	38930.457031
613.186523	38885.324219
611.965820	39059.167969
610.744141	38729.421875
609.523438	38881.339844
608.301758	38689.023438
607.080078	38677.781250
605.858398	38785.867188
604.635742	38790.515625
603.414063	39093.351563
602.191406	38722.285156
600.968750	38953.480469
599.745117	39029.609375
598.522461	39214.968750
597.298828	39144.046875
596.075195	39790.000000
594.850586	39313.980469
593.626953	39392.058594
592.402344	39470.199219
591.177734	39548.343750
589.953125	39626.484375
588.727539	39704.687500
587.501953	39782.890625
586.276367	39861.093750
585.050781	40228.269531
583.825195	40381.250000
582.598633	40511.777344
581.372070	40642.300781
580.145508	40772.828125
578.917969	40903.457031
577.691406	40929.429688
576.463867	41505.765625
575.236328	41482.125000
574.007813	41622.750000
572.780273	41555.562500
571.551758	41642.707031
570.323242	41581.468750
569.094727	41243.402344
567.865234	41318.683594
566.635742	41051.949219
565.406250	40532.335938
564.176758	40866.566406
562.947266	40465.718750
561.716797	40309.957031
560.486328	40193.750000
559.255859	39623.437500
558.024414	39775.886719
556.793945	39598.652344
555.562500	39466.871094
554.331055	39155.589844
553.098633	39422.425781
551.867188	39424.863281
550.634766	39376.031250
549.402344	38940.781250
548.168945	39063.546875
546.936523	39332.109375
545.703125	38987.753906
544.469727	39063.152344
543.236328	38748.519531
542.001953	38619.117188
540.767578	38655.160156
539.533203	39010.105469
538.298828	38711.453125
537.064453	38627.414063
535.829102	38972.320313
534.593750	38880.386719
533.358398	39449.324219
532.122070	39237.382813
530.886719	39229.988281
529.650391	39273.699219
528.414063	39728.136719
527.176758	39606.683594
525.940430	39520.636719
524.703125	40173.144531
523.465820	39423.253906
522.227539	39472.761719
520.990234	39630.214844
519.751953	39328.335938
518.513672	39422.960938
517.275391	39523.429688
516.036133	39443.398438
514.796875	39726.214844
513.557617	39740.289063
512.318359	40097.441406
511.079102	39844.863281
509.838867	39854.980469
508.598633	39577.070313
507.358398	39763.539063
506.117188	39620.890625
504.876953	39542.917969
503.635742	39417.980469
502.394531	39439.902344
501.152344	39608.601563
499.911133	39534.593750
498.668945	39104.546875
497.425781	39547.050781
496.183594	39445.710938
494.941406	39715.914063
493.698242	39876.535156
492.455078	39693.097656
491.210938	39644.562500
489.967773	39484.675781
488.723633	39395.171875
487.479492	39325.230469
486.235352	39632.187500
484.990234	39919.503906
483.745117	40064.214844
482.500000	40247.902344
481.254883	39959.316406
480.008789	40386.808594
478.763672	40628.839844
477.517578	40199.933594
476.271484	40658.328125
475.024414	40847.531250
473.777344	40933.359375
472.530273	40656.707031
471.283203	40756.175781
470.036133	40619.906250
468.788086	41001.734375
467.540039	40267.683594
466.291992	40472.269531
465.043945	40984.316406
463.794922	40616.542969
462.545898	40999.945313
461.296875	40955.226563
460.047852	41108.914063
458.797852	41441.441406
457.547852	41707.738281
456.297852	41439.367188
455.047852	41653.082031
453.796875	41425.628906
452.545898	41843.253906
451.294922	41800.371094
450.043945	42011.906250
448.792969	42110.746094
447.541016	42151.304688
446.289063	42793.535156
445.036133	42736.921875
443.784180	42752.109375
442.531250	42645.082031
441.278320	42772.769531
440.025391	41861.054688
438.771484	42711.980469
437.518555	42075.863281
436.264648	41686.109375
435.010742	41325.566406
433.755859	41540.519531
432.500977	41027.125000
431.246094	41158.781250
429.991211	40709.539063
428.736328	40879.914063
427.480469	40456.054688
426.224609	40730.902344
424.968750	40699.968750
423.712891	40663.238281
422.456055	40255.203125
421.199219	40307.511719
419.942383	40089.148438
418.685547	40238.109375
417.427734	40205.359375
416.169922	40215.125000
414.912109	40157.273438
413.654297	40356.316406
412.395508	40153.628906
411.136719	40157.597656
409.877930	40327.566406
408.619141	40144.292969
407.359375	40578.542969
406.099609	40269.894531
404.839844	40433.917969
403.580078	39907.492188
402.319336	40140.929688
401.059570	40100.539063
