EXPLAIN
TAG	CHRONOA
TITLE	LABEL	Chronoamperometry Scan	Test Identifier
DATE	LABEL	5/7/2022	Date
TIME	LABEL	11:55:32	Time
NOTES	NOTES	1	Notes...
	
PSTAT	PSTAT	IFC1010-21051	Potentiostat
VPRESTEP	POTEN	-7.50000E-001	F	Pre-step Voltage (V)
TPRESTEP	QUANT	5.00000E-001	Pre-step Delay Time (s)
VSTEP1	POTEN	-8.00000E-001	F	Step 1 Voltage (V)
TSTEP1	QUANT	3.00000E+002	Step 1 Time (s)
VSTEP2	POTEN	0.00000E+000	F	Step 2 Voltage (V)
TSTEP2	QUANT	5.00000E+001	Step 2 Time (s)
SAMPLETIME	QUANT	1.00000E-001	Sample Period (s)
DECIMATE	TOGGLE	T	Decimate
ILIMIT	QUANT	1.00000E+000	Limit I (mA/cm^2)
IMODE	SELECTOR	1	I/E Range Mode
IRANGE	QUANT	3.00000E-001	Max Current (mA)
EQDELAY	QUANT	5.00000E+000	Equil. Time (s)
SAMPLINGMODE	SELECTOR	1	Sampling Mode
AREA	QUANT	1.00000E+000	Sample Area (cm^2)
IRCOMP	SELECTOR	0	IRComp
PFCOR	QUANT	5.00000E+001	PF Corr. (ohm)
SEQUENCER	TOGGLE	TRUE	Run as Sequence
PSTATMODEL	IQUANT	64	Pstat Model
PSTATSECTION	LABEL	IFC1010-21051	Pstat Section
PSTATSERIALNO	LABEL	21051	Pstat Serial Number
CTRLMODE	IQUANT	1	Control Mode
ELECTROMETER	IQUANT	0	RE=0 or CS=1
IESTAB	IQUANT	0	I/E Stability
CASPEED	IQUANT	4	Control Amp Speed
CONVENTION	IQUANT	1	Current Convention
ICHRANGE	IQUANT	2	Ich Range
ICHRANGEMODE	TOGGLE	T	Ich Auto Range
ICHOFFSETENABLE	TOGGLE	F	Ich Offset Enable
ICHOFFSET	QUANT	0	Ich Offset (V)
ICHFILTER	IQUANT	3	Ich Filter
VCHRANGE	IQUANT	3	Vch Range
VCHRANGEMODE	TOGGLE	T	Vch Auto Range
VCHOFFSETENABLE	TOGGLE	F	Vch Offset Enable
VCHOFFSET	QUANT	0	Vch Offset (V)
VCHFILTER	IQUANT	3	Vch Filter
IERANGELOWERLIMIT	IQUANT	4	I/E Range Lower Limit
IERANGEMODE	TOGGLE	F	I/E AutoRange
IERANGE	IQUANT	9	I/E Range
ACHSELECT	IQUANT	0	Ach Select
ACHRANGE	IQUANT	2	Ach Range
ACHOFFSETENABLE	TOGGLE	F	Ach Offset Enable
ACHOFFSET	QUANT	0	Ach Offset (V)
ACHFILTER	IQUANT	1	Ach Filter
SENSECABLEID	IQUANT	14	Sense Cable ID
PWRCABLEID	IQUANT	14	Power Cable ID
DCCALDATE	LABEL	5/16/2022	DC Calibration Date
ACCALDATE	LABEL	4/2/2018	AC Calibration Date
FRAMEWORKVERSION	QUANT	7.06	Framework Version
INSTRUMENTVERSION	LABEL	4.30	Instrument Version
CURVE	TABLE	89
	Pt	T	Vf	Im	Vu	Sig	Ach	IERange	Over	Temp
	#	s	V vs. Ref.	A	V	V	V	#	bits	deg C
	0	-0.4	-7.50274E-001	-1.19470E-004	0.00000E+000	-7.50009E-001	0.00000E+000	9	...........	1424.54
	1	-0.3	-7.50488E-001	-1.19395E-004	0.00000E+000	-7.50009E-001	0.00000E+000	9	...........	1424.63
	2	-0.2	-7.50496E-001	-1.19411E-004	0.00000E+000	-7.50009E-001	0.00000E+000	9	...........	1424.63
	3	-0.1	-7.50500E-001	-1.19353E-004	0.00000E+000	-7.50009E-001	0.00000E+000	9	...........	1424.63
	4	0	-7.50490E-001	-1.19287E-004	0.00000E+000	-7.50009E-001	0.00000E+000	9	...........	1424.63
	5	0.1	-8.00473E-001	-2.95689E-004	0.00000E+000	-8.00009E-001	0.00000E+000	9	...........	1424.63
	6	0.2	-8.00477E-001	-2.49836E-004	0.00000E+000	-8.00009E-001	0.00000E+000	9	...........	1424.63
	7	0.3	-8.00481E-001	-2.21733E-004	0.00000E+000	-8.00009E-001	0.00000E+000	9	...........	1424.63
	8	0.4	-8.00483E-001	-2.03100E-004	0.00000E+000	-8.00009E-001	0.00000E+000	9	...........	1424.63
	9	0.5	-8.00475E-001	-1.90075E-004	0.00000E+000	-8.00009E-001	0.00000E+000	9	...........	1424.63
	10	0.6	-8.00486E-001	-1.80571E-004	0.00000E+000	-8.00009E-001	0.00000E+000	9	...........	1424.63
	11	0.7	-8.00484E-001	-1.73480E-004	0.00000E+000	-8.00009E-001	0.00000E+000	9	...........	1424.54
	12	0.8	-8.00476E-001	-1.67998E-004	0.00000E+000	-8.00009E-001	0.00000E+000	9	...........	1424.54
	13	0.9	-8.00470E-001	-1.63688E-004	0.00000E+000	-8.00009E-001	0.00000E+000	9	...........	1424.54
	14	1	-8.00474E-001	-1.60211E-004	0.00000E+000	-8.00009E-001	0.00000E+000	9	...........	1424.54
	15	1.1	-8.00480E-001	-1.57390E-004	0.00000E+000	-8.00009E-001	0.00000E+000	9	...........	1424.54
	16	1.2	-8.00474E-001	-1.55079E-004	0.00000E+000	-8.00009E-001	0.00000E+000	9	...........	1424.54
	17	1.3	-8.00481E-001	-1.53140E-004	0.00000E+000	-8.00009E-001	0.00000E+000	9	...........	1424.54
	18	1.4	-8.00468E-001	-1.51437E-004	0.00000E+000	-8.00009E-001	0.00000E+000	9	...........	1424.54
	19	1.5	-8.00474E-001	-1.49959E-004	0.00000E+000	-8.00009E-001	0.00000E+000	9	...........	1424.54
	20	1.6	-8.00470E-001	-1.48812E-004	0.00000E+000	-8.00009E-001	0.00000E+000	9	...........	1424.54
	21	1.7	-8.00488E-001	-1.47752E-004	0.00000E+000	-8.00009E-001	0.00000E+000	9	...........	1424.54
	22	1.8	-8.00484E-001	-1.46776E-004	0.00000E+000	-8.00009E-001	0.00000E+000	9	...........	1424.54
	23	1.9	-8.00488E-001	-1.45960E-004	0.00000E+000	-8.00009E-001	0.00000E+000	9	...........	1424.54
	24	2	-8.00484E-001	-1.45202E-004	0.00000E+000	-8.00009E-001	0.00000E+000	9	...........	1424.54
	25	2.1	-8.00477E-001	-1.44451E-004	0.00000E+000	-8.00009E-001	0.00000E+000	9	...........	1424.54
	26	2.2	-8.00486E-001	-1.43905E-004	0.00000E+000	-8.00009E-001	0.00000E+000	9	...........	1424.54
	27	2.3	-8.00483E-001	-1.43354E-004	0.00000E+000	-8.00009E-001	0.00000E+000	9	...........	1424.54
	28	2.4	-8.00479E-001	-1.42760E-004	0.00000E+000	-8.00009E-001	0.00000E+000	9	...........	1424.54
	29	2.5	-8.00482E-001	-1.42381E-004	0.00000E+000	-8.00009E-001	0.00000E+000	9	...........	1424.54
	30	2.6	-8.00480E-001	-1.41948E-004	0.00000E+000	-8.00009E-001	0.00000E+000	9	...........	1424.54
	31	2.7	-8.00482E-001	-1.41553E-004	0.00000E+000	-8.00009E-001	0.00000E+000	9	...........	1424.54
	32	2.8	-8.00479E-001	-1.41190E-004	0.00000E+000	-8.00009E-001	0.00000E+000	9	...........	1424.54
	33	2.9	-8.00484E-001	-1.40777E-004	0.00000E+000	-8.00009E-001	0.00000E+000	9	...........	1424.54
	34	3	-8.00484E-001	-1.40437E-004	0.00000E+000	-8.00009E-001	0.00000E+000	9	...........	1424.54
	35	3.1	-8.00480E-001	-1.40207E-004	0.00000E+000	-8.00009E-001	0.00000E+000	9	...........	1424.54
	36	3.2	-8.00476E-001	-1.39889E-004	0.00000E+000	-8.00009E-001	0.00000E+000	9	...........	1424.54
	37	3.3	-8.00478E-001	-1.39651E-004	0.00000E+000	-8.00009E-001	0.00000E+000	9	...........	1424.54
	38	3.4	-8.00474E-001	-1.39362E-004	0.00000E+000	-8.00009E-001	0.00000E+000	9	...........	1424.54
	39	3.5	-8.00487E-001	-1.39150E-004	0.00000E+000	-8.00009E-001	0.00000E+000	9	...........	1424.54
	40	3.6	-8.00477E-001	-1.38933E-004	0.00000E+000	-8.00009E-001	0.00000E+000	9	...........	1424.54
	41	3.7	-8.00483E-001	-1.38685E-004	0.00000E+000	-8.00009E-001	0.00000E+000	9	...........	1424.54
	42	3.8	-8.00486E-001	-1.38486E-004	0.00000E+000	-8.00009E-001	0.00000E+000	9	...........	1424.54
	43	3.9	-8.00488E-001	-1.38295E-004	0.00000E+000	-8.00009E-001	0.00000E+000	9	...........	1424.54
	44	4	-8.00490E-001	-1.38133E-004	0.00000E+000	-8.00009E-001	0.00000E+000	9	...........	1424.54
	45	4.1	-8.00483E-001	-1.37955E-004	0.00000E+000	-8.00009E-001	0.00000E+000	9	...........	1424.54
	46	4.2	-8.00482E-001	-1.37788E-004	0.00000E+000	-8.00009E-001	0.00000E+000	9	...........	1424.54
	47	4.3	-8.00478E-001	-1.37646E-004	0.00000E+000	-8.00009E-001	0.00000E+000	9	...........	1424.54
	48	4.4	-8.00474E-001	-1.37456E-004	0.00000E+000	-8.00009E-001	0.00000E+000	9	...........	1424.54
	49	4.5	-8.00472E-001	-1.37341E-004	0.00000E+000	-8.00009E-001	0.00000E+000	9	...........	1424.54
	50	4.6	-8.00481E-001	-1.37188E-004	0.00000E+000	-8.00009E-001	0.00000E+000	9	...........	1424.54
	51	4.7	-8.00482E-001	-1.37071E-004	0.00000E+000	-8.00009E-001	0.00000E+000	9	...........	1424.45
	52	4.8	-8.00487E-001	-1.36911E-004	0.00000E+000	-8.00009E-001	0.00000E+000	9	...........	1424.45
	53	4.9	-8.00486E-001	-1.36777E-004	0.00000E+000	-8.00009E-001	0.00000E+000	9	...........	1424.45
	54	5	-8.00471E-001	-1.36640E-004	0.00000E+000	-8.00009E-001	0.00000E+000	9	...........	1424.45
	55	5.1	-8.00484E-001	-1.36559E-004	0.00000E+000	-8.00009E-001	0.00000E+000	9	...........	1424.45
	56	5.2	-8.00474E-001	-1.36426E-004	0.00000E+000	-8.00009E-001	0.00000E+000	9	...........	1424.45
	57	5.3	-8.00473E-001	-1.36281E-004	0.00000E+000	-8.00009E-001	0.00000E+000	9	...........	1424.45
	58	5.4	-8.00475E-001	-1.36222E-004	0.00000E+000	-8.00009E-001	0.00000E+000	9	...........	1424.45
	59	5.5	-8.00487E-001	-1.36134E-004	0.00000E+000	-8.00009E-001	0.00000E+000	9	...........	1424.45
	60	5.6	-8.00467E-001	-1.35984E-004	0.00000E+000	-8.00009E-001	0.00000E+000	9	...........	1424.45
	61	5.7	-8.00462E-001	-1.35853E-004	0.00000E+000	-8.00009E-001	0.00000E+000	9	...........	1424.54
	62	5.8	-8.00465E-001	-1.35799E-004	0.00000E+000	-8.00009E-001	0.00000E+000	9	...........	1424.54
	63	5.9	-8.00480E-001	-1.35743E-004	0.00000E+000	-8.00009E-001	0.00000E+000	9	...........	1424.54
	64	6	-8.00481E-001	-1.35687E-004	0.00000E+000	-8.00009E-001	0.00000E+000	9	...........	1424.54
	65	6.1	-8.00479E-001	-1.35575E-004	0.00000E+000	-8.00009E-001	0.00000E+000	9	...........	1424.54
	66	7.1	-8.00472E-001	-1.34876E-004	0.00000E+000	-8.00009E-001	0.00000E+000	9	...........	1424.45
	67	8.1	-8.00482E-001	-1.34282E-004	0.00000E+000	-8.00009E-001	0.00000E+000	9	...........	1424.54
	68	9.1	-8.00472E-001	-1.33853E-004	0.00000E+000	-8.00009E-001	0.00000E+000	9	...........	1424.54
	69	10.1	-8.00473E-001	-1.33430E-004	0.00000E+000	-8.00009E-001	0.00000E+000	9	...........	1424.54
	70	11.1	-8.00484E-001	-1.33104E-004	0.00000E+000	-8.00009E-001	0.00000E+000	9	...........	1424.54
	71	12.1	-8.00472E-001	-1.32856E-004	0.00000E+000	-8.00009E-001	0.00000E+000	9	...........	1424.54
	72	13.1	-8.00478E-001	-1.32602E-004	0.00000E+000	-8.00009E-001	0.00000E+000	9	...........	1424.54
	73	14.1	-8.00479E-001	-1.32382E-004	0.00000E+000	-8.00009E-001	0.00000E+000	9	...........	1424.54
	74	15.1	-8.00471E-001	-1.32172E-004	0.00000E+000	-8.00009E-001	0.00000E+000	9	...........	1424.54
	75	16.1	-8.00488E-001	-1.31938E-004	0.00000E+000	-8.00009E-001	0.00000E+000	9	...........	1424.54
	76	26.1	-8.00484E-001	-1.30933E-004	0.00000E+000	-8.00009E-001	0.00000E+000	9	...........	1424.54
	77	36.1	-8.00492E-001	-1.30345E-004	0.00000E+000	-8.00009E-001	0.00000E+000	9	...........	1424.54
	78	46.1	-8.00497E-001	-1.29969E-004	0.00000E+000	-8.00009E-001	0.00000E+000	9	...........	1424.54
	79	56.1	-8.00496E-001	-1.29577E-004	0.00000E+000	-8.00009E-001	0.00000E+000	9	...........	1424.63
	80	66.1	-8.00484E-001	-1.29296E-004	0.00000E+000	-8.00009E-001	0.00000E+000	9	...........	1424.63
	81	76.1	-8.00488E-001	-1.29118E-004	0.00000E+000	-8.00009E-001	0.00000E+000	9	...........	1424.63
	82	86.1	-8.00505E-001	-1.28782E-004	0.00000E+000	-8.00009E-001	0.00000E+000	9	...........	1424.63
	83	96.1	-8.00481E-001	-1.28615E-004	0.00000E+000	-8.00009E-001	0.00000E+000	9	...........	1424.63
	84	106.1	-8.00491E-001	-1.28504E-004	0.00000E+000	-8.00009E-001	0.00000E+000	9	...........	1424.63
	85	116.1	-8.00479E-001	-1.28651E-004	0.00000E+000	-8.00009E-001	0.00000E+000	9	...........	1424.63
	86	216.1	-8.00477E-001	-1.28824E-004	0.00000E+000	-8.00009E-001	0.00000E+000	9	...........	1424.63
	87	300	-8.00487E-001	-1.29551E-004	0.00000E+000	-8.00009E-001	0.00000E+000	9	...........	1424.63
	88	300.1	-3.98569E-004	1.09305E-003	0.00000E+000	-1.28746E-005	0.00000E+000	9	....ih..i..	1424.63
