Data from AgNPs_FTO_APTES_UA_1uM_CRN_5uM_R6G_10uM_NaF_0.1M_Addition_RamanShift__29__14-09-59-613.txt Node

Date: Thu Jan 27 14:09:59 GMT 2022
User: TCL
Spectrometer: QEP01345
Trigger mode: 4
Integration Time (sec): 7.000000E0
Scans to average: 10
Electric dark correction enabled: true
Nonlinearity correction enabled: false
Boxcar width: 0
XAxis mode: Raman Shifts
Number of Pixels in Spectrum: 1044
>>>>>Begin Spectral Data<<<<<
46.04893	1
50.45542	1.4
54.85868	-0.9
59.25871	-1.3
63.6555	34.3
68.04907	36.9
72.43941	42.1
76.82654	42.8
81.21044	45.6
85.59113	45.4
89.96862	47.9
94.34289	51.3
98.71396	53.2
103.08183	50
107.4465	54
111.80798	54
116.16626	52.1
120.52136	58.7
124.87327	57.1
129.222	52.4
133.56755	56.6
137.90993	55.4
142.24913	58.2
146.58517	66.9
150.91804	71.6
155.24774	79
159.57429	92
163.89768	111.1
168.21792	141.1
172.53501	184.2
176.84895	247.9
181.15975	333.4
185.46741	461.1
189.77193	631.5
194.07331	839.1
198.37157	1084.3
202.6667	1334
206.9587	1575.6
211.24758	1820.5
215.53334	2085.3
219.81599	2379.3
224.09553	2703.8
228.37195	3084.5
232.64527	3458.9
236.91549	3864.8
241.18261	4231.1
245.44663	4477.6
249.70755	4746.2
253.96539	4955.7
258.22014	5113
262.4718	5291.7
266.72039	5436.4
270.96589	5534.8
275.20832	5545.2
279.44768	5521.1
283.68397	5480.7
287.91719	5439.3
292.14735	5446.2
296.37445	5538.7
300.59849	5735.7
304.81948	5982.4
309.03742	6170.6
313.25231	6147.8
317.46415	5853.1
321.67296	5382.6
325.87872	5005.4
330.08145	4828.1
334.28114	4818.8
338.47781	4883.3
342.67145	5048.6
346.86207	5267.6
351.04966	5582.7
355.23424	5959.8
359.4158	6239.4
363.59435	6372.9
367.76989	6405
371.94243	6374.8
376.11196	6321.5
380.27849	6286.3
384.44203	6218.4
388.60257	6114.5
392.76012	6073.8
396.91468	6143.3
401.06626	6317.5
405.21485	6473.9
409.36047	6369.7
413.50311	6041.2
417.64277	5735.8
421.77947	5563.6
425.9132	5482.4
430.04396	5477.4
434.17176	5506.3
438.2966	5568.8
442.41849	5683.5
446.53742	5845.9
450.6534	5994.9
454.76644	6112.7
458.87653	6144.3
462.98368	6087.7
467.08789	5992.7
471.18916	5867.1
475.2875	5734.8
479.38291	5630
483.4754	5536.6
487.56496	5488.1
491.6516	5433.4
495.73531	5407.6
499.81612	5421.4
503.89401	5494.9
507.96899	5556.3
512.04106	5623.1
516.11023	5732.5
520.1765	5788
524.23987	5753.5
528.30034	5631.5
532.35792	5507.8
536.41261	5387.7
540.46441	5246
544.51333	5210.3
548.55936	5252.8
552.60252	5361.2
556.64279	5514.6
560.6802	5586.1
564.71473	5652.5
568.7464	5880.5
572.7752	6047.2
576.80114	5946.3
580.82422	5755.9
584.84444	5690.2
588.86181	5647.6
592.87633	5630
596.888	5684.8
600.89682	5890.8
604.9028	6509.2
608.90594	8231.3
612.90624	10574.1
616.90371	10328.8
620.89834	7315.4
624.89015	5805.7
628.87913	5500.3
632.86528	5505.6
636.84862	5603.9
640.82913	5542.6
644.80683	5334.2
648.78172	5172.5
652.75379	5193.7
656.72306	5434.8
660.68952	5701.5
664.65319	5683.7
668.61405	5403.1
672.57211	5245.7
676.52738	5234.4
680.47986	5220.3
684.42955	5196.3
688.37646	5179.6
692.32058	5206.1
696.26192	5232.4
700.20048	5307.6
704.13626	5381.4
708.06928	5361.9
711.99952	5313.3
715.927	5284.9
719.85171	5308.1
723.77365	5275.2
727.69284	5225.1
731.60928	5179.8
735.52295	5177.8
739.43388	5198.4
743.34206	5225.4
747.24749	5238.3
751.15017	5319.3
755.05012	5419.6
758.94733	5667.9
762.8418	6221
766.73354	7217.8
770.62254	8289.1
774.50882	8798.3
778.39237	8464
782.27321	7398.1
786.15132	6330.6
790.02671	5688.7
793.89938	5426.4
797.76935	5287.3
801.6366	5250.1
805.50115	5199.3
809.36299	5191.6
813.22213	5159.8
817.07857	5143.7
820.93231	5145.7
824.78336	5172.7
828.63172	5194.6
832.47738	5209.7
836.32036	5197.9
840.16066	5182.2
843.99827	5120.1
847.8332	5126.3
851.66546	5129.8
855.49504	5131.5
859.32195	5099.2
863.1462	5084.8
866.96777	5075.3
870.78668	5059.3
874.60293	5070.4
878.41652	5089.2
882.22745	5117.1
886.03573	5132.5
889.84136	5129.7
893.64433	5099.1
897.44466	5079.3
901.24235	5102.2
905.0374	5075.4
908.8298	5034.8
912.61957	5059.3
916.40671	5096.1
920.19121	5118.3
923.97308	5189.7
927.75233	5231.4
931.52895	5265.5
935.30295	5224
939.07433	5069.3
942.84309	4963
946.60924	4875.1
950.37278	4841.7
954.13371	4822.9
957.89203	4806
961.64774	4792.5
965.40086	4769
969.15137	4757.5
972.89929	4745.3
976.64461	4727.1
980.38733	4737.7
984.12747	4741.1
987.86502	4756.5
991.59999	4777.8
995.33237	4850.4
999.06217	4927.1
1002.78939	5044.4
1006.51404	5178
1010.23611	5305
1013.95561	5366
1017.67255	5374.3
1021.38692	5291.1
1025.09872	5201.1
1028.80796	5143.6
1032.51465	5146.4
1036.21877	5202.3
1039.92035	5259.7
1043.61937	5270.6
1047.31584	5258.8
1051.00976	5232.5
1054.70114	5216.1
1058.38998	5228.8
1062.07627	5252.7
1065.76003	5283.4
1069.44126	5328.8
1073.11995	5369.4
1076.79611	5420.9
1080.46974	5509.1
1084.14085	5616.8
1087.80943	5755.7
1091.47549	5814.6
1095.13903	5742.4
1098.80005	5542.1
1102.45857	5359.1
1106.11456	5285
1109.76805	5293.7
1113.41903	5373.5
1117.06751	5538
1120.71348	5728.6
1124.35696	5971.9
1127.99793	6179.2
1131.63641	6190.6
1135.2724	5932.9
1138.90589	5675
1142.5369	5509.9
1146.16542	5436.1
1149.79145	5328.3
1153.415	5340.3
1157.03607	5412.5
1160.65467	5513.8
1164.27079	5678.9
1167.88443	5964.7
1171.49561	6407.5
1175.10432	7142.4
1178.71056	8153.3
1182.31434	8854.1
1185.91565	9014.8
1189.51451	8812.6
1193.11091	8297.7
1196.70485	7654.2
1200.29634	7164
1203.88538	6812.4
1207.47197	6419.6
1211.05612	6076.1
1214.63782	5899.6
1218.21708	5836.2
1221.79391	5840.6
1225.36829	5903.8
1228.94024	5985.5
1232.50976	6041.6
1236.07685	6109
1239.6415	6109.9
1243.20374	6095.7
1246.76355	6087.6
1250.32093	6156
1253.8759	6237.1
1257.42845	6439.8
1260.97859	6617.9
1264.52631	6797.3
1268.07163	6985
1271.61453	7145.4
1275.15503	7295.2
1278.69312	7355.9
1282.22882	7412.5
1285.76211	7571.7
1289.29301	7787.8
1292.82151	8009
1296.34761	8221.2
1299.87133	8536.5
1303.39266	9114
1306.9116	10034.5
1310.42815	11173.1
1313.94233	11964.3
1317.45412	11916
1320.96354	11218.7
1324.47058	10411.1
1327.97525	9689.8
1331.47754	9271.1
1334.97747	9106.5
1338.47502	9122.8
1341.97022	9242.4
1345.46305	9492.1
1348.95352	9880.7
1352.44163	10455.1
1355.92738	11330.5
1359.41078	12778.1
1362.89183	14354.8
1366.37053	14209.7
1369.84688	12209.3
1373.32088	10100.5
1376.79254	8746.4
1380.26186	8118.9
1383.72883	7778.8
1387.19347	7546.4
1390.65578	7240.3
1394.11575	6983.9
1397.57339	6883.9
1401.0287	6922.4
1404.48168	7027.7
1407.93234	7170.9
1411.38068	7290.5
1414.82669	7305.8
1418.27039	7179.3
1421.71177	7035.1
1425.15083	6882.3
1428.58758	6807
1432.02203	6791
1435.45416	6814.6
1438.88399	6849.7
1442.31151	6847.8
1445.73673	6854.4
1449.15965	6906
1452.58027	6861.1
1455.9986	6805.6
1459.41463	6789.9
1462.82837	6816.1
1466.23982	6930.8
1469.64898	7061.8
1473.05586	7178.2
1476.46045	7255.6
1479.86276	7363.9
1483.26279	7532.7
1486.66054	7730.5
1490.05602	7972
1493.44922	8294.8
1496.84016	8845.6
1500.22882	9562.4
1503.61521	10608.3
1506.99934	11756.7
1510.38121	12947.8
1513.76081	13652
1517.13816	13202.8
1520.51324	11782.6
1523.88607	10218
1527.25665	9096.3
1530.62498	8450
1533.99105	8025.7
1537.35488	7765.1
1540.71647	7596.6
1544.07581	7523
1547.4329	7459.3
1550.78776	7406.2
1554.14038	7396.8
1557.49077	7459.3
1560.83892	7601.3
1564.18484	7807.3
1567.52853	8008.5
1570.86999	8145.8
1574.20922	8261.8
1577.54624	8231.8
1580.88103	7881.7
1584.2136	7423.5
1587.54395	7188.6
1590.87208	7280.2
1594.19801	7660.8
1597.52172	8151.6
1600.84321	8384
1604.16251	8130.5
1607.47959	7630.6
1610.79447	7086.7
1614.10715	6564.6
1617.41763	6159.9
1620.7259	5900.6
1624.03199	5767.5
1627.33587	5777.5
1630.63757	5894
1633.93707	6162.9
1637.23439	6589
1640.52951	7179.1
1643.82246	7899.9
1647.11321	8710
1650.40179	9362.1
1653.68819	9260.1
1656.97241	8184.9
1660.25446	6902.6
1663.53433	5951.6
1666.81203	5389.4
1670.08756	5080.1
1673.36092	4897.4
1676.63211	4785.5
1679.90115	4713.4
1683.16801	4626.3
1686.43272	4578.4
1689.69527	4530
1692.95567	4506.2
1696.2139	4475.3
1699.46999	4424.2
1702.72392	4413.4
1705.97571	4396.7
1709.22535	4443.9
1712.47284	4451.2
1715.71819	4489.1
1718.96139	4483.6
1722.20246	4467.3
1725.44139	4448.9
1728.67818	4441.9
1731.91284	4401.6
1735.14537	4355.4
1738.37576	4338.4
1741.60403	4315.6
1744.83017	4300.3
1748.05418	4286.7
1751.27607	4267
1754.49584	4246.3
1757.71349	4232
1760.92903	4221.1
1764.14244	4185.4
1767.35375	4187.7
1770.56294	4198.8
1773.77002	4194.7
1776.97499	4195.8
1780.17785	4170.1
1783.37861	4192.8
1786.57727	4191
1789.77382	4195
1792.96828	4181.4
1796.16064	4178.1
1799.3509	4168
1802.53907	4165.9
1805.72514	4148.9
1808.90913	4155.2
1812.09102	4128.2
1815.27083	4124.2
1818.44856	4130.6
1821.6242	4106.9
1824.79776	4107.2
1827.96924	4090.3
1831.13864	4100.4
1834.30597	4072.2
1837.47122	4095.6
1840.6344	4089.2
1843.7955	4087.5
1846.95454	4087.2
1850.11151	4087.3
1853.26642	4090.2
1856.41926	4093.5
1859.57004	4092.5
1862.71876	4104.4
1865.86542	4087.9
1869.01003	4095.5
1872.15258	4079.4
1875.29308	4096
1878.43152	4101.6
1881.56792	4110.2
1884.70227	4107.6
1887.83457	4118.8
1890.96482	4107.4
1894.09304	4105.4
1897.21921	4118.3
1900.34335	4096.4
1903.46544	4109.5
1906.58551	4114.6
1909.70353	4099.9
1912.81953	4093.1
1915.93349	4096.1
1919.04543	4094.9
1922.15534	4080.7
1925.26322	4076.3
1928.36908	4068
1931.47292	4056
1934.57473	4023
1937.67453	4004.2
1940.77232	3977
1943.86808	3956.9
1946.96184	3930.6
1950.05358	3920
1953.14331	3914.6
1956.23103	3891.7
1959.31675	3879.3
1962.40046	3855.2
1965.48217	3842.2
1968.56188	3836.7
1971.63959	3832.1
1974.7153	3825.8
1977.78901	3808.1
1980.86073	3788.7
1983.93046	3770.1
1986.99819	3767.9
1990.06394	3747.7
1993.1277	3742.9
1996.18947	3712.9
1999.24925	3709.1
2002.30706	3697.7
2005.36288	3698.9
2008.41672	3678
2011.46859	3675.5
2014.51848	3648.7
2017.56639	3654.6
2020.61233	3640
2023.6563	3628.6
2026.6983	3617
2029.73833	3601.4
2032.7764	3597.2
2035.8125	3594
2038.84664	3574.9
2041.87881	3573.5
2044.90903	3577.6
2047.93729	3552.8
2050.96359	3556.2
2053.98794	3548
2057.01034	3544.7
2060.03078	3532.8
2063.04927	3537
2066.06582	3530.6
2069.08042	3531.5
2072.09307	3534.2
2075.10378	3528.5
2078.11255	3518.3
2081.11938	3494.4
2084.12426	3520.5
2087.12722	3512.3
2090.12824	3515
2093.12732	3512
2096.12447	3512.4
2099.11969	3504.5
2102.11299	3505.4
2105.10435	3510.7
2108.09379	3509.8
2111.08131	3508.7
2114.0669	3506.6
2117.05057	3497.5
2120.03233	3497.8
2123.01216	3504.2
2125.99008	3513
2128.96609	3511.6
2131.94018	3518.6
2134.91236	3511.5
2137.88263	3517.9
2140.851	3512.2
2143.81746	3510
2146.78201	3517.9
2149.74466	3506.2
2152.7054	3506.5
2155.66425	3496.9
2158.6212	3511.4
2161.57625	3499.4
2164.52941	3498.2
2167.48067	3499.1
2170.43004	3500.9
2173.37752	3494
2176.32311	3484.7
2179.26681	3488.9
2182.20863	3493.3
2185.14856	3497.4
2188.08661	3494.8
2191.02278	3484.4
2193.95707	3484.1
2196.88948	3486.7
2199.82001	3481.8
2202.74867	3475.9
2205.67545	3461.7
2208.60037	3466
2211.52341	3473.7
2214.44458	3457.2
2217.36388	3431.8
2220.28132	3428.2
2223.1969	3432.6
2226.11061	3414.2
2229.02246	3399.9
2231.93245	3413.1
2234.84058	3396.3
2237.74686	3391.9
2240.65128	3381.3
2243.55385	3362.1
2246.45456	3368.2
2249.35343	3370.7
2252.25044	3390.3
2255.14561	3371.7
2258.03893	3367.5
2260.93041	3351
2263.82004	3360.8
2266.70783	3352
2269.59378	3348.1
2272.4779	3321.3
2275.36017	3326.7
2278.24061	3304.3
2281.11922	3304.9
2283.996	3311.4
2286.87094	3303.1
2289.74405	3291.2
2292.61534	3276.2
2295.4848	3257.9
2298.35243	3269.6
2301.21824	3273.5
2304.08223	3264.7
2306.94439	3259.5
2309.80474	3253.7
2312.66327	3261.4
2315.51999	3254.3
2318.37489	3256
2321.22797	3227.2
2324.07925	3232.5
2326.92871	3235.3
2329.77637	3218.3
2332.62222	3229.4
2335.46626	3219.9
2338.3085	3220
2341.14893	3228.9
2343.98756	3224.9
2346.8244	3220.5
2349.65943	3214.4
2352.49267	3221.6
2355.32411	3213
2358.15376	3222
2360.98161	3215.9
2363.80768	3225.7
2366.63195	3223.2
2369.45444	3221.8
2372.27514	3227.7
2375.09405	3221.3
2377.91118	3212.5
2380.72652	3197.4
2383.54009	3180.5
2386.35187	3163
2389.16188	3159.6
2391.97011	3150.2
2394.77657	3136.6
2397.58125	3125.7
2400.38416	3121.2
2403.18529	3124.4
2405.98466	3105
2408.78226	3105.7
2411.57809	3104.7
2414.37216	3093.9
2417.16446	3097.1
2419.955	3098.2
2422.74378	3075.4
2425.5308	3081
2428.31606	3082
2431.09956	3079.2
2433.88131	3084.5
2436.6613	3082
2439.43954	3069.6
2442.21603	3067.2
2444.99077	3073
2447.76377	3081.4
2450.53501	3075.6
2453.30451	3076.1
2456.07226	3057.5
2458.83827	3063.9
2461.60254	3062.6
2464.36507	3064.4
2467.12586	3053.9
2469.88492	3043.4
2472.64224	3052.9
2475.39782	3052.9
2478.15167	3049
2480.90379	3037.7
2483.65417	3066.2
2486.40283	3066.5
2489.14976	3057.7
2491.89497	3083.6
2494.63845	3081.7
2497.3802	3064.4
2500.12024	3078.2
2502.85855	3054.4
2505.59514	3047.4
2508.33002	3037.6
2511.06318	3037.8
2513.79462	3009.7
2516.52435	3005.6
2519.25237	3006.8
2521.97867	3001.9
2524.70327	2994.4
2527.42616	2984.7
2530.14734	2971.8
2532.86681	2977.5
2535.58458	2966.5
2538.30065	2966.4
2541.01501	2974.4
2543.72768	2968.4
2546.43864	2958.3
2549.14791	2968
2551.85548	2958.3
2554.56136	2946.1
2557.26554	2944.2
2559.96803	2953.3
2562.66883	2935.3
2565.36794	2950
2568.06536	2937.3
2570.7611	2930.6
2573.45514	2920.5
2576.14751	2914.4
2578.83819	2918.8
2581.52719	2919.7
2584.21451	2919.3
2586.90015	2894.3
2589.58411	2895.3
2592.2664	2900.6
2594.94701	2882
2597.62594	2893.7
2600.30321	2884.5
2602.9788	2883.6
2605.65273	2890.6
2608.32498	2888.8
2610.99557	2885.2
2613.66449	2871.2
2616.33175	2882.4
2618.99734	2869.2
2621.66128	2877.3
2624.32355	2863.4
2626.98416	2879.7
2629.64311	2852.7
2632.30041	2857.9
2634.95605	2851.1
2637.61004	2843
2640.26238	2833.2
2642.91306	2831.5
2645.56209	2822.2
2648.20948	2831.9
2650.85521	2837.1
2653.4993	2827.8
2656.14175	2816.8
2658.78255	2824.7
2661.42171	2824.2
2664.05923	2842.9
2666.6951	2835.3
2669.32934	2842
2671.96194	2841.3
2674.59291	2839.1
2677.22224	2836.4
2679.84993	2836.6
2682.476	2842.2
2685.10043	2847.8
2687.72324	2837.7
2690.34441	2855
2692.96396	2840.1
2695.58188	2844
2698.19818	2838.6
2700.81285	2841.1
2703.4259	2852.7
2706.03733	2841.7
2708.64714	2833.7
2711.25533	2848.8
2713.86191	2831.1
2716.46687	2836.4
2719.07021	2848
2721.67194	2850
2724.27206	2841.9
2726.87057	2855.6
2729.46747	2856.9
2732.06276	2828.6
2734.65644	2843.6
2737.24852	2838.4
2739.83899	2842
2742.42786	2838.7
2745.01513	2825.1
2747.60079	2816.3
2750.18486	2821.8
2752.76733	2820.5
2755.3482	2791
2757.92747	2811.9
2760.50515	2808.2
2763.08123	2795.4
2765.65573	2799.7
2768.22863	2804.1
2770.79994	2780.5
2773.36967	2792.8
2775.9378	2791.1
2778.50435	2796.1
2781.06932	2780.5
2783.6327	2783.7
2786.1945	2788
2788.75471	2783.7
2791.31335	2778.2
2793.87041	2782.4
2796.42589	2766.4
2798.97979	2771.3
2801.53212	2755.1
2804.08288	2762.9
2806.63206	2753.9
2809.17967	2755.6
2811.72571	2762.9
2814.27018	2748.6
2816.81308	2741.8
2819.35442	2755.8
2821.89419	2754.4
2824.43239	2759.9
2826.96904	2765
2829.50412	2759.9
2832.03763	2756.7
2834.56959	2766.2
2837.1	2766.6
2839.62884	2763.9
2842.15613	2783.9
2844.68186	2811.2
2847.20604	2839.3
2849.72867	2851.6
2852.24974	2875.7
2854.76927	2870
2857.28724	2853.2
2859.80367	2849.7
2862.31855	2837.8
2864.83189	2848.5
2867.34368	2833
2869.85393	2829.8
2872.36264	2836.1
2874.8698	2818.8
2877.37543	2823.2
2879.87952	2815
2882.38207	2810.4
2884.88308	2810.1
2887.38256	2819.6
2889.88051	2813.5
2892.37692	2799.8
2894.8718	2804
2897.36515	2812.5
2899.85698	2816.8
2902.34727	2815.8
2904.83604	2814.5
2907.32328	2815.6
2909.809	2823.4
2912.29319	2811
2914.77587	2804.4
2917.25702	2810.1
2919.73665	2796.5
2922.21476	2802.5
2924.69136	2809.8
2927.16644	2800
2929.64	2789.4
2932.11205	2780.6
2934.58258	2776.5
2937.05161	2779.3
2939.51912	2765.8
2941.98513	2744.3
2944.44962	2742.3
2946.91261	2706.7
2949.37409	2701.4
2951.83407	2685.7
2954.29254	2695.3
2956.74951	2665
2959.20498	2675.5
2961.65895	2662.2
2964.11142	2666.3
2966.56239	2652.7
2969.01186	2651
2971.45984	2634.8
2973.90632	2620.1
2976.35131	2633.9
2978.7948	2622.9
2981.23681	2601.4
2983.67732	2615.7
2986.11635	2596.5
2988.55388	2591.2
2990.98993	2582.3
2993.4245	2587.3
2995.85758	2569.7
2998.28917	2574.6
3000.71928	2552.5
3003.14791	2551.2
3005.57506	2560.9
3008.00073	2557.4
3010.42493	2547.6
3012.84764	2535.2
3015.26888	2545.6
3017.68865	2532.3
3020.10694	2538
3022.52376	2524.7
3024.9391	2532.1
3027.35298	2519.7
3029.76539	2520.4
3032.17632	2512.9
3034.5858	2519.6
3036.9938	2516.8
3039.40034	2510.6
3041.80542	2517.1
3044.20903	2516.6
3046.61118	2502.1
3049.01187	2493
3051.4111	2497.7
3053.80888	2498.1
3056.20519	2492.9
3058.60005	2492.2
3060.99345	2479.3
3063.3854	2469.2
3065.7759	2467.9
3068.16494	2469.3
3070.55254	2475.5
3072.93868	2473.1
3075.32338	2442.5
3077.70662	2448.2
3080.08842	2442.1
3082.46878	2437.9
3084.84769	2445.5
3087.22515	2438.1
3089.60118	2433.6
3091.97576	2438.8
3094.3489	2433.7
3096.72061	2431.9
3099.09087	2440.3
3101.4597	2432.8
3103.82709	2441.3
3106.19305	2440.4
3108.55757	2438.2
3110.92066	2431.6
3113.28232	2423.2
3115.64255	2430.7
3118.00134	2415.2
3120.35871	2435.9
3122.71466	2432.3
3125.06917	2423.9
3127.42226	2434.4
3129.77393	2424.3
3132.12417	2432.1
3134.47299	2429.5
3136.82039	2445.1
3139.16636	2437.3
3141.51092	2439
3143.85406	2444.5
3146.19579	2446.8
3148.53609	2452
3150.87499	2463.5
3153.21246	2479
3155.54853	2466.1
3157.88318	2474.7
3160.21642	2469.3
3162.54826	2470.2
3164.87868	2472.9
3167.2077	2484.1
3169.5353	2487.5
3171.86151	2483.5
3174.18631	2492.2
3176.5097	2496.5
3178.83169	2485.2
3181.15228	2490.3
3183.47147	2489.2
3185.78926	2487.6
3188.10565	2497.7
3190.42065	2495.4
3192.73424	2510.1
3195.04645	2507
3197.35725	2510.9
3199.66667	2504.4
3201.97469	2506.8
3204.28132	2506.7
3206.58656	2525
3208.8904	2526.3
3211.19287	2538.8
3213.49394	2543.6
3215.79363	2540.2
3218.09193	2546.3
3220.38884	2538.6
3222.68438	2545.2
3224.97853	2522.3
3227.2713	2534.8
3229.56269	2531.1
3231.8527	2528.6
3234.14133	2539.6
3236.42858	2525
3238.71446	2534.1
3240.99896	2521.5
3243.28209	2523.7
3245.56384	2516.5
3247.84423	2507
3250.12324	2521.2
3252.40088	2504.2
3254.67715	2523.4
3256.95205	2520.3
3259.22558	2510.4
3261.49775	2513.5
3263.76855	2507.8
3266.03799	2495.4
3268.30606	2504.8
3270.57277	2495
3272.83812	2485.5
3275.10211	2473.8
3277.36474	2476.6
3279.62601	2468.4
3281.88593	2464.9
3284.14448	2482.6
3286.40168	2477.2
3288.65753	2489.6
3290.91202	2479.2
3293.16516	2463.2
3295.41695	2463
3297.66738	2442.2
3299.91647	2440.9
3302.16421	2422.5
3304.4106	2406.1
3306.65564	2396.1
3308.89933	2378.4
3311.14169	2362.1
3313.38269	2351.7
3315.62236	2322.2
3317.86068	2319.8
3320.09766	2295.7
3322.3333	2271.7
3324.5676	2273.3
3326.80056	2236.4
3329.03219	2226.3
3331.26248	0.3
3333.49143	0.5
3335.71905	-1.1
