Data from AgNPs_FTO_APTES_UA_1uM_CRN_5uM_R6G_10uM_NaF_0.1M_Addition_RamanShift__1__13-37-19-576.txt Node

Date: Thu Jan 27 13:37:19 GMT 2022
User: TCL
Spectrometer: QEP01345
Trigger mode: 4
Integration Time (sec): 7.000000E0
Scans to average: 10
Electric dark correction enabled: true
Nonlinearity correction enabled: false
Boxcar width: 0
XAxis mode: Raman Shifts
Number of Pixels in Spectrum: 1044
>>>>>Begin Spectral Data<<<<<
46.04893	-0.4375
50.45542	-0.1375
54.85868	-0.8375
59.25871	-1.2375
63.6555	57.7625
68.04907	59.7625
72.43941	62.3625
76.82654	61.2625
81.21044	68.0625
85.59113	69.8625
89.96862	70.6625
94.34289	72.8625
98.71396	77.6625
103.08183	81.4625
107.4465	81.8625
111.80798	84.4625
116.16626	83.9625
120.52136	93.0625
124.87327	91.5625
129.222	91.2625
133.56755	98.9625
137.90993	102.0625
142.24913	112.3625
146.58517	121.0625
150.91804	139.5625
155.24774	167.0625
159.57429	201.9625
163.89768	257.6625
168.21792	339.3625
172.53501	459.4625
176.84895	627.8625
181.15975	877.3625
185.46741	1233.8625
189.77193	1704.9625
194.07331	2264.7625
198.37157	2940.3625
202.6667	3633.7625
206.9587	4331.2625
211.24758	4997.8625
215.53334	5675.4625
219.81599	6398.1625
224.09553	7200.5625
228.37195	8066.3625
232.64527	9016.7625
236.91549	10032.0625
241.18261	11093.9625
245.44663	12014.6625
249.70755	12851.7625
253.96539	13623.5625
258.22014	14302.2625
262.4718	14796.5625
266.72039	15186.2625
270.96589	15345.6625
275.20832	15373.0625
279.44768	15260.5625
283.68397	15054.3625
287.91719	14861.1625
292.14735	14769.6625
296.37445	14728.1625
300.59849	14774.6625
304.81948	14856.5625
309.03742	14925.3625
313.25231	14831.9625
317.46415	14656.6625
321.67296	14395.1625
325.87872	14147.5625
330.08145	14044.1625
334.28114	14007.4625
338.47781	14094.7625
342.67145	14291.7625
346.86207	14526.7625
351.04966	14818.1625
355.23424	15111.3625
359.4158	15399.7625
363.59435	15583.9625
367.76989	15766.2625
371.94243	15884.1625
376.11196	15984.1625
380.27849	16068.7625
384.44203	16159.6625
388.60257	16268.6625
392.76012	16397.7625
396.91468	16583.2625
401.06626	16802.9625
405.21485	17002.7625
409.36047	16981.5625
413.50311	16800.3625
417.64277	16711.5625
421.77947	16690.4625
425.9132	16708.6625
430.04396	16824.4625
434.17176	16897.9625
438.2966	17010.3625
442.41849	17249.2625
446.53742	17694.6625
450.6534	18167.9625
454.76644	18513.6625
458.87653	18556.2625
462.98368	18456.5625
467.08789	18236.2625
471.18916	17939.7625
475.2875	17638.5625
479.38291	17381.7625
483.4754	17190.1625
487.56496	17052.5625
491.6516	16962.8625
495.73531	16880.2625
499.81612	16878.9625
503.89401	16968.7625
507.96899	17063.5625
512.04106	16956.6625
516.11023	16909.0625
520.1765	16858.1625
524.23987	16771.2625
528.30034	16751.8625
532.35792	16624.0625
536.41261	16475.2625
540.46441	16224.6625
544.51333	16166.3625
548.55936	16262.4625
552.60252	16540.9625
556.64279	16873.2625
560.6802	17100.6625
564.71473	17165.1625
568.7464	17252.5625
572.7752	17512.9625
576.80114	17778.0625
580.82422	18169.7625
584.84444	18724.4625
588.86181	19437.4625
592.87633	20092.8625
596.888	20196.3625
600.89682	19673.4625
604.9028	19689.1625
608.90594	21021.7625
612.90624	22697.3625
616.90371	21751.5625
620.89834	18784.3625
624.89015	17406.1625
628.87913	17160.7625
632.86528	17167.4625
636.84862	17072.6625
640.82913	16745.3625
644.80683	16404.2625
648.78172	16206.2625
652.75379	16232.4625
656.72306	16414.8625
660.68952	16675.0625
664.65319	16607.0625
668.61405	16380.3625
672.57211	16357.8625
676.52738	16403.6625
680.47986	16391.4625
684.42955	16305.6625
688.37646	16222.3625
692.32058	16327.9625
696.26192	16578.8625
700.20048	16859.6625
704.13626	16888.3625
708.06928	16813.2625
711.99952	16660.8625
715.927	16686.5625
719.85171	16754.0625
723.77365	16785.9625
727.69284	16550.7625
731.60928	16336.5625
735.52295	16267.0625
739.43388	16285.8625
743.34206	16361.6625
747.24749	16416.6625
751.15017	16554.6625
755.05012	16741.0625
758.94733	17076.6625
762.8418	17724.9625
766.73354	18725.6625
770.62254	19676.8625
774.50882	20015.8625
778.39237	19460.0625
782.27321	18428.0625
786.15132	17530.2625
790.02671	16945.8625
793.89938	16712.8625
797.76935	16592.7625
801.6366	16535.8625
805.50115	16487.2625
809.36299	16419.2625
813.22213	16337.7625
817.07857	16244.6625
820.93231	16216.0625
824.78336	16187.9625
828.63172	16185.7625
832.47738	16230.4625
836.32036	16313.1625
840.16066	16436.0625
843.99827	16504.2625
847.8332	16458.2625
851.66546	16343.6625
855.49504	16282.1625
859.32195	16291.8625
863.1462	16274.2625
866.96777	16235.1625
870.78668	16168.6625
874.60293	16154.3625
878.41652	16183.6625
882.22745	16215.3625
886.03573	16328.9625
889.84136	16324.5625
893.64433	16244.4625
897.44466	16155.1625
901.24235	16073.0625
905.0374	16031.6625
908.8298	15982.9625
912.61957	16034.2625
916.40671	16138.3625
920.19121	16335.0625
923.97308	16557.9625
927.75233	16711.9625
931.52895	16690.4625
935.30295	16586.5625
939.07433	16360.2625
942.84309	16144.7625
946.60924	16068.7625
950.37278	16073.2625
954.13371	15963.6625
957.89203	15938.3625
961.64774	15872.8625
965.40086	15837.8625
969.15137	15815.9625
972.89929	15803.6625
976.64461	15860.4625
980.38733	15955.0625
984.12747	16048.4625
987.86502	16194.0625
991.59999	16428.1625
995.33237	16734.6625
999.06217	17225.7625
1002.78939	17785.6625
1006.51404	18089.4625
1010.23611	18252.4625
1013.95561	18341.2625
1017.67255	18272.2625
1021.38692	18085.2625
1025.09872	17950.7625
1028.80796	18148.9625
1032.51465	18850.6625
1036.21877	19567.6625
1039.92035	19782.7625
1043.61937	19497.8625
1047.31584	18922.8625
1051.00976	18256.8625
1054.70114	17846.6625
1058.38998	17684.1625
1062.07627	17635.3625
1065.76003	17602.9625
1069.44126	17725.9625
1073.11995	17931.6625
1076.79611	18177.8625
1080.46974	18344.2625
1084.14085	18460.8625
1087.80943	18608.8625
1091.47549	18656.5625
1095.13903	18572.3625
1098.80005	18397.1625
1102.45857	18050.8625
1106.11456	17873.7625
1109.76805	17767.0625
1113.41903	17777.4625
1117.06751	17834.1625
1120.71348	17892.9625
1124.35696	18034.4625
1127.99793	18210.6625
1131.63641	18311.2625
1135.2724	18173.4625
1138.90589	18093.1625
1142.5369	18067.6625
1146.16542	18049.6625
1149.79145	18089.1625
1153.415	18099.2625
1157.03607	18193.7625
1160.65467	18582.7625
1164.27079	19197.8625
1167.88443	20024.0625
1171.49561	20956.8625
1175.10432	22153.0625
1178.71056	23729.5625
1182.31434	25291.2625
1185.91565	26093.7625
1189.51451	26007.3625
1193.11091	25306.4625
1196.70485	24390.0625
1200.29634	23585.0625
1203.88538	23062.5625
1207.47197	22662.7625
1211.05612	22260.1625
1214.63782	21863.8625
1218.21708	21533.8625
1221.79391	21249.0625
1225.36829	21103.0625
1228.94024	20892.6625
1232.50976	20517.1625
1236.07685	20214.5625
1239.6415	20068.8625
1243.20374	20065.2625
1246.76355	20316.3625
1250.32093	20634.9625
1253.8759	21058.2625
1257.42845	21582.6625
1260.97859	22143.0625
1264.52631	22705.0625
1268.07163	23349.1625
1271.61453	24034.4625
1275.15503	24754.8625
1278.69312	25381.0625
1282.22882	25901.9625
1285.76211	26312.6625
1289.29301	26866.3625
1292.82151	27684.3625
1296.34761	28769.0625
1299.87133	30311.7625
1303.39266	32173.5625
1306.9116	34083.5625
1310.42815	35567.2625
1313.94233	36024.6625
1317.45412	35398.6625
1320.96354	34259.8625
1324.47058	33093.8625
1327.97525	32096.1625
1331.47754	31481.7625
1334.97747	31080.3625
1338.47502	30799.2625
1341.97022	30355.3625
1345.46305	29875.8625
1348.95352	29743.8625
1352.44163	30124.9625
1355.92738	31405.3625
1359.41078	33323.4625
1362.89183	34779.2625
1366.37053	34437.0625
1369.84688	31774.3625
1373.32088	28522.1625
1376.79254	26168.3625
1380.26186	25188.9625
1383.72883	24997.0625
1387.19347	24883.3625
1390.65578	24483.6625
1394.11575	24183.6625
1397.57339	24173.3625
1401.0287	24411.6625
1404.48168	24671.0625
1407.93234	24740.1625
1411.38068	24568.0625
1414.82669	24220.8625
1418.27039	23704.1625
1421.71177	23094.0625
1425.15083	22512.7625
1428.58758	22237.9625
1432.02203	22433.8625
1435.45416	22974.5625
1438.88399	23490.6625
1442.31151	23839.8625
1445.73673	23984.0625
1449.15965	24054.1625
1452.58027	23935.8625
1455.9986	23755.1625
1459.41463	23692.2625
1462.82837	23954.8625
1466.23982	24428.3625
1469.64898	24908.1625
1473.05586	25318.6625
1476.46045	25556.6625
1479.86276	25595.1625
1483.26279	25410.2625
1486.66054	25342.3625
1490.05602	25421.6625
1493.44922	25633.7625
1496.84016	25822.9625
1500.22882	26134.4625
1503.61521	26697.8625
1506.99934	27350.8625
1510.38121	28012.1625
1513.76081	28239.7625
1517.13816	27668.9625
1520.51324	26747.2625
1523.88607	25836.7625
1527.25665	25295.3625
1530.62498	25107.8625
1533.99105	25017.4625
1537.35488	24815.8625
1540.71647	24494.5625
1544.07581	24185.3625
1547.4329	23777.3625
1550.78776	23431.3625
1554.14038	23181.6625
1557.49077	23055.3625
1560.83892	22897.0625
1564.18484	22801.6625
1567.52853	22821.8625
1570.86999	22976.0625
1574.20922	23242.8625
1577.54624	23478.3625
1580.88103	23516.6625
1584.2136	23669.6625
1587.54395	24327.0625
1590.87208	25597.2625
1594.19801	27173.9625
1597.52172	28744.9625
1600.84321	29247.9625
1604.16251	28138.7625
1607.47959	26060.1625
1610.79447	23839.2625
1614.10715	21880.1625
1617.41763	20497.3625
1620.7259	19648.0625
1624.03199	19286.1625
1627.33587	19361.1625
1630.63757	19848.5625
1633.93707	20863.3625
1637.23439	22280.3625
1640.52951	24373.5625
1643.82246	26914.5625
1647.11321	29018.3625
1650.40179	29408.2625
1653.68819	27508.8625
1656.97241	24203.1625
1660.25446	21242.5625
1663.53433	19102.9625
1666.81203	17854.6625
1670.08756	17093.6625
1673.36092	16590.0625
1676.63211	16266.5625
1679.90115	16027.1625
1683.16801	15888.3625
1686.43272	15739.0625
1689.69527	15641.7625
1692.95567	15526.5625
1696.2139	15474.4625
1699.46999	15432.4625
1702.72392	15388.9625
1705.97571	15378.8625
1709.22535	15416.6625
1712.47284	15454.0625
1715.71819	15451.2625
1718.96139	15424.9625
1722.20246	15395.6625
1725.44139	15344.8625
1728.67818	15311.6625
1731.91284	15230.5625
1735.14537	15173.2625
1738.37576	15097.5625
1741.60403	15054.4625
1744.83017	14986.4625
1748.05418	14982.5625
1751.27607	14968.2625
1754.49584	14918.1625
1757.71349	14900.5625
1760.92903	14874.2625
1764.14244	14845.6625
1767.35375	14854.3625
1770.56294	14837.8625
1773.77002	14847.3625
1776.97499	14839.9625
1780.17785	14849.6625
1783.37861	14883.4625
1786.57727	14847.0625
1789.77382	14814.3625
1792.96828	14833.2625
1796.16064	14809.7625
1799.3509	14818.7625
1802.53907	14750.2625
1805.72514	14723.2625
1808.90913	14699.6625
1812.09102	14677.1625
1815.27083	14640.2625
1818.44856	14657.4625
1821.6242	14613.5625
1824.79776	14601.8625
1827.96924	14599.7625
1831.13864	14603.9625
1834.30597	14615.4625
1837.47122	14620.2625
1840.6344	14580.2625
1843.7955	14601.0625
1846.95454	14577.7625
1850.11151	14572.2625
1853.26642	14573.8625
1856.41926	14598.0625
1859.57004	14618.1625
1862.71876	14598.7625
1865.86542	14574.9625
1869.01003	14573.3625
1872.15258	14515.6625
1875.29308	14523.3625
1878.43152	14524.1625
1881.56792	14524.8625
1884.70227	14520.1625
1887.83457	14494.4625
1890.96482	14495.6625
1894.09304	14476.3625
1897.21921	14449.3625
1900.34335	14423.8625
1903.46544	14444.0625
1906.58551	14437.4625
1909.70353	14443.1625
1912.81953	14413.6625
1915.93349	14398.1625
1919.04543	14347.5625
1922.15534	14323.6625
1925.26322	14326.5625
1928.36908	14317.2625
1931.47292	14276.7625
1934.57473	14261.1625
1937.67453	14229.5625
1940.77232	14196.8625
1943.86808	14138.8625
1946.96184	14126.7625
1950.05358	14074.8625
1953.14331	14070.5625
1956.23103	13996.5625
1959.31675	13993.0625
1962.40046	13992.3625
1965.48217	13945.1625
1968.56188	13907.3625
1971.63959	13861.9625
1974.7153	13835.4625
1977.78901	13778.2625
1980.86073	13765.3625
1983.93046	13737.8625
1986.99819	13681.9625
1990.06394	13666.5625
1993.1277	13592.2625
1996.18947	13561.9625
1999.24925	13524.1625
2002.30706	13494.0625
2005.36288	13472.6625
2008.41672	13444.3625
2011.46859	13441.6625
2014.51848	13372.3625
2017.56639	13358.1625
2020.61233	13338.1625
2023.6563	13316.5625
2026.6983	13323.4625
2029.73833	13286.0625
2032.7764	13230.7625
2035.8125	13278.2625
2038.84664	13220.2625
2041.87881	13221.8625
2044.90903	13186.4625
2047.93729	13165.8625
2050.96359	13174.3625
2053.98794	13122.8625
2057.01034	13131.4625
2060.03078	13121.0625
2063.04927	13141.8625
2066.06582	13111.5625
2069.08042	13113.8625
2072.09307	13117.0625
2075.10378	13094.0625
2078.11255	13099.6625
2081.11938	13088.8625
2084.12426	13101.6625
2087.12722	13069.4625
2090.12824	13059.1625
2093.12732	13106.5625
2096.12447	13097.3625
2099.11969	13086.1625
2102.11299	13122.1625
2105.10435	13133.1625
2108.09379	13132.5625
2111.08131	13154.6625
2114.0669	13163.5625
2117.05057	13190.2625
2120.03233	13183.7625
2123.01216	13201.8625
2125.99008	13207.1625
2128.96609	13230.3625
2131.94018	13247.2625
2134.91236	13264.5625
2137.88263	13273.2625
2140.851	13293.9625
2143.81746	13299.3625
2146.78201	13320.7625
2149.74466	13305.6625
2152.7054	13332.4625
2155.66425	13332.1625
2158.6212	13327.2625
2161.57625	13316.4625
2164.52941	13308.9625
2167.48067	13311.9625
2170.43004	13329.9625
2173.37752	13331.2625
2176.32311	13339.8625
2179.26681	13321.5625
2182.20863	13325.5625
2185.14856	13356.4625
2188.08661	13358.0625
2191.02278	13357.9625
2193.95707	13351.7625
2196.88948	13367.4625
2199.82001	13353.8625
2202.74867	13378.0625
2205.67545	13375.0625
2208.60037	13354.5625
2211.52341	13346.2625
2214.44458	13355.2625
2217.36388	13321.2625
2220.28132	13306.7625
2223.1969	13291.9625
2226.11061	13289.2625
2229.02246	13243.0625
2231.93245	13256.2625
2234.84058	13218.7625
2237.74686	13201.4625
2240.65128	13202.3625
2243.55385	13165.8625
2246.45456	13174.1625
2249.35343	13145.1625
2252.25044	13148.4625
2255.14561	13122.5625
2258.03893	13094.7625
2260.93041	13088.2625
2263.82004	13071.9625
2266.70783	13047.5625
2269.59378	13020.6625
2272.4779	12992.4625
2275.36017	12962.1625
2278.24061	12983.6625
2281.11922	12964.5625
2283.996	12954.6625
2286.87094	12947.2625
2289.74405	12910.2625
2292.61534	12927.6625
2295.4848	12905.2625
2298.35243	12932.7625
2301.21824	12911.0625
2304.08223	12968.7625
2306.94439	12947.3625
2309.80474	12965.9625
2312.66327	12975.3625
2315.51999	12948.1625
2318.37489	12969.9625
2321.22797	12953.7625
2324.07925	12935.3625
2326.92871	12924.7625
2329.77637	12928.4625
2332.62222	12905.7625
2335.46626	12913.1625
2338.3085	12866.7625
2341.14893	12896.0625
2343.98756	12902.5625
2346.8244	12902.8625
2349.65943	12900.9625
2352.49267	12880.2625
2355.32411	12872.5625
2358.15376	12867.7625
2360.98161	12857.0625
2363.80768	12859.9625
2366.63195	12829.5625
2369.45444	12808.4625
2372.27514	12792.6625
2375.09405	12774.5625
2377.91118	12764.5625
2380.72652	12749.6625
2383.54009	12730.6625
2386.35187	12725.0625
2389.16188	12693.7625
2391.97011	12681.7625
2394.77657	12668.9625
2397.58125	12622.5625
2400.38416	12634.6625
2403.18529	12638.2625
2405.98466	12626.3625
2408.78226	12594.0625
2411.57809	12562.9625
2414.37216	12542.0625
2417.16446	12557.6625
2419.955	12512.2625
2422.74378	12553.9625
2425.5308	12537.6625
2428.31606	12543.6625
2431.09956	12533.3625
2433.88131	12520.1625
2436.6613	12514.1625
2439.43954	12511.8625
2442.21603	12516.2625
2444.99077	12492.1625
2447.76377	12489.6625
2450.53501	12500.1625
2453.30451	12491.8625
2456.07226	12502.8625
2458.83827	12456.3625
2461.60254	12490.7625
2464.36507	12505.8625
2467.12586	12493.9625
2469.88492	12470.4625
2472.64224	12517.3625
2475.39782	12523.1625
2478.15167	12493.9625
2480.90379	12524.9625
2483.65417	12536.6625
2486.40283	12545.5625
2489.14976	12567.0625
2491.89497	12555.6625
2494.63845	12535.7625
2497.3802	12504.5625
2500.12024	12507.4625
2502.85855	12558.5625
2505.59514	12523.2625
2508.33002	12481.2625
2511.06318	12493.6625
2513.79462	12491.2625
2516.52435	12450.7625
2519.25237	12474.5625
2521.97867	12468.9625
2524.70327	12463.8625
2527.42616	12469.1625
2530.14734	12447.8625
2532.86681	12448.4625
2535.58458	12446.6625
2538.30065	12398.9625
2541.01501	12418.8625
2543.72768	12430.1625
2546.43864	12402.9625
2549.14791	12421.5625
2551.85548	12396.6625
2554.56136	12392.7625
2557.26554	12422.1625
2559.96803	12401.4625
2562.66883	12406.4625
2565.36794	12368.1625
2568.06536	12356.6625
2570.7611	12366.7625
2573.45514	12347.2625
2576.14751	12341.7625
2578.83819	12327.6625
2581.52719	12337.6625
2584.21451	12315.3625
2586.90015	12339.4625
2589.58411	12310.1625
2592.2664	12318.0625
2594.94701	12290.8625
2597.62594	12280.5625
2600.30321	12272.0625
2602.9788	12260.9625
2605.65273	12253.6625
2608.32498	12265.7625
2610.99557	12243.5625
2613.66449	12267.8625
2616.33175	12264.7625
2618.99734	12279.4625
2621.66128	12252.8625
2624.32355	12242.2625
2626.98416	12247.1625
2629.64311	12230.3625
2632.30041	12216.5625
2634.95605	12208.7625
2637.61004	12191.1625
2640.26238	12182.8625
2642.91306	12180.0625
2645.56209	12172.4625
2648.20948	12163.6625
2650.85521	12162.3625
2653.4993	12155.3625
2656.14175	12158.0625
2658.78255	12173.3625
2661.42171	12165.7625
2664.05923	12187.1625
2666.6951	12196.8625
2669.32934	12227.3625
2671.96194	12204.2625
2674.59291	12226.3625
2677.22224	12197.6625
2679.84993	12218.3625
2682.476	12194.8625
2685.10043	12179.5625
2687.72324	12177.0625
2690.34441	12165.8625
2692.96396	12161.8625
2695.58188	12180.4625
2698.19818	12169.5625
2700.81285	12178.8625
2703.4259	12181.4625
2706.03733	12195.1625
2708.64714	12139.1625
2711.25533	12191.1625
2713.86191	12207.3625
2716.46687	12226.2625
2719.07021	12222.9625
2721.67194	12250.8625
2724.27206	12242.9625
2726.87057	12274.1625
2729.46747	12256.2625
2732.06276	12263.4625
2734.65644	12255.0625
2737.24852	12269.8625
2739.83899	12255.5625
2742.42786	12277.7625
2745.01513	12214.9625
2747.60079	12247.8625
2750.18486	12214.3625
2752.76733	12227.1625
2755.3482	12228.2625
2757.92747	12222.4625
2760.50515	12203.4625
2763.08123	12203.8625
2765.65573	12195.5625
2768.22863	12205.4625
2770.79994	12199.5625
2773.36967	12194.0625
2775.9378	12239.6625
2778.50435	12184.6625
2781.06932	12188.1625
2783.6327	12148.4625
2786.1945	12171.3625
2788.75471	12166.8625
2791.31335	12151.0625
2793.87041	12131.3625
2796.42589	12120.8625
2798.97979	12117.9625
2801.53212	12085.3625
2804.08288	12088.5625
2806.63206	12059.8625
2809.17967	12018.5625
2811.72571	12017.9625
2814.27018	11989.7625
2816.81308	11989.6625
2819.35442	11991.2625
2821.89419	11968.5625
2824.43239	11980.2625
2826.96904	11947.7625
2829.50412	11951.7625
2832.03763	11932.4625
2834.56959	11932.3625
2837.1	11907.0625
2839.62884	11933.4625
2842.15613	11907.7625
2844.68186	11943.9625
2847.20604	11951.7625
2849.72867	11957.0625
2852.24974	11952.8625
2854.76927	11949.7625
2857.28724	11917.4625
2859.80367	11927.7625
2862.31855	11921.6625
2864.83189	11924.0625
2867.34368	11904.9625
2869.85393	11897.1625
2872.36264	11895.0625
2874.8698	11913.5625
2877.37543	11896.2625
2879.87952	11892.2625
2882.38207	11894.1625
2884.88308	11897.5625
2887.38256	11892.7625
2889.88051	11878.0625
2892.37692	11907.1625
2894.8718	11882.6625
2897.36515	11932.3625
2899.85698	11953.6625
2902.34727	11939.4625
2904.83604	11945.9625
2907.32328	11993.6625
2909.809	11965.3625
2912.29319	11995.5625
2914.77587	11998.3625
2917.25702	11973.0625
2919.73665	11968.6625
2922.21476	11989.7625
2924.69136	11980.7625
2927.16644	11976.8625
2929.64	11964.5625
2932.11205	11941.7625
2934.58258	11913.2625
2937.05161	11935.5625
2939.51912	11944.5625
2941.98513	11906.2625
2944.44962	11869.4625
2946.91261	11850.7625
2949.37409	11895.4625
2951.83407	11865.6625
2954.29254	11881.0625
2956.74951	11851.9625
2959.20498	11835.5625
2961.65895	11842.1625
2964.11142	11873.2625
2966.56239	11821.8625
2969.01186	11853.2625
2971.45984	11812.9625
2973.90632	11813.7625
2976.35131	11821.1625
2978.7948	11792.2625
2981.23681	11749.0625
2983.67732	11744.7625
2986.11635	11697.1625
2988.55388	11684.4625
2990.98993	11672.8625
2993.4245	11644.8625
2995.85758	11642.4625
2998.28917	11631.7625
3000.71928	11616.8625
3003.14791	11592.8625
3005.57506	11590.2625
3008.00073	11538.3625
3010.42493	11551.5625
3012.84764	11550.9625
3015.26888	11529.1625
3017.68865	11517.0625
3020.10694	11518.1625
3022.52376	11494.5625
3024.9391	11465.2625
3027.35298	11470.9625
3029.76539	11471.3625
3032.17632	11464.7625
3034.5858	11448.8625
3036.9938	11438.3625
3039.40034	11447.6625
3041.80542	11435.9625
3044.20903	11411.7625
3046.61118	11410.5625
3049.01187	11391.5625
3051.4111	11399.7625
3053.80888	11395.1625
3056.20519	11371.9625
3058.60005	11343.0625
3060.99345	11304.6625
3063.3854	11281.8625
3065.7759	11276.2625
3068.16494	11269.7625
3070.55254	11234.1625
3072.93868	11226.8625
3075.32338	11195.2625
3077.70662	11195.7625
3080.08842	11164.7625
3082.46878	11174.1625
3084.84769	11140.3625
3087.22515	11163.7625
3089.60118	11139.7625
3091.97576	11165.0625
3094.3489	11167.9625
3096.72061	11166.2625
3099.09087	11164.4625
3101.4597	11153.3625
3103.82709	11162.5625
3106.19305	11163.6625
3108.55757	11157.6625
3110.92066	11118.1625
3113.28232	11137.0625
3115.64255	11107.5625
3118.00134	11079.7625
3120.35871	11054.6625
3122.71466	11061.1625
3125.06917	11048.1625
3127.42226	11023.1625
3129.77393	11014.0625
3132.12417	11008.6625
3134.47299	11019.5625
3136.82039	11016.7625
3139.16636	11037.3625
3141.51092	11021.8625
3143.85406	11032.7625
3146.19579	11026.2625
3148.53609	11028.6625
3150.87499	11043.5625
3153.21246	11060.8625
3155.54853	11103.3625
3157.88318	11047.7625
3160.21642	11092.3625
3162.54826	11099.3625
3164.87868	11058.7625
3167.2077	11079.1625
3169.5353	11061.6625
3171.86151	11060.2625
3174.18631	11053.4625
3176.5097	11071.9625
3178.83169	11049.1625
3181.15228	11063.9625
3183.47147	11042.0625
3185.78926	11014.0625
3188.10565	11012.3625
3190.42065	10991.6625
3192.73424	11002.3625
3195.04645	10996.3625
3197.35725	11004.2625
3199.66667	11000.0625
3201.97469	11001.0625
3204.28132	11016.5625
3206.58656	11028.1625
3208.8904	11037.4625
3211.19287	11031.2625
3213.49394	11048.6625
3215.79363	11065.5625
3218.09193	11081.3625
3220.38884	11061.9625
3222.68438	11076.3625
3224.97853	11048.4625
3227.2713	11014.3625
3229.56269	11012.8625
3231.8527	11019.9625
3234.14133	11023.9625
3236.42858	10986.9625
3238.71446	10980.0625
3240.99896	11008.5625
3243.28209	10958.3625
3245.56384	10943.9625
3247.84423	10939.7625
3250.12324	10909.9625
3252.40088	10927.2625
3254.67715	10941.6625
3256.95205	10914.4625
3259.22558	10938.3625
3261.49775	10924.5625
3263.76855	10900.9625
3266.03799	10890.4625
3268.30606	10890.8625
3270.57277	10863.1625
3272.83812	10852.3625
3275.10211	10835.2625
3277.36474	10787.0625
3279.62601	10826.0625
3281.88593	10792.7625
3284.14448	10781.8625
3286.40168	10811.2625
3288.65753	10821.4625
3290.91202	10823.9625
3293.16516	10776.6625
3295.41695	10743.7625
3297.66738	10677.0625
3299.91647	10644.5625
3302.16421	10574.9625
3304.4106	10531.9625
3306.65564	10488.9625
3308.89933	10475.4625
3311.14169	10383.2625
3313.38269	10307.3625
3315.62236	10205.0625
3317.86068	10138.6625
3320.09766	10062.5625
3322.3333	10011.8625
3324.5676	9992.4625
3326.80056	9854.3625
3329.03219	9779.6625
3331.26248	3.5625
3333.49143	0.6625
3335.71905	-1.0375
