Data from AgNPs_FTO_APTES_UA_1uM_CRN_100uM_R6G_10uM_NaF_0.1M_Addition_RamanShift__30__16-55-39-802.txt Node

Date: Thu Jan 27 16:55:39 GMT 2022
User: TCL
Spectrometer: QEP01345
Trigger mode: 4
Integration Time (sec): 7.000000E0
Scans to average: 10
Electric dark correction enabled: true
Nonlinearity correction enabled: false
Boxcar width: 0
XAxis mode: Raman Shifts
Number of Pixels in Spectrum: 1044
>>>>>Begin Spectral Data<<<<<
46.04893	0.7625
50.45542	1.3625
54.85868	-0.0375
59.25871	-0.9375
63.6555	33.1625
68.04907	31.8625
72.43941	33.5625
76.82654	40.4625
81.21044	41.2625
85.59113	41.0625
89.96862	41.2625
94.34289	44.3625
98.71396	49.1625
103.08183	47.1625
107.4465	49.1625
111.80798	49.6625
116.16626	50.1625
120.52136	52.8625
124.87327	50.0625
129.222	51.6625
133.56755	52.0625
137.90993	51.1625
142.24913	56.9625
146.58517	58.7625
150.91804	65.6625
155.24774	71.1625
159.57429	77.9625
163.89768	98.6625
168.21792	123.4625
172.53501	164.0625
176.84895	218.0625
181.15975	296.0625
185.46741	402.7625
189.77193	554.8625
194.07331	738.5625
198.37157	947.1625
202.6667	1164.4625
206.9587	1390.6625
211.24758	1597.4625
215.53334	1824.7625
219.81599	2071.1625
224.09553	2338.7625
228.37195	2631.8625
232.64527	2959.9625
236.91549	3307.0625
241.18261	3611.0625
245.44663	3880.8625
249.70755	4130.9625
253.96539	4313.2625
258.22014	4497.6625
262.4718	4656.0625
266.72039	4774.0625
270.96589	4837.4625
275.20832	4880.2625
279.44768	4871.8625
283.68397	4829.9625
287.91719	4829.7625
292.14735	4829.9625
296.37445	4864.1625
300.59849	4992.4625
304.81948	5102.0625
309.03742	5207.2625
313.25231	5162.9625
317.46415	4966.1625
321.67296	4662.3625
325.87872	4381.1625
330.08145	4267.7625
334.28114	4263.6625
338.47781	4337.5625
342.67145	4429.6625
346.86207	4594.0625
351.04966	4819.5625
355.23424	5068.7625
359.4158	5238.4625
363.59435	5358.5625
367.76989	5359.5625
371.94243	5351.4625
376.11196	5328.6625
380.27849	5328.6625
384.44203	5274.1625
388.60257	5218.4625
392.76012	5222.1625
396.91468	5285.1625
401.06626	5418.2625
405.21485	5544.9625
409.36047	5489.5625
413.50311	5267.2625
417.64277	5071.9625
421.77947	4949.9625
425.9132	4909.1625
430.04396	4890.0625
434.17176	4926.5625
438.2966	4974.3625
442.41849	5049.8625
446.53742	5180.3625
450.6534	5312.6625
454.76644	5399.0625
458.87653	5419.6625
462.98368	5428.1625
467.08789	5357.9625
471.18916	5281.0625
475.2875	5194.1625
479.38291	5118.6625
483.4754	5055.6625
487.56496	5008.5625
491.6516	4947.5625
495.73531	4953.1625
499.81612	4964.0625
503.89401	4990.8625
507.96899	5060.2625
512.04106	5086.1625
516.11023	5155.3625
520.1765	5169.3625
524.23987	5143.1625
528.30034	5068.5625
532.35792	4959.3625
536.41261	4861.7625
540.46441	4798.8625
544.51333	4770.8625
548.55936	4822.2625
552.60252	4916.2625
556.64279	5031.9625
560.6802	5083.8625
564.71473	5156.0625
568.7464	5305.0625
572.7752	5411.2625
576.80114	5344.3625
580.82422	5239.6625
584.84444	5192.7625
588.86181	5176.7625
592.87633	5150.9625
596.888	5173.6625
600.89682	5311.5625
604.9028	5752.0625
608.90594	6924.0625
612.90624	8451.4625
616.90371	8252.0625
620.89834	6206.9625
624.89015	5212.6625
628.87913	4996.2625
632.86528	5010.2625
636.84862	5067.6625
640.82913	5044.9625
644.80683	4884.6625
648.78172	4783.2625
652.75379	4792.0625
656.72306	4954.0625
660.68952	5135.2625
664.65319	5121.1625
668.61405	4955.8625
672.57211	4861.6625
676.52738	4868.0625
680.47986	4881.0625
684.42955	4849.7625
688.37646	4823.6625
692.32058	4836.7625
696.26192	4881.2625
700.20048	4919.5625
704.13626	4962.4625
708.06928	4950.3625
711.99952	4918.6625
715.927	4880.0625
719.85171	4882.5625
723.77365	4896.3625
727.69284	4849.4625
731.60928	4793.3625
735.52295	4795.0625
739.43388	4796.3625
743.34206	4818.3625
747.24749	4839.7625
751.15017	4908.6625
755.05012	4969.8625
758.94733	5181.8625
762.8418	5591.3625
766.73354	6286.1625
770.62254	7030.5625
774.50882	7375.8625
778.39237	7072.7625
782.27321	6319.4625
786.15132	5561.4625
790.02671	5119.4625
793.89938	4940.3625
797.76935	4857.4625
801.6366	4799.1625
805.50115	4787.3625
809.36299	4770.3625
813.22213	4752.0625
817.07857	4759.0625
820.93231	4743.7625
824.78336	4762.7625
828.63172	4792.7625
832.47738	4779.1625
836.32036	4774.8625
840.16066	4769.6625
843.99827	4744.1625
847.8332	4721.0625
851.66546	4719.3625
855.49504	4711.0625
859.32195	4713.8625
863.1462	4702.7625
866.96777	4687.2625
870.78668	4671.8625
874.60293	4680.4625
878.41652	4682.9625
882.22745	4702.5625
886.03573	4730.6625
889.84136	4719.6625
893.64433	4720.6625
897.44466	4684.9625
901.24235	4684.3625
905.0374	4675.5625
908.8298	4652.5625
912.61957	4655.1625
916.40671	4707.1625
920.19121	4732.2625
923.97308	4759.1625
927.75233	4771.9625
931.52895	4795.0625
935.30295	4754.0625
939.07433	4644.1625
942.84309	4560.1625
946.60924	4508.5625
950.37278	4479.7625
954.13371	4461.5625
957.89203	4433.6625
961.64774	4429.0625
965.40086	4411.6625
969.15137	4400.2625
972.89929	4385.0625
976.64461	4368.4625
980.38733	4373.2625
984.12747	4381.5625
987.86502	4395.6625
991.59999	4386.9625
995.33237	4436.9625
999.06217	4502.1625
1002.78939	4583.6625
1006.51404	4656.2625
1010.23611	4740.9625
1013.95561	4793.5625
1017.67255	4786.0625
1021.38692	4728.0625
1025.09872	4684.2625
1028.80796	4634.3625
1032.51465	4665.3625
1036.21877	4692.5625
1039.92035	4741.3625
1043.61937	4769.7625
1047.31584	4775.0625
1051.00976	4761.8625
1054.70114	4769.0625
1058.38998	4782.7625
1062.07627	4817.4625
1065.76003	4856.2625
1069.44126	4910.6625
1073.11995	4937.0625
1076.79611	4973.8625
1080.46974	4991.1625
1084.14085	5076.8625
1087.80943	5156.8625
1091.47549	5180.9625
1095.13903	5146.0625
1098.80005	5018.3625
1102.45857	4881.3625
1106.11456	4797.9625
1109.76805	4801.3625
1113.41903	4864.7625
1117.06751	4963.4625
1120.71348	5078.0625
1124.35696	5259.9625
1127.99793	5410.5625
1131.63641	5411.7625
1135.2724	5233.9625
1138.90589	5033.7625
1142.5369	4925.1625
1146.16542	4878.8625
1149.79145	4845.2625
1153.415	4843.3625
1157.03607	4885.8625
1160.65467	4972.2625
1164.27079	5086.8625
1167.88443	5293.5625
1171.49561	5618.3625
1175.10432	6137.2625
1178.71056	6824.1625
1182.31434	7278.9625
1185.91565	7379.0625
1189.51451	7221.1625
1193.11091	6923.7625
1196.70485	6535.1625
1200.29634	6233.3625
1203.88538	5988.4625
1207.47197	5673.6625
1211.05612	5454.6625
1214.63782	5307.9625
1218.21708	5251.4625
1221.79391	5240.9625
1225.36829	5294.1625
1228.94024	5328.0625
1232.50976	5376.1625
1236.07685	5392.4625
1239.6415	5400.5625
1243.20374	5408.1625
1246.76355	5429.2625
1250.32093	5465.7625
1253.8759	5557.9625
1257.42845	5694.9625
1260.97859	5805.0625
1264.52631	5912.2625
1268.07163	6040.6625
1271.61453	6165.5625
1275.15503	6248.3625
1278.69312	6299.6625
1282.22882	6324.1625
1285.76211	6417.1625
1289.29301	6585.1625
1292.82151	6758.2625
1296.34761	6925.5625
1299.87133	7166.8625
1303.39266	7577.2625
1306.9116	8191.5625
1310.42815	8915.0625
1313.94233	9400.1625
1317.45412	9339.8625
1320.96354	8928.7625
1324.47058	8449.6625
1327.97525	8038.4625
1331.47754	7844.6625
1334.97747	7759.7625
1338.47502	7834.4625
1341.97022	7938.4625
1345.46305	8119.5625
1348.95352	8331.3625
1352.44163	8651.0625
1355.92738	9178.1625
1359.41078	10090.2625
1362.89183	11021.4625
1366.37053	10820.8625
1369.84688	9532.2625
1373.32088	8194.4625
1376.79254	7324.3625
1380.26186	6870.3625
1383.72883	6636.7625
1387.19347	6500.7625
1390.65578	6282.9625
1394.11575	6135.8625
1397.57339	6056.5625
1401.0287	6083.5625
1404.48168	6165.9625
1407.93234	6263.7625
1411.38068	6342.0625
1414.82669	6314.4625
1418.27039	6189.1625
1421.71177	6056.4625
1425.15083	5906.9625
1428.58758	5837.1625
1432.02203	5789.7625
1435.45416	5859.4625
1438.88399	5856.7625
1442.31151	5869.2625
1445.73673	5874.7625
1449.15965	5904.7625
1452.58027	5910.4625
1455.9986	5916.9625
1459.41463	5905.5625
1462.82837	5926.8625
1466.23982	6022.6625
1469.64898	6141.8625
1473.05586	6234.3625
1476.46045	6245.4625
1479.86276	6356.4625
1483.26279	6453.1625
1486.66054	6598.4625
1490.05602	6743.0625
1493.44922	6983.9625
1496.84016	7332.5625
1500.22882	7847.1625
1503.61521	8513.4625
1506.99934	9276.4625
1510.38121	10011.3625
1513.76081	10403.3625
1517.13816	10107.3625
1520.51324	9181.8625
1523.88607	8204.3625
1527.25665	7524.6625
1530.62498	7104.2625
1533.99105	6868.3625
1537.35488	6689.0625
1540.71647	6585.6625
1544.07581	6527.4625
1547.4329	6461.0625
1550.78776	6429.6625
1554.14038	6410.1625
1557.49077	6442.4625
1560.83892	6519.2625
1564.18484	6658.4625
1567.52853	6796.9625
1570.86999	6917.3625
1574.20922	6959.2625
1577.54624	6922.3625
1580.88103	6685.2625
1584.2136	6366.2625
1587.54395	6216.5625
1590.87208	6286.9625
1594.19801	6529.8625
1597.52172	6863.5625
1600.84321	7010.9625
1604.16251	6835.5625
1607.47959	6486.9625
1610.79447	6090.8625
1614.10715	5750.3625
1617.41763	5435.5625
1620.7259	5234.1625
1624.03199	5108.9625
1627.33587	5082.5625
1630.63757	5150.9625
1633.93707	5332.9625
1637.23439	5592.9625
1640.52951	5964.0625
1643.82246	6487.2625
1647.11321	7073.5625
1650.40179	7467.5625
1653.68819	7375.1625
1656.97241	6651.3625
1660.25446	5789.3625
1663.53433	5122.4625
1666.81203	4730.0625
1670.08756	4516.3625
1673.36092	4377.9625
1676.63211	4286.7625
1679.90115	4225.0625
1683.16801	4168.1625
1686.43272	4125.4625
1689.69527	4084.6625
1692.95567	4054.5625
1696.2139	4008.2625
1699.46999	3953.8625
1702.72392	3931.0625
1705.97571	3940.0625
1709.22535	3960.5625
1712.47284	3999.7625
1715.71819	4019.3625
1718.96139	4023.7625
1722.20246	4025.8625
1725.44139	4010.2625
1728.67818	3989.2625
1731.91284	3957.9625
1735.14537	3943.5625
1738.37576	3919.6625
1741.60403	3913.8625
1744.83017	3908.2625
1748.05418	3871.0625
1751.27607	3856.6625
1754.49584	3838.8625
1757.71349	3827.1625
1760.92903	3798.5625
1764.14244	3768.9625
1767.35375	3777.3625
1770.56294	3761.6625
1773.77002	3765.3625
1776.97499	3775.3625
1780.17785	3774.8625
1783.37861	3779.5625
1786.57727	3803.1625
1789.77382	3782.3625
1792.96828	3776.3625
1796.16064	3771.6625
1799.3509	3757.8625
1802.53907	3769.8625
1805.72514	3743.5625
1808.90913	3747.6625
1812.09102	3742.5625
1815.27083	3728.7625
1818.44856	3713.4625
1821.6242	3700.6625
1824.79776	3703.7625
1827.96924	3694.8625
1831.13864	3696.2625
1834.30597	3696.5625
1837.47122	3694.9625
1840.6344	3689.2625
1843.7955	3692.5625
1846.95454	3681.7625
1850.11151	3676.8625
1853.26642	3690.7625
1856.41926	3672.8625
1859.57004	3684.6625
1862.71876	3675.1625
1865.86542	3673.2625
1869.01003	3685.3625
1872.15258	3687.3625
1875.29308	3679.9625
1878.43152	3682.1625
1881.56792	3672.1625
1884.70227	3675.2625
1887.83457	3674.4625
1890.96482	3663.4625
1894.09304	3661.3625
1897.21921	3664.3625
1900.34335	3672.3625
1903.46544	3661.3625
1906.58551	3653.4625
1909.70353	3647.8625
1912.81953	3662.6625
1915.93349	3650.7625
1919.04543	3664.3625
1922.15534	3636.2625
1925.26322	3651.2625
1928.36908	3638.8625
1931.47292	3624.2625
1934.57473	3602.8625
1937.67453	3595.9625
1940.77232	3583.5625
1943.86808	3566.2625
1946.96184	3546.1625
1950.05358	3522.1625
1953.14331	3513.7625
1956.23103	3501.2625
1959.31675	3499.0625
1962.40046	3487.9625
1965.48217	3486.6625
1968.56188	3469.1625
1971.63959	3444.6625
1974.7153	3446.2625
1977.78901	3432.4625
1980.86073	3421.2625
1983.93046	3412.3625
1986.99819	3396.4625
1990.06394	3371.1625
1993.1277	3369.6625
1996.18947	3367.1625
1999.24925	3353.6625
2002.30706	3350.8625
2005.36288	3337.4625
2008.41672	3326.5625
2011.46859	3320.5625
2014.51848	3313.6625
2017.56639	3301.6625
2020.61233	3303.7625
2023.6563	3275.3625
2026.6983	3271.9625
2029.73833	3266.0625
2032.7764	3266.8625
2035.8125	3254.7625
2038.84664	3240.4625
2041.87881	3237.4625
2044.90903	3230.7625
2047.93729	3221.1625
2050.96359	3205.4625
2053.98794	3211.6625
2057.01034	3204.9625
2060.03078	3207.7625
2063.04927	3202.3625
2066.06582	3195.0625
2069.08042	3208.8625
2072.09307	3189.7625
2075.10378	3189.2625
2078.11255	3184.2625
2081.11938	3183.3625
2084.12426	3185.7625
2087.12722	3175.0625
2090.12824	3175.4625
2093.12732	3182.8625
2096.12447	3165.4625
2099.11969	3174.2625
2102.11299	3173.7625
2105.10435	3171.3625
2108.09379	3175.2625
2111.08131	3164.4625
2114.0669	3160.9625
2117.05057	3175.1625
2120.03233	3177.8625
2123.01216	3178.7625
2125.99008	3194.3625
2128.96609	3189.5625
2131.94018	3184.0625
2134.91236	3197.6625
2137.88263	3182.6625
2140.851	3194.4625
2143.81746	3185.8625
2146.78201	3195.9625
2149.74466	3182.0625
2152.7054	3187.8625
2155.66425	3183.1625
2158.6212	3177.6625
2161.57625	3176.1625
2164.52941	3170.5625
2167.48067	3178.0625
2170.43004	3161.0625
2173.37752	3170.7625
2176.32311	3169.8625
2179.26681	3168.3625
2182.20863	3161.1625
2185.14856	3162.6625
2188.08661	3179.8625
2191.02278	3170.8625
2193.95707	3164.2625
2196.88948	3158.0625
2199.82001	3149.1625
2202.74867	3144.1625
2205.67545	3145.0625
2208.60037	3146.6625
2211.52341	3132.9625
2214.44458	3132.7625
2217.36388	3120.8625
2220.28132	3111.6625
2223.1969	3111.4625
2226.11061	3108.5625
2229.02246	3090.4625
2231.93245	3084.2625
2234.84058	3091.4625
2237.74686	3063.9625
2240.65128	3070.3625
2243.55385	3070.6625
2246.45456	3054.2625
2249.35343	3042.7625
2252.25044	3050.8625
2255.14561	3040.8625
2258.03893	3037.5625
2260.93041	3033.5625
2263.82004	3046.0625
2266.70783	3028.5625
2269.59378	3015.4625
2272.4779	3005.1625
2275.36017	3011.5625
2278.24061	3012.0625
2281.11922	2981.1625
2283.996	2984.9625
2286.87094	2979.9625
2289.74405	2967.3625
2292.61534	2970.7625
2295.4848	2957.7625
2298.35243	2956.3625
2301.21824	2948.8625
2304.08223	2962.1625
2306.94439	2954.7625
2309.80474	2952.2625
2312.66327	2949.1625
2315.51999	2942.2625
2318.37489	2941.8625
2321.22797	2938.6625
2324.07925	2933.8625
2326.92871	2922.1625
2329.77637	2922.7625
2332.62222	2916.8625
2335.46626	2905.2625
2338.3085	2914.6625
2341.14893	2908.1625
2343.98756	2903.3625
2346.8244	2897.1625
2349.65943	2897.7625
2352.49267	2894.6625
2355.32411	2900.1625
2358.15376	2889.9625
2360.98161	2914.8625
2363.80768	2899.7625
2366.63195	2896.8625
2369.45444	2903.1625
2372.27514	2903.7625
2375.09405	2892.9625
2377.91118	2895.2625
2380.72652	2882.8625
2383.54009	2863.8625
2386.35187	2857.1625
2389.16188	2851.1625
2391.97011	2828.8625
2394.77657	2839.0625
2397.58125	2816.6625
2400.38416	2822.8625
2403.18529	2808.4625
2405.98466	2806.6625
2408.78226	2800.5625
2411.57809	2805.1625
2414.37216	2793.0625
2417.16446	2796.1625
2419.955	2787.3625
2422.74378	2786.5625
2425.5308	2788.2625
2428.31606	2782.2625
2431.09956	2780.6625
2433.88131	2769.7625
2436.6613	2779.6625
2439.43954	2758.9625
2442.21603	2776.6625
2444.99077	2767.9625
2447.76377	2770.9625
2450.53501	2755.3625
2453.30451	2764.5625
2456.07226	2759.1625
2458.83827	2751.7625
2461.60254	2755.4625
2464.36507	2746.6625
2467.12586	2757.7625
2469.88492	2736.1625
2472.64224	2741.1625
2475.39782	2738.2625
2478.15167	2742.5625
2480.90379	2741.4625
2483.65417	2746.0625
2486.40283	2749.9625
2489.14976	2752.6625
2491.89497	2744.8625
2494.63845	2748.3625
2497.3802	2749.2625
2500.12024	2737.8625
2502.85855	2737.2625
2505.59514	2748.0625
2508.33002	2723.0625
2511.06318	2726.1625
2513.79462	2715.2625
2516.52435	2695.5625
2519.25237	2696.5625
2521.97867	2704.1625
2524.70327	2694.5625
2527.42616	2679.9625
2530.14734	2682.3625
2532.86681	2674.3625
2535.58458	2674.3625
2538.30065	2670.6625
2541.01501	2670.1625
2543.72768	2663.6625
2546.43864	2667.0625
2549.14791	2658.0625
2551.85548	2655.9625
2554.56136	2646.1625
2557.26554	2643.6625
2559.96803	2655.1625
2562.66883	2642.4625
2565.36794	2638.4625
2568.06536	2630.0625
2570.7611	2629.2625
2573.45514	2619.2625
2576.14751	2610.1625
2578.83819	2615.0625
2581.52719	2614.7625
2584.21451	2607.5625
2586.90015	2590.8625
2589.58411	2581.3625
2592.2664	2607.9625
2594.94701	2595.3625
2597.62594	2587.8625
2600.30321	2576.0625
2602.9788	2575.8625
2605.65273	2572.3625
2608.32498	2586.2625
2610.99557	2562.4625
2613.66449	2578.0625
2616.33175	2559.1625
2618.99734	2565.6625
2621.66128	2580.9625
2624.32355	2564.4625
2626.98416	2555.1625
2629.64311	2549.9625
2632.30041	2569.0625
2634.95605	2536.1625
2637.61004	2541.7625
2640.26238	2536.2625
2642.91306	2535.1625
2645.56209	2535.4625
2648.20948	2533.0625
2650.85521	2521.6625
2653.4993	2529.7625
2656.14175	2531.3625
2658.78255	2536.7625
2661.42171	2545.3625
2664.05923	2537.7625
2666.6951	2537.4625
2669.32934	2548.3625
2671.96194	2538.4625
2674.59291	2543.9625
2677.22224	2532.1625
2679.84993	2552.2625
2682.476	2536.8625
2685.10043	2541.0625
2687.72324	2530.3625
2690.34441	2533.6625
2692.96396	2532.9625
2695.58188	2540.7625
2698.19818	2527.6625
2700.81285	2527.0625
2703.4259	2529.7625
2706.03733	2503.8625
2708.64714	2504.9625
2711.25533	2528.4625
2713.86191	2518.8625
2716.46687	2536.9625
2719.07021	2541.6625
2721.67194	2541.8625
2724.27206	2537.5625
2726.87057	2552.4625
2729.46747	2548.6625
2732.06276	2540.6625
2734.65644	2530.6625
2737.24852	2539.7625
2739.83899	2532.1625
2742.42786	2538.3625
2745.01513	2523.0625
2747.60079	2516.2625
2750.18486	2534.1625
2752.76733	2502.4625
2755.3482	2513.2625
2757.92747	2509.0625
2760.50515	2502.5625
2763.08123	2498.4625
2765.65573	2494.6625
2768.22863	2500.2625
2770.79994	2487.3625
2773.36967	2481.1625
2775.9378	2484.0625
2778.50435	2489.7625
2781.06932	2487.4625
2783.6327	2484.7625
2786.1945	2479.5625
2788.75471	2486.0625
2791.31335	2479.4625
2793.87041	2461.5625
2796.42589	2463.8625
2798.97979	2472.1625
2801.53212	2467.9625
2804.08288	2467.8625
2806.63206	2471.2625
2809.17967	2461.7625
2811.72571	2442.1625
2814.27018	2457.4625
2816.81308	2449.4625
2819.35442	2463.0625
2821.89419	2458.8625
2824.43239	2443.9625
2826.96904	2459.3625
2829.50412	2455.8625
2832.03763	2454.8625
2834.56959	2465.4625
2837.1	2470.7625
2839.62884	2472.7625
2842.15613	2493.1625
2844.68186	2520.9625
2847.20604	2560.1625
2849.72867	2589.7625
2852.24974	2593.6625
2854.76927	2591.9625
2857.28724	2570.0625
2859.80367	2579.5625
2862.31855	2571.6625
2864.83189	2554.1625
2867.34368	2536.5625
2869.85393	2541.8625
2872.36264	2536.8625
2874.8698	2537.3625
2877.37543	2531.6625
2879.87952	2529.8625
2882.38207	2528.6625
2884.88308	2522.6625
2887.38256	2538.2625
2889.88051	2530.5625
2892.37692	2521.8625
2894.8718	2524.2625
2897.36515	2539.3625
2899.85698	2526.5625
2902.34727	2536.4625
2904.83604	2538.5625
2907.32328	2545.2625
2909.809	2535.6625
2912.29319	2542.5625
2914.77587	2532.8625
2917.25702	2532.8625
2919.73665	2524.3625
2922.21476	2532.4625
2924.69136	2535.7625
2927.16644	2536.3625
2929.64	2531.7625
2932.11205	2538.5625
2934.58258	2512.9625
2937.05161	2507.8625
2939.51912	2496.3625
2941.98513	2485.7625
2944.44962	2467.0625
2946.91261	2430.5625
2949.37409	2436.6625
2951.83407	2428.3625
2954.29254	2415.3625
2956.74951	2405.3625
2959.20498	2398.0625
2961.65895	2386.3625
2964.11142	2388.5625
2966.56239	2386.0625
2969.01186	2386.8625
2971.45984	2370.6625
2973.90632	2359.9625
2976.35131	2348.6625
2978.7948	2355.2625
2981.23681	2339.8625
2983.67732	2344.4625
2986.11635	2329.3625
2988.55388	2321.1625
2990.98993	2328.4625
2993.4245	2319.0625
2995.85758	2310.9625
2998.28917	2307.9625
3000.71928	2304.5625
3003.14791	2297.2625
3005.57506	2306.4625
3008.00073	2296.2625
3010.42493	2286.5625
3012.84764	2287.1625
3015.26888	2287.7625
3017.68865	2286.0625
3020.10694	2273.6625
3022.52376	2279.6625
3024.9391	2286.9625
3027.35298	2270.1625
3029.76539	2277.6625
3032.17632	2269.0625
3034.5858	2262.8625
3036.9938	2268.9625
3039.40034	2268.4625
3041.80542	2267.0625
3044.20903	2266.9625
3046.61118	2267.6625
3049.01187	2262.4625
3051.4111	2262.9625
3053.80888	2262.6625
3056.20519	2254.1625
3058.60005	2243.0625
3060.99345	2245.3625
3063.3854	2246.8625
3065.7759	2255.1625
3068.16494	2245.3625
3070.55254	2238.8625
3072.93868	2234.9625
3075.32338	2236.0625
3077.70662	2229.8625
3080.08842	2224.7625
3082.46878	2229.0625
3084.84769	2218.7625
3087.22515	2221.2625
3089.60118	2209.9625
3091.97576	2220.8625
3094.3489	2226.3625
3096.72061	2226.1625
3099.09087	2229.9625
3101.4597	2218.8625
3103.82709	2224.0625
3106.19305	2230.5625
3108.55757	2233.1625
3110.92066	2228.3625
3113.28232	2224.6625
3115.64255	2236.2625
3118.00134	2226.1625
3120.35871	2219.5625
3122.71466	2229.8625
3125.06917	2216.9625
3127.42226	2221.5625
3129.77393	2229.0625
3132.12417	2225.5625
3134.47299	2232.2625
3136.82039	2233.8625
3139.16636	2246.5625
3141.51092	2256.4625
3143.85406	2245.9625
3146.19579	2241.0625
3148.53609	2260.0625
3150.87499	2279.3625
3153.21246	2274.1625
3155.54853	2283.5625
3157.88318	2279.6625
3160.21642	2286.2625
3162.54826	2298.3625
3164.87868	2292.5625
3167.2077	2299.4625
3169.5353	2302.7625
3171.86151	2306.7625
3174.18631	2308.2625
3176.5097	2307.5625
3178.83169	2313.5625
3181.15228	2305.0625
3183.47147	2312.6625
3185.78926	2317.8625
3188.10565	2322.9625
3190.42065	2324.6625
3192.73424	2302.9625
3195.04645	2327.0625
3197.35725	2325.2625
3199.66667	2320.5625
3201.97469	2332.4625
3204.28132	2345.6625
3206.58656	2339.9625
3208.8904	2345.8625
3211.19287	2353.8625
3213.49394	2352.3625
3215.79363	2351.2625
3218.09193	2369.2625
3220.38884	2361.5625
3222.68438	2361.9625
3224.97853	2348.3625
3227.2713	2354.8625
3229.56269	2355.9625
3231.8527	2363.1625
3234.14133	2353.0625
3236.42858	2339.5625
3238.71446	2349.1625
3240.99896	2335.6625
3243.28209	2347.6625
3245.56384	2339.6625
3247.84423	2339.5625
3250.12324	2339.7625
3252.40088	2336.2625
3254.67715	2342.1625
3256.95205	2352.2625
3259.22558	2344.1625
3261.49775	2342.2625
3263.76855	2344.1625
3266.03799	2325.9625
3268.30606	2327.2625
3270.57277	2325.1625
3272.83812	2306.5625
3275.10211	2307.7625
3277.36474	2306.7625
3279.62601	2316.4625
3281.88593	2294.0625
3284.14448	2307.9625
3286.40168	2302.9625
3288.65753	2306.8625
3290.91202	2303.0625
3293.16516	2296.3625
3295.41695	2303.0625
3297.66738	2281.3625
3299.91647	2276.9625
3302.16421	2258.1625
3304.4106	2239.6625
3306.65564	2238.1625
3308.89933	2230.6625
3311.14169	2215.0625
3313.38269	2189.4625
3315.62236	2171.8625
3317.86068	2162.0625
3320.09766	2143.5625
3322.3333	2125.6625
3324.5676	2127.8625
3326.80056	2079.5625
3329.03219	2066.7625
3331.26248	0.0625
3333.49143	-1.1375
3335.71905	-0.8375
