Data from AgNPs_FTO_APTES_UA_1uM_CRN_5uM_R6G_10uM_NaF_0.1M_Addition_RamanShift__14__13-52-29-593.txt Node

Date: Thu Jan 27 13:52:29 GMT 2022
User: TCL
Spectrometer: QEP01345
Trigger mode: 4
Integration Time (sec): 7.000000E0
Scans to average: 10
Electric dark correction enabled: true
Nonlinearity correction enabled: false
Boxcar width: 0
XAxis mode: Raman Shifts
Number of Pixels in Spectrum: 1044
>>>>>Begin Spectral Data<<<<<
46.04893	1.3625
50.45542	0.8625
54.85868	-1.0375
59.25871	-1.7375
63.6555	58.1625
68.04907	57.4625
72.43941	59.8625
76.82654	63.5625
81.21044	67.7625
85.59113	67.5625
89.96862	68.8625
94.34289	72.5625
98.71396	78.6625
103.08183	76.4625
107.4465	82.9625
111.80798	83.4625
116.16626	83.3625
120.52136	90.0625
124.87327	93.0625
129.222	91.7625
133.56755	96.4625
137.90993	106.0625
142.24913	114.6625
146.58517	125.5625
150.91804	145.6625
155.24774	173.5625
159.57429	207.3625
163.89768	263.0625
168.21792	350.1625
172.53501	479.0625
176.84895	657.8625
181.15975	921.3625
185.46741	1295.7625
189.77193	1793.5625
194.07331	2401.6625
198.37157	3116.7625
202.6667	3859.5625
206.9587	4582.0625
211.24758	5293.0625
215.53334	6010.7625
219.81599	6754.7625
224.09553	7571.2625
228.37195	8473.8625
232.64527	9481.1625
236.91549	10557.1625
241.18261	11631.3625
245.44663	12647.6625
249.70755	13590.4625
253.96539	14476.9625
258.22014	15140.5625
262.4718	15772.3625
266.72039	16164.9625
270.96589	16373.9625
275.20832	16411.3625
279.44768	16334.2625
283.68397	16184.2625
287.91719	16037.0625
292.14735	15951.9625
296.37445	15824.4625
300.59849	15834.7625
304.81948	15886.4625
309.03742	15862.3625
313.25231	15763.7625
317.46415	15510.5625
321.67296	15194.1625
325.87872	14906.4625
330.08145	14805.6625
334.28114	14817.7625
338.47781	14905.5625
342.67145	15107.1625
346.86207	15300.1625
351.04966	15584.7625
355.23424	15829.8625
359.4158	16097.4625
363.59435	16280.8625
367.76989	16443.7625
371.94243	16591.9625
376.11196	16667.6625
380.27849	16751.0625
384.44203	16795.4625
388.60257	16891.8625
392.76012	17042.6625
396.91468	17237.5625
401.06626	17454.4625
405.21485	17612.7625
409.36047	17605.5625
413.50311	17394.3625
417.64277	17226.3625
421.77947	17199.9625
425.9132	17266.7625
430.04396	17305.0625
434.17176	17377.2625
438.2966	17466.3625
442.41849	17607.4625
446.53742	17883.5625
450.6534	18140.6625
454.76644	18347.6625
458.87653	18522.6625
462.98368	18541.2625
467.08789	18493.3625
471.18916	18391.8625
475.2875	18210.9625
479.38291	18116.2625
483.4754	18041.9625
487.56496	17916.9625
491.6516	17795.7625
495.73531	17647.2625
499.81612	17635.8625
503.89401	17727.9625
507.96899	17789.6625
512.04106	17813.4625
516.11023	17795.8625
520.1765	17711.2625
524.23987	17604.6625
528.30034	17464.0625
532.35792	17374.6625
536.41261	17257.3625
540.46441	17142.4625
544.51333	17118.5625
548.55936	17272.1625
552.60252	17484.2625
556.64279	17757.0625
560.6802	17957.7625
564.71473	18003.5625
568.7464	18153.5625
572.7752	18396.3625
576.80114	18691.5625
580.82422	19023.4625
584.84444	19348.4625
588.86181	19619.5625
592.87633	19764.0625
596.888	19638.8625
600.89682	19401.5625
604.9028	19639.6625
608.90594	20775.3625
612.90624	22190.2625
616.90371	21418.0625
620.89834	18892.3625
624.89015	17696.8625
628.87913	17561.9625
632.86528	17620.1625
636.84862	17713.3625
640.82913	17618.4625
644.80683	17326.9625
648.78172	17134.3625
652.75379	17106.7625
656.72306	17241.3625
660.68952	17452.8625
664.65319	17428.2625
668.61405	17246.1625
672.57211	17180.3625
676.52738	17231.3625
680.47986	17248.6625
684.42955	17164.1625
688.37646	17121.5625
692.32058	17166.7625
696.26192	17291.8625
700.20048	17436.7625
704.13626	17550.3625
708.06928	17555.5625
711.99952	17522.0625
715.927	17470.6625
719.85171	17483.3625
723.77365	17492.5625
727.69284	17330.0625
731.60928	17193.9625
735.52295	17092.7625
739.43388	17122.2625
743.34206	17152.6625
747.24749	17188.6625
751.15017	17304.9625
755.05012	17482.2625
758.94733	17784.0625
762.8418	18348.3625
766.73354	19282.5625
770.62254	20196.9625
774.50882	20477.3625
778.39237	19943.9625
782.27321	18997.6625
786.15132	18182.8625
790.02671	17630.3625
793.89938	17377.9625
797.76935	17239.1625
801.6366	17170.5625
805.50115	17097.2625
809.36299	17046.1625
813.22213	16962.0625
817.07857	16965.9625
820.93231	16926.6625
824.78336	16923.4625
828.63172	16882.8625
832.47738	16885.1625
836.32036	16873.6625
840.16066	16846.1625
843.99827	16832.7625
847.8332	16858.2625
851.66546	16844.1625
855.49504	16832.8625
859.32195	16844.9625
863.1462	16834.9625
866.96777	16844.5625
870.78668	16815.3625
874.60293	16850.7625
878.41652	16834.6625
882.22745	16883.9625
886.03573	16959.1625
889.84136	16959.9625
893.64433	16934.1625
897.44466	16875.4625
901.24235	16850.1625
905.0374	16770.7625
908.8298	16756.9625
912.61957	16736.1625
916.40671	16840.0625
920.19121	16932.9625
923.97308	17057.9625
927.75233	17075.6625
931.52895	16971.7625
935.30295	16870.0625
939.07433	16701.0625
942.84309	16538.4625
946.60924	16451.6625
950.37278	16406.0625
954.13371	16384.0625
957.89203	16351.0625
961.64774	16332.2625
965.40086	16328.2625
969.15137	16293.6625
972.89929	16235.5625
976.64461	16182.4625
980.38733	16194.8625
984.12747	16219.6625
987.86502	16272.1625
991.59999	16349.0625
995.33237	16460.2625
999.06217	16600.7625
1002.78939	16824.5625
1006.51404	16956.7625
1010.23611	17147.2625
1013.95561	17271.5625
1017.67255	17249.9625
1021.38692	17221.8625
1025.09872	17049.1625
1028.80796	16948.8625
1032.51465	16956.4625
1036.21877	17104.7625
1039.92035	17164.7625
1043.61937	17157.2625
1047.31584	17111.8625
1051.00976	17085.1625
1054.70114	17070.8625
1058.38998	17163.6625
1062.07627	17257.4625
1065.76003	17393.5625
1069.44126	17541.4625
1073.11995	17744.0625
1076.79611	17948.6625
1080.46974	18038.6625
1084.14085	18114.2625
1087.80943	18151.1625
1091.47549	18282.5625
1095.13903	18322.8625
1098.80005	18219.2625
1102.45857	17990.9625
1106.11456	17764.1625
1109.76805	17574.6625
1113.41903	17554.8625
1117.06751	17554.1625
1120.71348	17671.2625
1124.35696	17795.4625
1127.99793	17940.4625
1131.63641	18054.8625
1135.2724	17948.3625
1138.90589	17826.6625
1142.5369	17795.0625
1146.16542	17785.1625
1149.79145	17777.4625
1153.415	17814.7625
1157.03607	17902.9625
1160.65467	18160.2625
1164.27079	18606.8625
1167.88443	19222.8625
1171.49561	19898.1625
1175.10432	20809.9625
1178.71056	21896.1625
1182.31434	22954.5625
1185.91565	23574.6625
1189.51451	23732.6625
1193.11091	23456.0625
1196.70485	22861.8625
1200.29634	22210.2625
1203.88538	21686.0625
1207.47197	21279.9625
1211.05612	20925.2625
1214.63782	20619.0625
1218.21708	20283.2625
1221.79391	19920.5625
1225.36829	19646.6625
1228.94024	19514.2625
1232.50976	19351.6625
1236.07685	19258.4625
1239.6415	19202.0625
1243.20374	19216.3625
1246.76355	19320.3625
1250.32093	19502.3625
1253.8759	19723.8625
1257.42845	20059.7625
1260.97859	20450.9625
1264.52631	20829.6625
1268.07163	21183.7625
1271.61453	21546.1625
1275.15503	21947.1625
1278.69312	22267.5625
1282.22882	22553.7625
1285.76211	22917.6625
1289.29301	23429.3625
1292.82151	23987.8625
1296.34761	24709.7625
1299.87133	25637.2625
1303.39266	26605.9625
1306.9116	27664.2625
1310.42815	28525.6625
1313.94233	28980.3625
1317.45412	28816.0625
1320.96354	28505.3625
1324.47058	28241.3625
1327.97525	27991.8625
1331.47754	27842.1625
1334.97747	27777.9625
1338.47502	27750.1625
1341.97022	27799.7625
1345.46305	27957.0625
1348.95352	27992.7625
1352.44163	27971.9625
1355.92738	28190.0625
1359.41078	28773.5625
1362.89183	29374.3625
1366.37053	29016.5625
1369.84688	27261.4625
1373.32088	25078.7625
1376.79254	23451.9625
1380.26186	22690.6625
1383.72883	22479.7625
1387.19347	22378.9625
1390.65578	22161.0625
1394.11575	21911.6625
1397.57339	21882.1625
1401.0287	21995.3625
1404.48168	22094.7625
1407.93234	22101.1625
1411.38068	21936.4625
1414.82669	21559.6625
1418.27039	21029.9625
1421.71177	20555.6625
1425.15083	20126.5625
1428.58758	19894.8625
1432.02203	19916.9625
1435.45416	20183.9625
1438.88399	20512.5625
1442.31151	20767.4625
1445.73673	20961.2625
1449.15965	21098.4625
1452.58027	21178.0625
1455.9986	21183.3625
1459.41463	21264.0625
1462.82837	21500.4625
1466.23982	21758.8625
1469.64898	22016.1625
1473.05586	22193.2625
1476.46045	22274.4625
1479.86276	22285.2625
1483.26279	22189.6625
1486.66054	22151.4625
1490.05602	22266.3625
1493.44922	22536.5625
1496.84016	22962.8625
1500.22882	23585.8625
1503.61521	24369.1625
1506.99934	25348.3625
1510.38121	26045.6625
1513.76081	26188.8625
1517.13816	25633.0625
1520.51324	24767.3625
1523.88607	24009.9625
1527.25665	23457.6625
1530.62498	23189.4625
1533.99105	22977.4625
1537.35488	22773.9625
1540.71647	22434.5625
1544.07581	22065.5625
1547.4329	21662.1625
1550.78776	21372.5625
1554.14038	21187.7625
1557.49077	21071.5625
1560.83892	21088.5625
1564.18484	21143.3625
1567.52853	21242.8625
1570.86999	21416.8625
1574.20922	21646.3625
1577.54624	21808.2625
1580.88103	21780.2625
1584.2136	21687.7625
1587.54395	21814.9625
1590.87208	22255.7625
1594.19801	23012.6625
1597.52172	23852.2625
1600.84321	24104.9625
1604.16251	23491.5625
1607.47959	22428.4625
1610.79447	21292.1625
1614.10715	20113.9625
1617.41763	19080.2625
1620.7259	18307.4625
1624.03199	17895.4625
1627.33587	17760.3625
1630.63757	17979.4625
1633.93707	18612.6625
1637.23439	19624.5625
1640.52951	21168.3625
1643.82246	23025.5625
1647.11321	24647.5625
1650.40179	25197.8625
1653.68819	24224.1625
1656.97241	22136.7625
1660.25446	19862.7625
1663.53433	18116.2625
1666.81203	16964.7625
1670.08756	16233.1625
1673.36092	15786.9625
1676.63211	15498.6625
1679.90115	15258.6625
1683.16801	15105.7625
1686.43272	14967.2625
1689.69527	14851.0625
1692.95567	14773.1625
1696.2139	14694.9625
1699.46999	14629.5625
1702.72392	14576.1625
1705.97571	14570.8625
1709.22535	14586.8625
1712.47284	14596.6625
1715.71819	14596.1625
1718.96139	14572.6625
1722.20246	14535.7625
1725.44139	14504.3625
1728.67818	14441.2625
1731.91284	14374.5625
1735.14537	14323.9625
1738.37576	14280.3625
1741.60403	14202.4625
1744.83017	14135.4625
1748.05418	14133.9625
1751.27607	14097.8625
1754.49584	14067.9625
1757.71349	14042.9625
1760.92903	14014.3625
1764.14244	13961.8625
1767.35375	13986.6625
1770.56294	13961.3625
1773.77002	13950.2625
1776.97499	13960.5625
1780.17785	13945.8625
1783.37861	13950.9625
1786.57727	13945.5625
1789.77382	13928.3625
1792.96828	13893.8625
1796.16064	13858.2625
1799.3509	13843.1625
1802.53907	13808.6625
1805.72514	13764.0625
1808.90913	13729.3625
1812.09102	13712.0625
1815.27083	13708.3625
1818.44856	13665.7625
1821.6242	13645.9625
1824.79776	13619.4625
1827.96924	13647.2625
1831.13864	13625.3625
1834.30597	13587.4625
1837.47122	13600.0625
1840.6344	13590.3625
1843.7955	13556.6625
1846.95454	13584.4625
1850.11151	13596.4625
1853.26642	13584.8625
1856.41926	13567.7625
1859.57004	13605.8625
1862.71876	13546.9625
1865.86542	13534.8625
1869.01003	13510.3625
1872.15258	13470.4625
1875.29308	13453.1625
1878.43152	13445.8625
1881.56792	13408.3625
1884.70227	13379.8625
1887.83457	13393.0625
1890.96482	13341.1625
1894.09304	13330.4625
1897.21921	13314.9625
1900.34335	13294.8625
1903.46544	13263.0625
1906.58551	13259.5625
1909.70353	13227.0625
1912.81953	13210.4625
1915.93349	13214.9625
1919.04543	13169.7625
1922.15534	13145.4625
1925.26322	13118.0625
1928.36908	13101.1625
1931.47292	13063.9625
1934.57473	13022.9625
1937.67453	12988.5625
1940.77232	12977.9625
1943.86808	12942.2625
1946.96184	12885.2625
1950.05358	12846.4625
1953.14331	12829.3625
1956.23103	12779.3625
1959.31675	12760.4625
1962.40046	12746.0625
1965.48217	12677.1625
1968.56188	12642.0625
1971.63959	12593.5625
1974.7153	12558.5625
1977.78901	12544.8625
1980.86073	12497.3625
1983.93046	12461.1625
1986.99819	12394.2625
1990.06394	12356.5625
1993.1277	12342.4625
1996.18947	12279.5625
1999.24925	12263.9625
2002.30706	12210.2625
2005.36288	12178.4625
2008.41672	12154.0625
2011.46859	12103.0625
2014.51848	12090.2625
2017.56639	12047.1625
2020.61233	12035.5625
2023.6563	11993.2625
2026.6983	11941.1625
2029.73833	11922.8625
2032.7764	11885.0625
2035.8125	11871.5625
2038.84664	11826.8625
2041.87881	11819.2625
2044.90903	11795.8625
2047.93729	11758.0625
2050.96359	11756.3625
2053.98794	11718.9625
2057.01034	11702.5625
2060.03078	11718.3625
2063.04927	11740.6625
2066.06582	11732.5625
2069.08042	11727.4625
2072.09307	11689.4625
2075.10378	11665.4625
2078.11255	11682.2625
2081.11938	11647.9625
2084.12426	11649.4625
2087.12722	11662.5625
2090.12824	11633.3625
2093.12732	11656.7625
2096.12447	11647.1625
2099.11969	11632.9625
2102.11299	11643.7625
2105.10435	11655.5625
2108.09379	11674.6625
2111.08131	11670.0625
2114.0669	11658.0625
2117.05057	11687.1625
2120.03233	11690.8625
2123.01216	11692.2625
2125.99008	11707.5625
2128.96609	11707.6625
2131.94018	11702.2625
2134.91236	11707.0625
2137.88263	11719.6625
2140.851	11738.3625
2143.81746	11740.7625
2146.78201	11737.2625
2149.74466	11742.6625
2152.7054	11742.5625
2155.66425	11722.2625
2158.6212	11716.5625
2161.57625	11686.6625
2164.52941	11695.4625
2167.48067	11713.2625
2170.43004	11717.3625
2173.37752	11704.1625
2176.32311	11696.8625
2179.26681	11719.9625
2182.20863	11663.9625
2185.14856	11681.7625
2188.08661	11694.6625
2191.02278	11680.1625
2193.95707	11678.7625
2196.88948	11663.7625
2199.82001	11656.1625
2202.74867	11640.8625
2205.67545	11607.4625
2208.60037	11593.8625
2211.52341	11581.8625
2214.44458	11579.2625
2217.36388	11526.0625
2220.28132	11498.3625
2223.1969	11482.4625
2226.11061	11452.5625
2229.02246	11437.1625
2231.93245	11425.8625
2234.84058	11416.4625
2237.74686	11382.1625
2240.65128	11381.2625
2243.55385	11350.5625
2246.45456	11343.7625
2249.35343	11335.6625
2252.25044	11300.7625
2255.14561	11296.2625
2258.03893	11275.8625
2260.93041	11259.8625
2263.82004	11227.1625
2266.70783	11186.6625
2269.59378	11158.5625
2272.4779	11148.6625
2275.36017	11111.5625
2278.24061	11116.8625
2281.11922	11094.2625
2283.996	11067.8625
2286.87094	11074.8625
2289.74405	11029.8625
2292.61534	10996.5625
2295.4848	10959.1625
2298.35243	11006.4625
2301.21824	10959.2625
2304.08223	10998.6625
2306.94439	10965.0625
2309.80474	10959.4625
2312.66327	10944.2625
2315.51999	10938.2625
2318.37489	10902.6625
2321.22797	10916.2625
2324.07925	10878.2625
2326.92871	10882.9625
2329.77637	10866.3625
2332.62222	10828.4625
2335.46626	10795.6625
2338.3085	10787.7625
2341.14893	10775.5625
2343.98756	10794.3625
2346.8244	10761.3625
2349.65943	10750.8625
2352.49267	10757.5625
2355.32411	10756.2625
2358.15376	10732.9625
2360.98161	10732.5625
2363.80768	10700.6625
2366.63195	10726.6625
2369.45444	10744.1625
2372.27514	10702.7625
2375.09405	10685.9625
2377.91118	10664.6625
2380.72652	10645.1625
2383.54009	10595.2625
2386.35187	10595.6625
2389.16188	10578.0625
2391.97011	10532.4625
2394.77657	10504.9625
2397.58125	10493.9625
2400.38416	10479.3625
2403.18529	10461.9625
2405.98466	10459.9625
2408.78226	10438.9625
2411.57809	10433.0625
2414.37216	10415.9625
2417.16446	10427.6625
2419.955	10412.2625
2422.74378	10400.6625
2425.5308	10369.5625
2428.31606	10366.7625
2431.09956	10357.1625
2433.88131	10341.4625
2436.6613	10327.7625
2439.43954	10340.8625
2442.21603	10296.8625
2444.99077	10300.1625
2447.76377	10312.2625
2450.53501	10292.8625
2453.30451	10280.0625
2456.07226	10264.9625
2458.83827	10251.2625
2461.60254	10250.1625
2464.36507	10242.4625
2467.12586	10224.7625
2469.88492	10186.1625
2472.64224	10225.9625
2475.39782	10209.7625
2478.15167	10199.1625
2480.90379	10180.4625
2483.65417	10179.6625
2486.40283	10176.2625
2489.14976	10193.9625
2491.89497	10174.5625
2494.63845	10168.3625
2497.3802	10168.3625
2500.12024	10148.6625
2502.85855	10112.8625
2505.59514	10119.0625
2508.33002	10116.3625
2511.06318	10078.3625
2513.79462	10080.0625
2516.52435	10080.4625
2519.25237	10046.4625
2521.97867	10043.9625
2524.70327	10056.7625
2527.42616	10018.9625
2530.14734	10033.0625
2532.86681	10006.8625
2535.58458	9996.3625
2538.30065	9964.7625
2541.01501	9954.5625
2543.72768	9946.3625
2546.43864	9937.8625
2549.14791	9918.2625
2551.85548	9885.5625
2554.56136	9910.2625
2557.26554	9868.8625
2559.96803	9844.7625
2562.66883	9854.2625
2565.36794	9848.6625
2568.06536	9834.4625
2570.7611	9802.5625
2573.45514	9779.8625
2576.14751	9739.5625
2578.83819	9743.6625
2581.52719	9744.1625
2584.21451	9713.5625
2586.90015	9709.0625
2589.58411	9672.3625
2592.2664	9704.5625
2594.94701	9672.9625
2597.62594	9662.6625
2600.30321	9607.2625
2602.9788	9599.8625
2605.65273	9596.4625
2608.32498	9598.3625
2610.99557	9586.5625
2613.66449	9587.7625
2616.33175	9582.4625
2618.99734	9562.6625
2621.66128	9558.7625
2624.32355	9515.9625
2626.98416	9538.9625
2629.64311	9529.1625
2632.30041	9497.9625
2634.95605	9497.1625
2637.61004	9483.2625
2640.26238	9460.6625
2642.91306	9452.8625
2645.56209	9432.8625
2648.20948	9444.7625
2650.85521	9439.5625
2653.4993	9433.9625
2656.14175	9429.5625
2658.78255	9425.0625
2661.42171	9405.9625
2664.05923	9434.0625
2666.6951	9430.3625
2669.32934	9445.6625
2671.96194	9421.8625
2674.59291	9426.1625
2677.22224	9438.3625
2679.84993	9426.2625
2682.476	9395.9625
2685.10043	9424.5625
2687.72324	9388.9625
2690.34441	9385.4625
2692.96396	9384.8625
2695.58188	9385.5625
2698.19818	9366.0625
2700.81285	9392.8625
2703.4259	9402.6625
2706.03733	9367.6625
2708.64714	9351.0625
2711.25533	9371.7625
2713.86191	9384.6625
2716.46687	9379.0625
2719.07021	9391.3625
2721.67194	9408.6625
2724.27206	9400.4625
2726.87057	9397.2625
2729.46747	9396.4625
2732.06276	9391.0625
2734.65644	9383.0625
2737.24852	9361.2625
2739.83899	9349.2625
2742.42786	9353.3625
2745.01513	9332.4625
2747.60079	9330.5625
2750.18486	9295.8625
2752.76733	9304.7625
2755.3482	9282.9625
2757.92747	9291.4625
2760.50515	9270.2625
2763.08123	9263.4625
2765.65573	9250.5625
2768.22863	9242.1625
2770.79994	9244.7625
2773.36967	9215.8625
2775.9378	9212.6625
2778.50435	9229.5625
2781.06932	9190.7625
2783.6327	9171.1625
2786.1945	9159.0625
2788.75471	9140.6625
2791.31335	9109.1625
2793.87041	9119.2625
2796.42589	9078.9625
2798.97979	9095.2625
2801.53212	9077.5625
2804.08288	9062.7625
2806.63206	9045.2625
2809.17967	9009.8625
2811.72571	8998.8625
2814.27018	8969.0625
2816.81308	8959.0625
2819.35442	8953.3625
2821.89419	8931.7625
2824.43239	8926.0625
2826.96904	8908.1625
2829.50412	8918.2625
2832.03763	8897.8625
2834.56959	8876.7625
2837.1	8882.4625
2839.62884	8848.6625
2842.15613	8865.8625
2844.68186	8880.5625
2847.20604	8860.1625
2849.72867	8891.0625
2852.24974	8854.9625
2854.76927	8871.8625
2857.28724	8885.7625
2859.80367	8844.0625
2862.31855	8832.9625
2864.83189	8791.9625
2867.34368	8795.3625
2869.85393	8779.1625
2872.36264	8772.3625
2874.8698	8755.1625
2877.37543	8763.9625
2879.87952	8753.9625
2882.38207	8744.1625
2884.88308	8744.2625
2887.38256	8741.4625
2889.88051	8706.5625
2892.37692	8747.3625
2894.8718	8722.0625
2897.36515	8745.5625
2899.85698	8722.0625
2902.34727	8748.4625
2904.83604	8733.0625
2907.32328	8744.9625
2909.809	8762.5625
2912.29319	8764.0625
2914.77587	8765.7625
2917.25702	8743.6625
2919.73665	8717.4625
2922.21476	8728.3625
2924.69136	8733.2625
2927.16644	8720.8625
2929.64	8707.7625
2932.11205	8697.3625
2934.58258	8675.3625
2937.05161	8699.6625
2939.51912	8693.8625
2941.98513	8674.8625
2944.44962	8630.8625
2946.91261	8601.6625
2949.37409	8613.7625
2951.83407	8600.0625
2954.29254	8589.4625
2956.74951	8585.2625
2959.20498	8596.5625
2961.65895	8562.5625
2964.11142	8595.4625
2966.56239	8557.7625
2969.01186	8564.7625
2971.45984	8550.0625
2973.90632	8518.6625
2976.35131	8507.6625
2978.7948	8492.3625
2981.23681	8488.3625
2983.67732	8475.8625
2986.11635	8447.6625
2988.55388	8419.3625
2990.98993	8399.7625
2993.4245	8407.9625
2995.85758	8382.9625
2998.28917	8359.0625
3000.71928	8354.6625
3003.14791	8333.2625
3005.57506	8317.0625
3008.00073	8291.7625
3010.42493	8281.7625
3012.84764	8281.5625
3015.26888	8274.8625
3017.68865	8264.7625
3020.10694	8240.1625
3022.52376	8231.1625
3024.9391	8198.8625
3027.35298	8194.5625
3029.76539	8217.2625
3032.17632	8193.8625
3034.5858	8161.8625
3036.9938	8181.2625
3039.40034	8143.1625
3041.80542	8169.8625
3044.20903	8144.3625
3046.61118	8137.5625
3049.01187	8098.9625
3051.4111	8111.5625
3053.80888	8106.5625
3056.20519	8094.2625
3058.60005	8061.9625
3060.99345	8033.2625
3063.3854	8017.2625
3065.7759	8007.5625
3068.16494	8009.6625
3070.55254	7970.3625
3072.93868	7967.0625
3075.32338	7938.4625
3077.70662	7937.3625
3080.08842	7914.8625
3082.46878	7917.3625
3084.84769	7887.4625
3087.22515	7878.0625
3089.60118	7864.8625
3091.97576	7863.2625
3094.3489	7899.8625
3096.72061	7883.4625
3099.09087	7865.7625
3101.4597	7868.5625
3103.82709	7860.5625
3106.19305	7858.4625
3108.55757	7856.8625
3110.92066	7840.1625
3113.28232	7841.3625
3115.64255	7802.5625
3118.00134	7810.6625
3120.35871	7777.1625
3122.71466	7784.2625
3125.06917	7780.7625
3127.42226	7751.7625
3129.77393	7710.8625
3132.12417	7708.9625
3134.47299	7730.0625
3136.82039	7714.3625
3139.16636	7723.3625
3141.51092	7735.7625
3143.85406	7721.8625
3146.19579	7740.4625
3148.53609	7737.8625
3150.87499	7749.7625
3153.21246	7746.7625
3155.54853	7757.3625
3157.88318	7738.4625
3160.21642	7740.9625
3162.54826	7748.3625
3164.87868	7731.5625
3167.2077	7732.6625
3169.5353	7750.5625
3171.86151	7747.0625
3174.18631	7729.6625
3176.5097	7740.8625
3178.83169	7720.6625
3181.15228	7696.0625
3183.47147	7704.7625
3185.78926	7684.7625
3188.10565	7672.8625
3190.42065	7664.7625
3192.73424	7656.4625
3195.04645	7651.7625
3197.35725	7670.6625
3199.66667	7675.1625
3201.97469	7659.9625
3204.28132	7655.9625
3206.58656	7658.7625
3208.8904	7667.8625
3211.19287	7672.2625
3213.49394	7695.1625
3215.79363	7682.2625
3218.09193	7678.1625
3220.38884	7666.5625
3222.68438	7664.6625
3224.97853	7647.2625
3227.2713	7653.0625
3229.56269	7632.1625
3231.8527	7639.8625
3234.14133	7623.0625
3236.42858	7566.1625
3238.71446	7594.0625
3240.99896	7583.1625
3243.28209	7592.0625
3245.56384	7573.8625
3247.84423	7545.2625
3250.12324	7544.0625
3252.40088	7552.9625
3254.67715	7553.2625
3256.95205	7516.4625
3259.22558	7527.3625
3261.49775	7517.7625
3263.76855	7509.6625
3266.03799	7487.8625
3268.30606	7480.5625
3270.57277	7483.8625
3272.83812	7462.0625
3275.10211	7421.0625
3277.36474	7433.1625
3279.62601	7433.3625
3281.88593	7387.0625
3284.14448	7422.1625
3286.40168	7407.1625
3288.65753	7418.2625
3290.91202	7395.8625
3293.16516	7359.9625
3295.41695	7346.3625
3297.66738	7306.2625
3299.91647	7270.8625
3302.16421	7230.0625
3304.4106	7186.6625
3306.65564	7158.4625
3308.89933	7123.8625
3311.14169	7069.5625
3313.38269	7021.1625
3315.62236	6976.7625
3317.86068	6899.4625
3320.09766	6861.0625
3322.3333	6794.2625
3324.5676	6796.5625
3326.80056	6684.2625
3329.03219	6627.8625
3331.26248	2.1625
3333.49143	0.3625
3335.71905	-2.2375
