Data from AgNPs_FTO_APTES_UA_1uM_CRN_100uM_R6G_10uM_NaF_0.1M_Addition_RamanShift__32__16-57-59-805.txt Node

Date: Thu Jan 27 16:57:59 GMT 2022
User: TCL
Spectrometer: QEP01345
Trigger mode: 4
Integration Time (sec): 7.000000E0
Scans to average: 10
Electric dark correction enabled: true
Nonlinearity correction enabled: false
Boxcar width: 0
XAxis mode: Raman Shifts
Number of Pixels in Spectrum: 1044
>>>>>Begin Spectral Data<<<<<
46.04893	1.1625
50.45542	1.1625
54.85868	-1.4375
59.25871	-0.4375
63.6555	29.7625
68.04907	31.7625
72.43941	34.0625
76.82654	37.6625
81.21044	37.3625
85.59113	39.0625
89.96862	42.4625
94.34289	41.8625
98.71396	44.2625
103.08183	43.8625
107.4465	47.6625
111.80798	48.0625
116.16626	47.6625
120.52136	54.9625
124.87327	48.3625
129.222	45.0625
133.56755	49.6625
137.90993	50.7625
142.24913	47.2625
146.58517	55.8625
150.91804	62.4625
155.24774	69.4625
159.57429	75.2625
163.89768	90.6625
168.21792	115.4625
172.53501	152.4625
176.84895	199.6625
181.15975	277.4625
185.46741	375.3625
189.77193	513.2625
194.07331	675.5625
198.37157	870.4625
202.6667	1070.8625
206.9587	1275.6625
211.24758	1476.4625
215.53334	1678.7625
219.81599	1912.9625
224.09553	2181.7625
228.37195	2466.0625
232.64527	2788.0625
236.91549	3106.1625
241.18261	3379.0625
245.44663	3625.6625
249.70755	3812.6625
253.96539	3960.7625
258.22014	4108.2625
262.4718	4234.4625
266.72039	4344.8625
270.96589	4414.0625
275.20832	4431.0625
279.44768	4397.3625
283.68397	4372.4625
287.91719	4328.0625
292.14735	4354.6625
296.37445	4440.3625
300.59849	4586.9625
304.81948	4786.0625
309.03742	4934.1625
313.25231	4921.4625
317.46415	4679.1625
321.67296	4305.8625
325.87872	3991.8625
330.08145	3835.7625
334.28114	3822.2625
338.47781	3903.8625
342.67145	4018.5625
346.86207	4207.4625
351.04966	4453.1625
355.23424	4747.6625
359.4158	4967.5625
363.59435	5080.6625
367.76989	5093.1625
371.94243	5082.8625
376.11196	5040.5625
380.27849	5002.7625
384.44203	4926.9625
388.60257	4841.4625
392.76012	4805.8625
396.91468	4871.3625
401.06626	5005.9625
405.21485	5104.5625
409.36047	5036.3625
413.50311	4776.9625
417.64277	4509.4625
421.77947	4355.4625
425.9132	4294.4625
430.04396	4271.0625
434.17176	4275.9625
438.2966	4348.4625
442.41849	4423.3625
446.53742	4547.1625
450.6534	4656.6625
454.76644	4732.3625
458.87653	4749.9625
462.98368	4720.8625
467.08789	4670.1625
471.18916	4600.3625
475.2875	4487.2625
479.38291	4393.7625
483.4754	4335.9625
487.56496	4296.3625
491.6516	4252.9625
495.73531	4242.7625
499.81612	4258.1625
503.89401	4308.9625
507.96899	4374.2625
512.04106	4441.6625
516.11023	4516.1625
520.1765	4566.8625
524.23987	4552.9625
528.30034	4441.7625
532.35792	4334.7625
536.41261	4246.2625
540.46441	4126.0625
544.51333	4105.1625
548.55936	4132.4625
552.60252	4208.0625
556.64279	4335.4625
560.6802	4405.7625
564.71473	4462.2625
568.7464	4661.3625
572.7752	4775.8625
576.80114	4670.9625
580.82422	4500.2625
584.84444	4423.1625
588.86181	4377.6625
592.87633	4349.8625
596.888	4382.2625
600.89682	4536.5625
604.9028	5060.9625
608.90594	6445.3625
612.90624	8398.2625
616.90371	8234.4625
620.89834	5755.3625
624.89015	4522.2625
628.87913	4274.8625
632.86528	4275.5625
636.84862	4361.8625
640.82913	4345.5625
644.80683	4172.2625
648.78172	4062.5625
652.75379	4054.2625
656.72306	4237.7625
660.68952	4449.8625
664.65319	4442.7625
668.61405	4210.8625
672.57211	4092.4625
676.52738	4095.7625
680.47986	4116.9625
684.42955	4078.3625
688.37646	4055.3625
692.32058	4056.8625
696.26192	4103.0625
700.20048	4128.9625
704.13626	4185.5625
708.06928	4169.9625
711.99952	4143.8625
715.927	4120.3625
719.85171	4135.2625
723.77365	4127.2625
727.69284	4089.4625
731.60928	4036.4625
735.52295	4013.8625
739.43388	4024.8625
743.34206	4059.5625
747.24749	4081.0625
751.15017	4109.0625
755.05012	4187.4625
758.94733	4396.0625
762.8418	4876.3625
766.73354	5665.4625
770.62254	6546.2625
774.50882	7014.4625
778.39237	6759.8625
782.27321	5853.7625
786.15132	4957.1625
790.02671	4422.6625
793.89938	4213.2625
797.76935	4110.2625
801.6366	4052.3625
805.50115	4024.4625
809.36299	3998.6625
813.22213	4004.1625
817.07857	3986.0625
820.93231	3980.1625
824.78336	4007.5625
828.63172	4018.4625
832.47738	4019.8625
836.32036	4013.0625
840.16066	3982.5625
843.99827	3967.9625
847.8332	3947.2625
851.66546	3944.4625
855.49504	3940.4625
859.32195	3926.6625
863.1462	3910.5625
866.96777	3891.0625
870.78668	3879.5625
874.60293	3878.6625
878.41652	3896.9625
882.22745	3911.1625
886.03573	3941.2625
889.84136	3951.4625
893.64433	3905.1625
897.44466	3898.8625
901.24235	3902.2625
905.0374	3876.8625
908.8298	3865.4625
912.61957	3870.6625
916.40671	3884.5625
920.19121	3914.0625
923.97308	3947.5625
927.75233	3973.9625
931.52895	4008.2625
935.30295	3974.1625
939.07433	3862.4625
942.84309	3759.7625
946.60924	3715.9625
950.37278	3674.7625
954.13371	3635.5625
957.89203	3620.6625
961.64774	3616.3625
965.40086	3608.3625
969.15137	3593.1625
972.89929	3589.2625
976.64461	3575.2625
980.38733	3573.4625
984.12747	3573.3625
987.86502	3579.1625
991.59999	3588.2625
995.33237	3622.7625
999.06217	3648.6625
1002.78939	3741.2625
1006.51404	3807.5625
1010.23611	3885.0625
1013.95561	3955.5625
1017.67255	3929.3625
1021.38692	3886.1625
1025.09872	3834.4625
1028.80796	3791.5625
1032.51465	3796.4625
1036.21877	3823.5625
1039.92035	3868.3625
1043.61937	3904.8625
1047.31584	3906.0625
1051.00976	3920.1625
1054.70114	3921.0625
1058.38998	3914.3625
1062.07627	3948.6625
1065.76003	3969.7625
1069.44126	3999.7625
1073.11995	4043.1625
1076.79611	4086.8625
1080.46974	4124.3625
1084.14085	4222.7625
1087.80943	4317.7625
1091.47549	4374.9625
1095.13903	4317.3625
1098.80005	4172.5625
1102.45857	4034.8625
1106.11456	3958.8625
1109.76805	3961.1625
1113.41903	4043.4625
1117.06751	4166.9625
1120.71348	4328.8625
1124.35696	4529.1625
1127.99793	4703.3625
1131.63641	4720.0625
1135.2724	4491.9625
1138.90589	4262.0625
1142.5369	4125.7625
1146.16542	4049.1625
1149.79145	3994.3625
1153.415	3997.8625
1157.03607	4023.0625
1160.65467	4114.0625
1164.27079	4236.1625
1167.88443	4463.7625
1171.49561	4803.6625
1175.10432	5409.8625
1178.71056	6187.8625
1182.31434	6674.3625
1185.91565	6721.5625
1189.51451	6497.7625
1193.11091	6109.8625
1196.70485	5664.2625
1200.29634	5320.6625
1203.88538	5083.4625
1207.47197	4790.2625
1211.05612	4515.7625
1214.63782	4369.8625
1218.21708	4315.0625
1221.79391	4303.1625
1225.36829	4331.8625
1228.94024	4364.5625
1232.50976	4386.4625
1236.07685	4412.2625
1239.6415	4417.1625
1243.20374	4430.1625
1246.76355	4441.3625
1250.32093	4491.7625
1253.8759	4575.2625
1257.42845	4695.7625
1260.97859	4817.5625
1264.52631	4959.9625
1268.07163	5083.4625
1271.61453	5218.1625
1275.15503	5304.9625
1278.69312	5343.6625
1282.22882	5328.2625
1285.76211	5408.9625
1289.29301	5583.3625
1292.82151	5752.3625
1296.34761	5927.8625
1299.87133	6184.4625
1303.39266	6622.5625
1306.9116	7338.7625
1310.42815	8179.9625
1313.94233	8785.5625
1317.45412	8697.3625
1320.96354	8094.3625
1324.47058	7449.9625
1327.97525	6898.1625
1331.47754	6574.9625
1334.97747	6477.7625
1338.47502	6476.8625
1341.97022	6605.7625
1345.46305	6834.5625
1348.95352	7174.6625
1352.44163	7702.6625
1355.92738	8438.9625
1359.41078	9642.3625
1362.89183	10900.5625
1366.37053	10708.4625
1369.84688	9109.7625
1373.32088	7478.7625
1376.79254	6459.7625
1380.26186	5901.7625
1383.72883	5635.7625
1387.19347	5442.1625
1390.65578	5236.5625
1394.11575	5056.3625
1397.57339	4954.7625
1401.0287	4946.3625
1404.48168	4977.8625
1407.93234	5052.6625
1411.38068	5088.3625
1414.82669	5094.4625
1418.27039	4999.5625
1421.71177	4906.6625
1425.15083	4821.8625
1428.58758	4754.8625
1432.02203	4748.5625
1435.45416	4770.5625
1438.88399	4797.5625
1442.31151	4786.4625
1445.73673	4802.5625
1449.15965	4835.1625
1452.58027	4816.9625
1455.9986	4816.2625
1459.41463	4807.2625
1462.82837	4850.2625
1466.23982	4931.0625
1469.64898	5052.5625
1473.05586	5110.3625
1476.46045	5170.6625
1479.86276	5251.0625
1483.26279	5366.4625
1486.66054	5499.7625
1490.05602	5680.8625
1493.44922	5947.3625
1496.84016	6368.4625
1500.22882	7003.1625
1503.61521	7870.7625
1506.99934	8828.8625
1510.38121	9782.1625
1513.76081	10371.7625
1517.13816	10051.1625
1520.51324	8817.9625
1523.88607	7556.8625
1527.25665	6642.6625
1530.62498	6123.5625
1533.99105	5842.5625
1537.35488	5624.9625
1540.71647	5503.7625
1544.07581	5421.4625
1547.4329	5383.3625
1550.78776	5360.8625
1554.14038	5365.3625
1557.49077	5412.2625
1560.83892	5537.6625
1564.18484	5696.4625
1567.52853	5899.9625
1570.86999	6036.2625
1574.20922	6144.9625
1577.54624	6127.6625
1580.88103	5808.2625
1584.2136	5409.8625
1587.54395	5153.2625
1590.87208	5166.4625
1594.19801	5360.7625
1597.52172	5681.3625
1600.84321	5842.3625
1604.16251	5657.6625
1607.47959	5340.6625
1610.79447	5018.6625
1614.10715	4672.1625
1617.41763	4388.9625
1620.7259	4199.1625
1624.03199	4108.8625
1627.33587	4079.4625
1630.63757	4149.8625
1633.93707	4290.7625
1637.23439	4547.6625
1640.52951	4936.1625
1643.82246	5488.1625
1647.11321	6161.4625
1650.40179	6736.2625
1653.68819	6749.5625
1656.97241	5972.4625
1660.25446	5007.6625
1663.53433	4277.6625
1666.81203	3861.3625
1670.08756	3635.5625
1673.36092	3490.6625
1676.63211	3420.7625
1679.90115	3370.7625
1683.16801	3298.1625
1686.43272	3263.2625
1689.69527	3217.0625
1692.95567	3196.3625
1696.2139	3152.2625
1699.46999	3100.2625
1702.72392	3069.8625
1705.97571	3073.7625
1709.22535	3099.7625
1712.47284	3129.1625
1715.71819	3154.0625
1718.96139	3167.2625
1722.20246	3169.5625
1725.44139	3163.7625
1728.67818	3147.7625
1731.91284	3111.7625
1735.14537	3091.1625
1738.37576	3055.4625
1741.60403	3047.3625
1744.83017	3034.5625
1748.05418	3017.8625
1751.27607	3005.5625
1754.49584	2989.9625
1757.71349	2951.3625
1760.92903	2934.8625
1764.14244	2919.0625
1767.35375	2934.9625
1770.56294	2897.6625
1773.77002	2911.7625
1776.97499	2907.2625
1780.17785	2922.3625
1783.37861	2921.7625
1786.57727	2925.2625
1789.77382	2908.6625
1792.96828	2920.7625
1796.16064	2906.1625
1799.3509	2909.4625
1802.53907	2897.3625
1805.72514	2887.2625
1808.90913	2881.2625
1812.09102	2873.6625
1815.27083	2874.3625
1818.44856	2866.8625
1821.6242	2854.4625
1824.79776	2849.4625
1827.96924	2844.2625
1831.13864	2838.1625
1834.30597	2834.4625
1837.47122	2834.9625
1840.6344	2838.6625
1843.7955	2826.4625
1846.95454	2826.5625
1850.11151	2818.6625
1853.26642	2832.0625
1856.41926	2820.9625
1859.57004	2826.2625
1862.71876	2827.3625
1865.86542	2815.6625
1869.01003	2813.2625
1872.15258	2812.0625
1875.29308	2808.0625
1878.43152	2809.0625
1881.56792	2816.2625
1884.70227	2810.4625
1887.83457	2809.2625
1890.96482	2812.7625
1894.09304	2801.1625
1897.21921	2814.8625
1900.34335	2805.4625
1903.46544	2798.7625
1906.58551	2806.5625
1909.70353	2802.4625
1912.81953	2803.2625
1915.93349	2799.1625
1919.04543	2804.8625
1922.15534	2788.5625
1925.26322	2806.5625
1928.36908	2803.2625
1931.47292	2776.3625
1934.57473	2748.2625
1937.67453	2747.3625
1940.77232	2735.3625
1943.86808	2714.7625
1946.96184	2719.0625
1950.05358	2693.9625
1953.14331	2689.3625
1956.23103	2667.3625
1959.31675	2665.8625
1962.40046	2649.1625
1965.48217	2647.7625
1968.56188	2641.6625
1971.63959	2642.4625
1974.7153	2624.6625
1977.78901	2629.7625
1980.86073	2606.4625
1983.93046	2605.8625
1986.99819	2584.2625
1990.06394	2581.9625
1993.1277	2568.7625
1996.18947	2549.7625
1999.24925	2563.9625
2002.30706	2540.2625
2005.36288	2551.1625
2008.41672	2528.7625
2011.46859	2513.7625
2014.51848	2514.8625
2017.56639	2515.2625
2020.61233	2514.5625
2023.6563	2495.7625
2026.6983	2486.9625
2029.73833	2485.5625
2032.7764	2469.3625
2035.8125	2470.0625
2038.84664	2455.5625
2041.87881	2453.7625
2044.90903	2445.1625
2047.93729	2439.9625
2050.96359	2437.6625
2053.98794	2433.3625
2057.01034	2427.3625
2060.03078	2426.0625
2063.04927	2432.5625
2066.06582	2424.3625
2069.08042	2425.6625
2072.09307	2413.7625
2075.10378	2414.5625
2078.11255	2413.2625
2081.11938	2409.9625
2084.12426	2406.0625
2087.12722	2407.1625
2090.12824	2401.7625
2093.12732	2402.2625
2096.12447	2398.0625
2099.11969	2403.9625
2102.11299	2399.2625
2105.10435	2405.2625
2108.09379	2403.2625
2111.08131	2399.4625
2114.0669	2410.0625
2117.05057	2404.4625
2120.03233	2411.1625
2123.01216	2403.9625
2125.99008	2397.3625
2128.96609	2415.9625
2131.94018	2416.3625
2134.91236	2410.1625
2137.88263	2399.9625
2140.851	2402.2625
2143.81746	2405.2625
2146.78201	2409.4625
2149.74466	2404.6625
2152.7054	2411.8625
2155.66425	2396.8625
2158.6212	2407.3625
2161.57625	2393.6625
2164.52941	2399.3625
2167.48067	2386.9625
2170.43004	2392.5625
2173.37752	2395.1625
2176.32311	2385.5625
2179.26681	2394.8625
2182.20863	2393.1625
2185.14856	2382.9625
2188.08661	2397.2625
2191.02278	2382.3625
2193.95707	2377.4625
2196.88948	2374.9625
2199.82001	2361.2625
2202.74867	2364.0625
2205.67545	2361.4625
2208.60037	2365.7625
2211.52341	2346.5625
2214.44458	2355.3625
2217.36388	2351.9625
2220.28132	2350.8625
2223.1969	2318.6625
2226.11061	2321.8625
2229.02246	2325.8625
2231.93245	2322.5625
2234.84058	2306.8625
2237.74686	2296.6625
2240.65128	2311.2625
2243.55385	2311.3625
2246.45456	2303.3625
2249.35343	2293.7625
2252.25044	2282.0625
2255.14561	2289.7625
2258.03893	2291.8625
2260.93041	2285.1625
2263.82004	2289.2625
2266.70783	2279.8625
2269.59378	2270.6625
2272.4779	2255.8625
2275.36017	2261.4625
2278.24061	2250.3625
2281.11922	2252.9625
2283.996	2248.4625
2286.87094	2242.6625
2289.74405	2230.3625
2292.61534	2236.3625
2295.4848	2223.4625
2298.35243	2223.1625
2301.21824	2218.5625
2304.08223	2217.4625
2306.94439	2218.4625
2309.80474	2213.0625
2312.66327	2204.6625
2315.51999	2205.5625
2318.37489	2207.5625
2321.22797	2205.0625
2324.07925	2201.4625
2326.92871	2197.9625
2329.77637	2194.5625
2332.62222	2195.5625
2335.46626	2174.1625
2338.3085	2177.6625
2341.14893	2190.4625
2343.98756	2181.8625
2346.8244	2173.9625
2349.65943	2185.2625
2352.49267	2169.9625
2355.32411	2183.3625
2358.15376	2185.6625
2360.98161	2188.9625
2363.80768	2189.8625
2366.63195	2200.1625
2369.45444	2201.2625
2372.27514	2193.3625
2375.09405	2184.5625
2377.91118	2181.2625
2380.72652	2169.5625
2383.54009	2168.3625
2386.35187	2151.9625
2389.16188	2136.8625
2391.97011	2136.7625
2394.77657	2115.9625
2397.58125	2109.3625
2400.38416	2108.7625
2403.18529	2106.2625
2405.98466	2111.1625
2408.78226	2099.1625
2411.57809	2088.1625
2414.37216	2095.4625
2417.16446	2092.3625
2419.955	2090.2625
2422.74378	2086.3625
2425.5308	2079.9625
2428.31606	2083.2625
2431.09956	2083.0625
2433.88131	2076.2625
2436.6613	2086.3625
2439.43954	2083.0625
2442.21603	2080.9625
2444.99077	2078.1625
2447.76377	2072.1625
2450.53501	2081.6625
2453.30451	2072.9625
2456.07226	2081.7625
2458.83827	2063.6625
2461.60254	2077.4625
2464.36507	2074.3625
2467.12586	2067.2625
2469.88492	2058.2625
2472.64224	2072.0625
2475.39782	2065.0625
2478.15167	2053.1625
2480.90379	2066.5625
2483.65417	2073.4625
2486.40283	2066.6625
2489.14976	2064.6625
2491.89497	2078.3625
2494.63845	2069.7625
2497.3802	2070.8625
2500.12024	2078.0625
2502.85855	2059.3625
2505.59514	2054.7625
2508.33002	2055.9625
2511.06318	2039.6625
2513.79462	2031.5625
2516.52435	2041.0625
2519.25237	2017.9625
2521.97867	2027.8625
2524.70327	2012.9625
2527.42616	2009.7625
2530.14734	2006.9625
2532.86681	2005.3625
2535.58458	1991.1625
2538.30065	2000.1625
2541.01501	2004.1625
2543.72768	1996.5625
2546.43864	1994.7625
2549.14791	1991.7625
2551.85548	1988.3625
2554.56136	1979.2625
2557.26554	1975.8625
2559.96803	1983.2625
2562.66883	1979.7625
2565.36794	1984.7625
2568.06536	1971.4625
2570.7611	1966.9625
2573.45514	1969.0625
2576.14751	1950.7625
2578.83819	1964.9625
2581.52719	1957.4625
2584.21451	1956.7625
2586.90015	1943.3625
2589.58411	1935.6625
2592.2664	1946.2625
2594.94701	1935.2625
2597.62594	1944.8625
2600.30321	1925.5625
2602.9788	1927.3625
2605.65273	1923.8625
2608.32498	1933.1625
2610.99557	1921.1625
2613.66449	1924.7625
2616.33175	1918.1625
2618.99734	1914.8625
2621.66128	1915.4625
2624.32355	1912.4625
2626.98416	1921.1625
2629.64311	1910.5625
2632.30041	1910.7625
2634.95605	1892.6625
2637.61004	1892.1625
2640.26238	1899.7625
2642.91306	1896.6625
2645.56209	1884.4625
2648.20948	1879.6625
2650.85521	1882.2625
2653.4993	1887.7625
2656.14175	1879.8625
2658.78255	1894.8625
2661.42171	1903.1625
2664.05923	1890.1625
2666.6951	1892.0625
2669.32934	1895.6625
2671.96194	1894.9625
2674.59291	1902.8625
2677.22224	1894.8625
2679.84993	1901.8625
2682.476	1902.1625
2685.10043	1897.9625
2687.72324	1895.6625
2690.34441	1887.1625
2692.96396	1896.2625
2695.58188	1896.3625
2698.19818	1899.3625
2700.81285	1891.6625
2703.4259	1894.0625
2706.03733	1878.7625
2708.64714	1867.3625
2711.25533	1897.3625
2713.86191	1895.2625
2716.46687	1899.4625
2719.07021	1894.1625
2721.67194	1900.5625
2724.27206	1903.3625
2726.87057	1913.7625
2729.46747	1909.3625
2732.06276	1910.0625
2734.65644	1906.3625
2737.24852	1892.8625
2739.83899	1890.1625
2742.42786	1891.7625
2745.01513	1880.9625
2747.60079	1879.1625
2750.18486	1890.6625
2752.76733	1876.1625
2755.3482	1875.9625
2757.92747	1866.6625
2760.50515	1877.0625
2763.08123	1861.6625
2765.65573	1851.2625
2768.22863	1867.0625
2770.79994	1852.0625
2773.36967	1845.1625
2775.9378	1859.8625
2778.50435	1854.2625
2781.06932	1851.0625
2783.6327	1851.0625
2786.1945	1852.7625
2788.75471	1851.5625
2791.31335	1844.9625
2793.87041	1840.9625
2796.42589	1848.6625
2798.97979	1843.2625
2801.53212	1846.9625
2804.08288	1840.2625
2806.63206	1833.4625
2809.17967	1841.2625
2811.72571	1842.3625
2814.27018	1836.3625
2816.81308	1838.1625
2819.35442	1831.7625
2821.89419	1848.1625
2824.43239	1844.1625
2826.96904	1846.8625
2829.50412	1848.5625
2832.03763	1854.7625
2834.56959	1853.7625
2837.1	1862.2625
2839.62884	1872.9625
2842.15613	1887.8625
2844.68186	1928.3625
2847.20604	1948.5625
2849.72867	1981.9625
2852.24974	1994.8625
2854.76927	1988.2625
2857.28724	1979.7625
2859.80367	1967.5625
2862.31855	1962.7625
2864.83189	1967.8625
2867.34368	1943.3625
2869.85393	1952.7625
2872.36264	1955.3625
2874.8698	1959.1625
2877.37543	1951.8625
2879.87952	1937.2625
2882.38207	1940.0625
2884.88308	1948.2625
2887.38256	1935.9625
2889.88051	1937.1625
2892.37692	1948.4625
2894.8718	1944.8625
2897.36515	1939.4625
2899.85698	1933.5625
2902.34727	1952.0625
2904.83604	1953.7625
2907.32328	1953.2625
2909.809	1948.8625
2912.29319	1956.3625
2914.77587	1943.2625
2917.25702	1955.0625
2919.73665	1928.0625
2922.21476	1943.7625
2924.69136	1939.5625
2927.16644	1934.0625
2929.64	1941.7625
2932.11205	1931.9625
2934.58258	1934.1625
2937.05161	1916.7625
2939.51912	1911.5625
2941.98513	1884.4625
2944.44962	1870.8625
2946.91261	1866.6625
2949.37409	1845.8625
2951.83407	1835.4625
2954.29254	1820.7625
2956.74951	1816.4625
2959.20498	1814.2625
2961.65895	1817.3625
2964.11142	1803.0625
2966.56239	1794.0625
2969.01186	1799.9625
2971.45984	1796.6625
2973.90632	1792.6625
2976.35131	1781.6625
2978.7948	1770.0625
2981.23681	1769.8625
2983.67732	1760.1625
2986.11635	1758.4625
2988.55388	1757.2625
2990.98993	1752.2625
2993.4245	1747.2625
2995.85758	1736.4625
2998.28917	1735.7625
3000.71928	1730.8625
3003.14791	1735.9625
3005.57506	1732.8625
3008.00073	1728.8625
3010.42493	1720.4625
3012.84764	1727.0625
3015.26888	1718.0625
3017.68865	1721.7625
3020.10694	1716.6625
3022.52376	1718.6625
3024.9391	1717.0625
3027.35298	1712.2625
3029.76539	1704.7625
3032.17632	1709.5625
3034.5858	1710.2625
3036.9938	1713.7625
3039.40034	1708.3625
3041.80542	1721.5625
3044.20903	1704.3625
3046.61118	1706.2625
3049.01187	1720.2625
3051.4111	1704.8625
3053.80888	1705.0625
3056.20519	1705.0625
3058.60005	1696.6625
3060.99345	1713.7625
3063.3854	1705.8625
3065.7759	1696.6625
3068.16494	1701.6625
3070.55254	1700.7625
3072.93868	1698.9625
3075.32338	1688.3625
3077.70662	1688.3625
3080.08842	1690.2625
3082.46878	1685.7625
3084.84769	1694.8625
3087.22515	1685.6625
3089.60118	1683.5625
3091.97576	1690.3625
3094.3489	1697.4625
3096.72061	1694.8625
3099.09087	1688.9625
3101.4597	1687.9625
3103.82709	1695.0625
3106.19305	1688.2625
3108.55757	1705.9625
3110.92066	1703.2625
3113.28232	1700.4625
3115.64255	1694.4625
3118.00134	1686.0625
3120.35871	1693.4625
3122.71466	1698.4625
3125.06917	1698.9625
3127.42226	1704.1625
3129.77393	1706.7625
3132.12417	1713.7625
3134.47299	1700.9625
3136.82039	1717.1625
3139.16636	1726.1625
3141.51092	1733.8625
3143.85406	1734.2625
3146.19579	1728.4625
3148.53609	1739.4625
3150.87499	1749.9625
3153.21246	1758.3625
3155.54853	1762.9625
3157.88318	1764.7625
3160.21642	1767.0625
3162.54826	1784.9625
3164.87868	1783.1625
3167.2077	1779.2625
3169.5353	1780.5625
3171.86151	1791.2625
3174.18631	1788.0625
3176.5097	1795.9625
3178.83169	1788.1625
3181.15228	1796.3625
3183.47147	1812.1625
3185.78926	1800.4625
3188.10565	1803.5625
3190.42065	1812.7625
3192.73424	1813.0625
3195.04645	1808.4625
3197.35725	1825.4625
3199.66667	1818.4625
3201.97469	1825.7625
3204.28132	1819.0625
3206.58656	1829.3625
3208.8904	1842.1625
3211.19287	1835.9625
3213.49394	1843.2625
3215.79363	1845.6625
3218.09193	1852.2625
3220.38884	1855.1625
3222.68438	1849.3625
3224.97853	1842.2625
3227.2713	1845.6625
3229.56269	1857.2625
3231.8527	1856.1625
3234.14133	1862.2625
3236.42858	1862.1625
3238.71446	1849.1625
3240.99896	1841.7625
3243.28209	1844.3625
3245.56384	1857.4625
3247.84423	1850.0625
3250.12324	1851.8625
3252.40088	1848.1625
3254.67715	1843.7625
3256.95205	1845.0625
3259.22558	1847.0625
3261.49775	1847.3625
3263.76855	1840.8625
3266.03799	1829.7625
3268.30606	1835.1625
3270.57277	1835.9625
3272.83812	1834.2625
3275.10211	1819.0625
3277.36474	1819.3625
3279.62601	1831.6625
3281.88593	1820.0625
3284.14448	1823.5625
3286.40168	1825.5625
3288.65753	1830.3625
3290.91202	1817.9625
3293.16516	1817.5625
3295.41695	1816.5625
3297.66738	1791.5625
3299.91647	1794.7625
3302.16421	1778.7625
3304.4106	1777.2625
3306.65564	1774.6625
3308.89933	1762.7625
3311.14169	1742.1625
3313.38269	1733.3625
3315.62236	1716.1625
3317.86068	1709.8625
3320.09766	1703.5625
3322.3333	1689.4625
3324.5676	1680.1625
3326.80056	1648.9625
3329.03219	1636.5625
3331.26248	0.1625
3333.49143	-1.0375
3335.71905	0.1625
