Data from AgNPs_FTO_APTES_UA_1uM_CRN_1uM_R6G_10uM_NaF_0.1M_Addition_RamanShift__8__12-21-29-488.txt Node

Date: Thu Jan 27 12:21:29 GMT 2022
User: TCL
Spectrometer: QEP01345
Trigger mode: 4
Integration Time (sec): 7.000000E0
Scans to average: 10
Electric dark correction enabled: true
Nonlinearity correction enabled: false
Boxcar width: 0
XAxis mode: Raman Shifts
Number of Pixels in Spectrum: 1044
>>>>>Begin Spectral Data<<<<<
46.04893	0.0625
50.45542	1.2625
54.85868	-1.4375
59.25871	-1.4375
63.6555	57.0625
68.04907	62.1625
72.43941	64.8625
76.82654	67.1625
81.21044	68.8625
85.59113	70.2625
89.96862	71.8625
94.34289	75.6625
98.71396	75.0625
103.08183	76.3625
107.4465	82.8625
111.80798	86.4625
116.16626	85.6625
120.52136	93.9625
124.87327	92.9625
129.222	94.1625
133.56755	98.9625
137.90993	106.3625
142.24913	117.3625
146.58517	132.1625
150.91804	148.9625
155.24774	175.7625
159.57429	210.5625
163.89768	271.7625
168.21792	352.7625
172.53501	480.2625
176.84895	667.9625
181.15975	926.5625
185.46741	1299.2625
189.77193	1784.5625
194.07331	2393.3625
198.37157	3076.5625
202.6667	3815.9625
206.9587	4546.8625
211.24758	5261.1625
215.53334	5971.9625
219.81599	6752.0625
224.09553	7563.5625
228.37195	8491.1625
232.64527	9520.9625
236.91549	10605.3625
241.18261	11676.4625
245.44663	12686.5625
249.70755	13610.8625
253.96539	14412.2625
258.22014	15032.0625
262.4718	15609.1625
266.72039	15951.4625
270.96589	16126.8625
275.20832	16101.9625
279.44768	15943.8625
283.68397	15738.1625
287.91719	15531.2625
292.14735	15424.0625
296.37445	15325.7625
300.59849	15371.2625
304.81948	15455.7625
309.03742	15499.8625
313.25231	15500.7625
317.46415	15279.7625
321.67296	15026.1625
325.87872	14794.5625
330.08145	14671.0625
334.28114	14642.1625
338.47781	14747.3625
342.67145	14904.7625
346.86207	15155.9625
351.04966	15466.6625
355.23424	15806.3625
359.4158	16082.4625
363.59435	16295.6625
367.76989	16452.7625
371.94243	16533.8625
376.11196	16570.7625
380.27849	16632.7625
384.44203	16669.0625
388.60257	16774.4625
392.76012	16916.0625
396.91468	17117.2625
401.06626	17372.2625
405.21485	17511.5625
409.36047	17449.1625
413.50311	17222.4625
417.64277	17129.9625
421.77947	17168.9625
425.9132	17258.9625
430.04396	17314.1625
434.17176	17416.3625
438.2966	17444.8625
442.41849	17618.4625
446.53742	17960.5625
450.6534	18368.1625
454.76644	18588.7625
458.87653	18652.4625
462.98368	18546.9625
467.08789	18351.7625
471.18916	18115.9625
475.2875	17811.8625
479.38291	17602.3625
483.4754	17453.6625
487.56496	17377.8625
491.6516	17255.5625
495.73531	17215.0625
499.81612	17217.5625
503.89401	17320.6625
507.96899	17472.8625
512.04106	17469.5625
516.11023	17446.1625
520.1765	17346.5625
524.23987	17200.4625
528.30034	17111.6625
532.35792	16973.6625
536.41261	16795.3625
540.46441	16625.9625
544.51333	16559.3625
548.55936	16686.6625
552.60252	16891.6625
556.64279	17217.7625
560.6802	17442.4625
564.71473	17488.3625
568.7464	17598.1625
572.7752	17888.0625
576.80114	18201.3625
580.82422	18687.8625
584.84444	19391.1625
588.86181	20379.0625
592.87633	21240.2625
596.888	21242.0625
600.89682	20379.3625
604.9028	20012.2625
608.90594	21223.6625
612.90624	22848.2625
616.90371	21945.3625
620.89834	18907.1625
624.89015	17355.8625
628.87913	17143.4625
632.86528	17276.7625
636.84862	17300.7625
640.82913	17087.4625
644.80683	16755.6625
648.78172	16536.0625
652.75379	16564.8625
656.72306	16755.0625
660.68952	17007.6625
664.65319	16950.5625
668.61405	16665.0625
672.57211	16612.1625
676.52738	16700.4625
680.47986	16663.0625
684.42955	16569.5625
688.37646	16431.1625
692.32058	16542.1625
696.26192	16739.3625
700.20048	16994.1625
704.13626	17104.7625
708.06928	17062.5625
711.99952	16989.4625
715.927	16950.6625
719.85171	17026.0625
723.77365	17007.0625
727.69284	16811.2625
731.60928	16572.5625
735.52295	16445.3625
739.43388	16473.5625
743.34206	16536.9625
747.24749	16614.2625
751.15017	16770.6625
755.05012	16970.2625
758.94733	17297.1625
762.8418	17968.9625
766.73354	19038.2625
770.62254	20077.1625
774.50882	20439.5625
778.39237	19823.5625
782.27321	18787.1625
786.15132	17836.6625
790.02671	17216.4625
793.89938	16873.6625
797.76935	16728.7625
801.6366	16634.9625
805.50115	16630.3625
809.36299	16543.1625
813.22213	16418.6625
817.07857	16310.1625
820.93231	16247.2625
824.78336	16190.4625
828.63172	16197.0625
832.47738	16170.5625
836.32036	16192.4625
840.16066	16209.1625
843.99827	16233.4625
847.8332	16178.8625
851.66546	16174.7625
855.49504	16173.6625
859.32195	16185.2625
863.1462	16177.8625
866.96777	16150.9625
870.78668	16117.8625
874.60293	16175.5625
878.41652	16158.7625
882.22745	16254.5625
886.03573	16310.7625
889.84136	16334.6625
893.64433	16272.9625
897.44466	16252.1625
901.24235	16194.9625
905.0374	16145.1625
908.8298	16085.5625
912.61957	16095.7625
916.40671	16139.4625
920.19121	16289.9625
923.97308	16465.2625
927.75233	16538.1625
931.52895	16529.5625
935.30295	16355.5625
939.07433	16109.6625
942.84309	15938.5625
946.60924	15825.2625
950.37278	15804.0625
954.13371	15798.6625
957.89203	15775.5625
961.64774	15714.6625
965.40086	15733.4625
969.15137	15720.4625
972.89929	15688.1625
976.64461	15664.9625
980.38733	15679.5625
984.12747	15740.7625
987.86502	15756.4625
991.59999	15871.8625
995.33237	15975.8625
999.06217	16251.3625
1002.78939	16588.4625
1006.51404	16879.7625
1010.23611	17149.5625
1013.95561	17324.9625
1017.67255	17342.6625
1021.38692	17181.5625
1025.09872	16937.7625
1028.80796	16830.4625
1032.51465	16859.0625
1036.21877	16988.6625
1039.92035	17044.7625
1043.61937	17037.9625
1047.31584	16964.0625
1051.00976	16832.9625
1054.70114	16788.4625
1058.38998	16812.5625
1062.07627	16901.2625
1065.76003	17025.4625
1069.44126	17229.5625
1073.11995	17488.0625
1076.79611	17773.9625
1080.46974	17981.3625
1084.14085	18063.2625
1087.80943	18170.3625
1091.47549	18307.5625
1095.13903	18326.0625
1098.80005	18123.9625
1102.45857	17767.0625
1106.11456	17446.6625
1109.76805	17272.0625
1113.41903	17232.0625
1117.06751	17292.7625
1120.71348	17395.8625
1124.35696	17552.3625
1127.99793	17704.6625
1131.63641	17859.2625
1135.2724	17758.2625
1138.90589	17647.5625
1142.5369	17576.5625
1146.16542	17648.0625
1149.79145	17707.6625
1153.415	17709.6625
1157.03607	17813.4625
1160.65467	18128.9625
1164.27079	18717.8625
1167.88443	19521.9625
1171.49561	20403.8625
1175.10432	21442.3625
1178.71056	22826.2625
1182.31434	24223.0625
1185.91565	24984.9625
1189.51451	24944.0625
1193.11091	24439.4625
1196.70485	23696.5625
1200.29634	22943.4625
1203.88538	22316.3625
1207.47197	21907.6625
1211.05612	21561.4625
1214.63782	21169.5625
1218.21708	20714.3625
1221.79391	20302.1625
1225.36829	20019.7625
1228.94024	19895.7625
1232.50976	19738.7625
1236.07685	19553.8625
1239.6415	19372.2625
1243.20374	19327.2625
1246.76355	19437.4625
1250.32093	19708.0625
1253.8759	20069.8625
1257.42845	20521.3625
1260.97859	21062.6625
1264.52631	21674.2625
1268.07163	22211.3625
1271.61453	22747.5625
1275.15503	23227.0625
1278.69312	23708.6625
1282.22882	24178.5625
1285.76211	24765.6625
1289.29301	25461.5625
1292.82151	26307.5625
1296.34761	27355.6625
1299.87133	28628.3625
1303.39266	29987.6625
1306.9116	31384.8625
1310.42815	32538.6625
1313.94233	33075.2625
1317.45412	32803.7625
1320.96354	31994.6625
1324.47058	31230.3625
1327.97525	30720.8625
1331.47754	30291.7625
1334.97747	30034.7625
1338.47502	29729.9625
1341.97022	29434.3625
1345.46305	29167.7625
1348.95352	29239.6625
1352.44163	29588.8625
1355.92738	30548.0625
1359.41078	32092.3625
1362.89183	33458.1625
1366.37053	33428.0625
1369.84688	31119.2625
1373.32088	27785.1625
1376.79254	25226.8625
1380.26186	24140.0625
1383.72883	23920.9625
1387.19347	23739.3625
1390.65578	23353.3625
1394.11575	23077.8625
1397.57339	23076.9625
1401.0287	23345.7625
1404.48168	23588.0625
1407.93234	23622.6625
1411.38068	23392.8625
1414.82669	22949.1625
1418.27039	22405.8625
1421.71177	21862.0625
1425.15083	21363.7625
1428.58758	21187.5625
1432.02203	21386.6625
1435.45416	21868.0625
1438.88399	22418.0625
1442.31151	22648.5625
1445.73673	22712.9625
1449.15965	22692.5625
1452.58027	22565.6625
1455.9986	22451.0625
1459.41463	22490.7625
1462.82837	22793.3625
1466.23982	23252.6625
1469.64898	23633.8625
1473.05586	23942.4625
1476.46045	24084.4625
1479.86276	24037.0625
1483.26279	23925.9625
1486.66054	23894.6625
1490.05602	24051.4625
1493.44922	24337.6625
1496.84016	24741.4625
1500.22882	25274.1625
1503.61521	26068.9625
1506.99934	26921.4625
1510.38121	27630.1625
1513.76081	27768.9625
1517.13816	27177.7625
1520.51324	26235.0625
1523.88607	25342.4625
1527.25665	24851.1625
1530.62498	24589.9625
1533.99105	24327.7625
1537.35488	23952.8625
1540.71647	23495.9625
1544.07581	23008.9625
1547.4329	22550.2625
1550.78776	22181.4625
1554.14038	21891.1625
1557.49077	21784.4625
1560.83892	21683.5625
1564.18484	21675.0625
1567.52853	21779.4625
1570.86999	21923.4625
1574.20922	22224.9625
1577.54624	22423.7625
1580.88103	22436.7625
1584.2136	22447.2625
1587.54395	22888.9625
1590.87208	23885.3625
1594.19801	25257.7625
1597.52172	26617.1625
1600.84321	27028.3625
1604.16251	26099.7625
1607.47959	24197.0625
1610.79447	22298.4625
1614.10715	20542.9625
1617.41763	19233.5625
1620.7259	18366.7625
1624.03199	17942.6625
1627.33587	17902.0625
1630.63757	18376.3625
1633.93707	19292.8625
1637.23439	20915.8625
1640.52951	23319.6625
1643.82246	26268.8625
1647.11321	28718.4625
1650.40179	29173.8625
1653.68819	27203.4625
1656.97241	23730.6625
1660.25446	20530.6625
1663.53433	18217.0625
1666.81203	16854.8625
1670.08756	16088.0625
1673.36092	15584.0625
1676.63211	15259.8625
1679.90115	15024.9625
1683.16801	14839.3625
1686.43272	14703.3625
1689.69527	14601.5625
1692.95567	14497.7625
1696.2139	14423.7625
1699.46999	14307.9625
1702.72392	14301.6625
1705.97571	14264.6625
1709.22535	14308.1625
1712.47284	14338.5625
1715.71819	14352.0625
1718.96139	14326.7625
1722.20246	14282.0625
1725.44139	14219.7625
1728.67818	14171.5625
1731.91284	14055.3625
1735.14537	14002.4625
1738.37576	13968.2625
1741.60403	13907.7625
1744.83017	13889.8625
1748.05418	13806.8625
1751.27607	13772.1625
1754.49584	13747.9625
1757.71349	13727.2625
1760.92903	13723.1625
1764.14244	13686.4625
1767.35375	13665.9625
1770.56294	13649.0625
1773.77002	13631.3625
1776.97499	13647.2625
1780.17785	13626.5625
1783.37861	13632.3625
1786.57727	13639.3625
1789.77382	13631.1625
1792.96828	13572.1625
1796.16064	13593.9625
1799.3509	13533.7625
1802.53907	13497.5625
1805.72514	13482.4625
1808.90913	13494.3625
1812.09102	13465.1625
1815.27083	13419.4625
1818.44856	13409.8625
1821.6242	13398.3625
1824.79776	13402.3625
1827.96924	13355.6625
1831.13864	13372.5625
1834.30597	13392.0625
1837.47122	13360.4625
1840.6344	13396.2625
1843.7955	13415.5625
1846.95454	13398.0625
1850.11151	13384.5625
1853.26642	13376.1625
1856.41926	13384.1625
1859.57004	13366.6625
1862.71876	13341.1625
1865.86542	13323.2625
1869.01003	13320.7625
1872.15258	13266.9625
1875.29308	13283.5625
1878.43152	13247.0625
1881.56792	13238.8625
1884.70227	13204.8625
1887.83457	13205.3625
1890.96482	13175.1625
1894.09304	13161.8625
1897.21921	13133.9625
1900.34335	13106.8625
1903.46544	13117.6625
1906.58551	13117.8625
1909.70353	13076.7625
1912.81953	13062.5625
1915.93349	13025.0625
1919.04543	13016.6625
1922.15534	12960.1625
1925.26322	12951.8625
1928.36908	12928.3625
1931.47292	12863.3625
1934.57473	12833.4625
1937.67453	12832.3625
1940.77232	12777.7625
1943.86808	12753.9625
1946.96184	12726.5625
1950.05358	12703.2625
1953.14331	12664.7625
1956.23103	12627.9625
1959.31675	12604.7625
1962.40046	12580.7625
1965.48217	12534.2625
1968.56188	12471.4625
1971.63959	12457.3625
1974.7153	12430.1625
1977.78901	12416.5625
1980.86073	12367.7625
1983.93046	12340.1625
1986.99819	12273.3625
1990.06394	12234.2625
1993.1277	12201.1625
1996.18947	12182.1625
1999.24925	12159.5625
2002.30706	12100.5625
2005.36288	12059.4625
2008.41672	12044.8625
2011.46859	11985.1625
2014.51848	11963.9625
2017.56639	11924.3625
2020.61233	11903.8625
2023.6563	11896.5625
2026.6983	11878.9625
2029.73833	11803.3625
2032.7764	11809.7625
2035.8125	11818.3625
2038.84664	11763.0625
2041.87881	11767.8625
2044.90903	11710.2625
2047.93729	11697.4625
2050.96359	11696.8625
2053.98794	11655.7625
2057.01034	11638.7625
2060.03078	11652.6625
2063.04927	11663.0625
2066.06582	11670.1625
2069.08042	11654.0625
2072.09307	11622.2625
2075.10378	11636.2625
2078.11255	11629.5625
2081.11938	11649.7625
2084.12426	11630.4625
2087.12722	11637.0625
2090.12824	11629.1625
2093.12732	11613.1625
2096.12447	11623.0625
2099.11969	11604.1625
2102.11299	11652.9625
2105.10435	11659.8625
2108.09379	11645.1625
2111.08131	11635.8625
2114.0669	11631.9625
2117.05057	11637.2625
2120.03233	11659.0625
2123.01216	11646.1625
2125.99008	11682.8625
2128.96609	11674.7625
2131.94018	11696.1625
2134.91236	11700.1625
2137.88263	11695.3625
2140.851	11686.0625
2143.81746	11755.3625
2146.78201	11716.1625
2149.74466	11723.6625
2152.7054	11718.6625
2155.66425	11714.1625
2158.6212	11699.6625
2161.57625	11721.1625
2164.52941	11717.3625
2167.48067	11674.7625
2170.43004	11707.8625
2173.37752	11693.7625
2176.32311	11700.8625
2179.26681	11685.2625
2182.20863	11685.4625
2185.14856	11695.4625
2188.08661	11697.7625
2191.02278	11673.4625
2193.95707	11689.3625
2196.88948	11665.5625
2199.82001	11676.6625
2202.74867	11656.8625
2205.67545	11664.2625
2208.60037	11644.0625
2211.52341	11623.3625
2214.44458	11604.6625
2217.36388	11585.4625
2220.28132	11538.8625
2223.1969	11522.6625
2226.11061	11527.3625
2229.02246	11501.5625
2231.93245	11503.9625
2234.84058	11490.3625
2237.74686	11472.3625
2240.65128	11464.0625
2243.55385	11430.7625
2246.45456	11434.0625
2249.35343	11397.0625
2252.25044	11415.9625
2255.14561	11371.7625
2258.03893	11370.0625
2260.93041	11316.5625
2263.82004	11314.3625
2266.70783	11265.1625
2269.59378	11245.9625
2272.4779	11255.4625
2275.36017	11219.6625
2278.24061	11199.4625
2281.11922	11212.9625
2283.996	11158.3625
2286.87094	11170.0625
2289.74405	11144.2625
2292.61534	11129.4625
2295.4848	11119.2625
2298.35243	11114.7625
2301.21824	11105.3625
2304.08223	11124.0625
2306.94439	11092.0625
2309.80474	11082.2625
2312.66327	11074.3625
2315.51999	11066.4625
2318.37489	11079.5625
2321.22797	11071.1625
2324.07925	11032.9625
2326.92871	11021.6625
2329.77637	11003.3625
2332.62222	11007.3625
2335.46626	10982.5625
2338.3085	10970.8625
2341.14893	10978.9625
2343.98756	10980.9625
2346.8244	10958.9625
2349.65943	10970.6625
2352.49267	10937.2625
2355.32411	10922.4625
2358.15376	10921.1625
2360.98161	10937.2625
2363.80768	10928.7625
2366.63195	10923.2625
2369.45444	10923.4625
2372.27514	10919.5625
2375.09405	10897.0625
2377.91118	10897.3625
2380.72652	10845.3625
2383.54009	10842.1625
2386.35187	10825.8625
2389.16188	10774.4625
2391.97011	10762.2625
2394.77657	10718.4625
2397.58125	10736.0625
2400.38416	10732.2625
2403.18529	10692.6625
2405.98466	10666.9625
2408.78226	10659.2625
2411.57809	10662.7625
2414.37216	10628.5625
2417.16446	10622.1625
2419.955	10632.4625
2422.74378	10616.4625
2425.5308	10618.2625
2428.31606	10616.5625
2431.09956	10597.5625
2433.88131	10563.5625
2436.6613	10576.0625
2439.43954	10588.3625
2442.21603	10596.3625
2444.99077	10573.4625
2447.76377	10573.0625
2450.53501	10583.5625
2453.30451	10560.8625
2456.07226	10538.5625
2458.83827	10539.5625
2461.60254	10528.5625
2464.36507	10526.3625
2467.12586	10542.2625
2469.88492	10532.5625
2472.64224	10521.0625
2475.39782	10539.0625
2478.15167	10503.1625
2480.90379	10522.8625
2483.65417	10512.1625
2486.40283	10482.6625
2489.14976	10485.3625
2491.89497	10510.6625
2494.63845	10518.9625
2497.3802	10505.6625
2500.12024	10464.9625
2502.85855	10470.9625
2505.59514	10459.4625
2508.33002	10459.1625
2511.06318	10472.7625
2513.79462	10455.0625
2516.52435	10418.7625
2519.25237	10433.6625
2521.97867	10414.2625
2524.70327	10421.8625
2527.42616	10377.0625
2530.14734	10375.7625
2532.86681	10361.9625
2535.58458	10376.2625
2538.30065	10359.9625
2541.01501	10357.4625
2543.72768	10340.0625
2546.43864	10326.9625
2549.14791	10304.9625
2551.85548	10299.3625
2554.56136	10256.0625
2557.26554	10281.8625
2559.96803	10274.1625
2562.66883	10237.3625
2565.36794	10238.0625
2568.06536	10262.7625
2570.7611	10240.4625
2573.45514	10212.4625
2576.14751	10212.6625
2578.83819	10179.1625
2581.52719	10185.9625
2584.21451	10169.7625
2586.90015	10154.1625
2589.58411	10134.7625
2592.2664	10123.4625
2594.94701	10111.4625
2597.62594	10130.1625
2600.30321	10075.5625
2602.9788	10054.7625
2605.65273	10071.2625
2608.32498	10058.4625
2610.99557	10039.0625
2613.66449	10060.6625
2616.33175	10039.5625
2618.99734	10028.4625
2621.66128	10023.2625
2624.32355	9996.3625
2626.98416	9964.8625
2629.64311	9986.9625
2632.30041	9995.6625
2634.95605	9960.7625
2637.61004	9947.1625
2640.26238	9917.0625
2642.91306	9924.8625
2645.56209	9916.0625
2648.20948	9934.3625
2650.85521	9939.4625
2653.4993	9930.7625
2656.14175	9937.0625
2658.78255	9970.2625
2661.42171	9942.0625
2664.05923	9943.6625
2666.6951	9965.1625
2669.32934	9978.0625
2671.96194	9962.0625
2674.59291	9952.1625
2677.22224	9950.9625
2679.84993	9963.3625
2682.476	9931.7625
2685.10043	9941.8625
2687.72324	9929.8625
2690.34441	9921.3625
2692.96396	9925.8625
2695.58188	9948.8625
2698.19818	9928.1625
2700.81285	9941.0625
2703.4259	9950.5625
2706.03733	9919.1625
2708.64714	9905.8625
2711.25533	9932.2625
2713.86191	9934.4625
2716.46687	9962.7625
2719.07021	9946.8625
2721.67194	9971.0625
2724.27206	9948.7625
2726.87057	9987.5625
2729.46747	9970.7625
2732.06276	9957.6625
2734.65644	9952.7625
2737.24852	9955.9625
2739.83899	9932.6625
2742.42786	9958.0625
2745.01513	9925.0625
2747.60079	9922.6625
2750.18486	9915.0625
2752.76733	9913.7625
2755.3482	9892.0625
2757.92747	9939.9625
2760.50515	9888.3625
2763.08123	9887.0625
2765.65573	9884.0625
2768.22863	9869.0625
2770.79994	9850.3625
2773.36967	9853.5625
2775.9378	9880.3625
2778.50435	9877.6625
2781.06932	9828.3625
2783.6327	9827.7625
2786.1945	9809.5625
2788.75471	9806.2625
2791.31335	9790.8625
2793.87041	9768.0625
2796.42589	9778.3625
2798.97979	9760.9625
2801.53212	9733.5625
2804.08288	9725.7625
2806.63206	9721.0625
2809.17967	9668.4625
2811.72571	9648.5625
2814.27018	9635.2625
2816.81308	9626.2625
2819.35442	9610.1625
2821.89419	9576.3625
2824.43239	9565.2625
2826.96904	9582.9625
2829.50412	9579.1625
2832.03763	9582.1625
2834.56959	9578.9625
2837.1	9571.8625
2839.62884	9550.2625
2842.15613	9556.2625
2844.68186	9575.5625
2847.20604	9579.7625
2849.72867	9574.5625
2852.24974	9576.0625
2854.76927	9550.1625
2857.28724	9523.1625
2859.80367	9536.0625
2862.31855	9519.1625
2864.83189	9508.1625
2867.34368	9492.0625
2869.85393	9510.1625
2872.36264	9486.3625
2874.8698	9488.9625
2877.37543	9492.1625
2879.87952	9478.3625
2882.38207	9491.2625
2884.88308	9493.4625
2887.38256	9502.4625
2889.88051	9475.5625
2892.37692	9493.3625
2894.8718	9492.8625
2897.36515	9528.5625
2899.85698	9512.4625
2902.34727	9532.6625
2904.83604	9526.0625
2907.32328	9551.5625
2909.809	9536.6625
2912.29319	9532.1625
2914.77587	9535.7625
2917.25702	9509.1625
2919.73665	9502.8625
2922.21476	9537.0625
2924.69136	9492.8625
2927.16644	9518.2625
2929.64	9510.5625
2932.11205	9494.7625
2934.58258	9468.3625
2937.05161	9487.1625
2939.51912	9457.4625
2941.98513	9464.4625
2944.44962	9414.0625
2946.91261	9424.0625
2949.37409	9416.2625
2951.83407	9389.8625
2954.29254	9378.4625
2956.74951	9367.6625
2959.20498	9393.5625
2961.65895	9361.4625
2964.11142	9358.5625
2966.56239	9328.0625
2969.01186	9327.6625
2971.45984	9307.5625
2973.90632	9281.1625
2976.35131	9273.2625
2978.7948	9255.8625
2981.23681	9239.7625
2983.67732	9225.1625
2986.11635	9220.8625
2988.55388	9151.6625
2990.98993	9157.1625
2993.4245	9122.6625
2995.85758	9099.3625
2998.28917	9100.5625
3000.71928	9076.2625
3003.14791	9054.1625
3005.57506	9047.4625
3008.00073	9007.9625
3010.42493	9004.5625
3012.84764	9005.7625
3015.26888	9004.8625
3017.68865	8985.4625
3020.10694	8967.9625
3022.52376	8948.0625
3024.9391	8932.2625
3027.35298	8943.0625
3029.76539	8918.1625
3032.17632	8931.1625
3034.5858	8898.4625
3036.9938	8886.4625
3039.40034	8889.0625
3041.80542	8892.4625
3044.20903	8876.4625
3046.61118	8869.6625
3049.01187	8843.2625
3051.4111	8831.8625
3053.80888	8803.1625
3056.20519	8804.1625
3058.60005	8782.6625
3060.99345	8756.8625
3063.3854	8742.0625
3065.7759	8735.2625
3068.16494	8717.2625
3070.55254	8682.6625
3072.93868	8681.1625
3075.32338	8649.4625
3077.70662	8639.3625
3080.08842	8636.6625
3082.46878	8635.2625
3084.84769	8604.8625
3087.22515	8603.7625
3089.60118	8601.9625
3091.97576	8598.6625
3094.3489	8611.9625
3096.72061	8606.5625
3099.09087	8590.6625
3101.4597	8583.5625
3103.82709	8583.2625
3106.19305	8584.2625
3108.55757	8578.2625
3110.92066	8561.4625
3113.28232	8547.7625
3115.64255	8517.7625
3118.00134	8512.7625
3120.35871	8487.7625
3122.71466	8503.1625
3125.06917	8461.5625
3127.42226	8447.2625
3129.77393	8451.2625
3132.12417	8433.3625
3134.47299	8421.6625
3136.82039	8433.8625
3139.16636	8434.7625
3141.51092	8462.4625
3143.85406	8444.1625
3146.19579	8446.8625
3148.53609	8425.8625
3150.87499	8462.4625
3153.21246	8463.5625
3155.54853	8454.0625
3157.88318	8449.2625
3160.21642	8469.2625
3162.54826	8447.6625
3164.87868	8458.4625
3167.2077	8458.7625
3169.5353	8454.7625
3171.86151	8450.4625
3174.18631	8458.5625
3176.5097	8445.7625
3178.83169	8437.5625
3181.15228	8417.3625
3183.47147	8401.3625
3185.78926	8408.4625
3188.10565	8365.3625
3190.42065	8393.8625
3192.73424	8366.3625
3195.04645	8373.5625
3197.35725	8388.3625
3199.66667	8365.9625
3201.97469	8384.8625
3204.28132	8374.0625
3206.58656	8393.8625
3208.8904	8379.8625
3211.19287	8402.4625
3213.49394	8390.5625
3215.79363	8415.8625
3218.09193	8410.2625
3220.38884	8392.0625
3222.68438	8381.0625
3224.97853	8368.2625
3227.2713	8348.2625
3229.56269	8350.0625
3231.8527	8361.1625
3234.14133	8340.4625
3236.42858	8316.1625
3238.71446	8314.3625
3240.99896	8301.7625
3243.28209	8301.5625
3245.56384	8278.1625
3247.84423	8287.9625
3250.12324	8274.5625
3252.40088	8263.2625
3254.67715	8281.5625
3256.95205	8273.5625
3259.22558	8271.0625
3261.49775	8239.9625
3263.76855	8226.3625
3266.03799	8188.0625
3268.30606	8233.0625
3270.57277	8200.7625
3272.83812	8183.1625
3275.10211	8149.7625
3277.36474	8145.4625
3279.62601	8119.4625
3281.88593	8117.8625
3284.14448	8134.4625
3286.40168	8161.8625
3288.65753	8153.5625
3290.91202	8107.8625
3293.16516	8096.4625
3295.41695	8069.5625
3297.66738	8021.8625
3299.91647	7996.7625
3302.16421	7958.9625
3304.4106	7915.3625
3306.65564	7871.7625
3308.89933	7821.9625
3311.14169	7775.5625
3313.38269	7695.9625
3315.62236	7650.0625
3317.86068	7588.9625
3320.09766	7524.6625
3322.3333	7482.6625
3324.5676	7475.8625
3326.80056	7359.5625
3329.03219	7299.7625
3331.26248	1.6625
3333.49143	0.4625
3335.71905	-1.1375
