Data from AgNPs_FTO_APTES_UA_1uM_CRN_1uM_R6G_10uM_NaF_0.1M_Addition_RamanShift__0__12-12-09-478.txt Node

Date: Thu Jan 27 12:12:09 GMT 2022
User: TCL
Spectrometer: QEP01345
Trigger mode: 4
Integration Time (sec): 7.000000E0
Scans to average: 10
Electric dark correction enabled: true
Nonlinearity correction enabled: false
Boxcar width: 0
XAxis mode: Raman Shifts
Number of Pixels in Spectrum: 1044
>>>>>Begin Spectral Data<<<<<
46.04893	0.7625
50.45542	1.6625
54.85868	-1.1375
59.25871	-0.3375
63.6555	14.1625
68.04907	16.5625
72.43941	18.0625
76.82654	16.8625
81.21044	18.2625
85.59113	17.7625
89.96862	19.1625
94.34289	20.3625
98.71396	22.7625
103.08183	21.5625
107.4465	20.3625
111.80798	23.5625
116.16626	21.7625
120.52136	28.3625
124.87327	25.0625
129.222	25.3625
133.56755	25.2625
137.90993	25.6625
142.24913	28.1625
146.58517	30.8625
150.91804	38.5625
155.24774	41.8625
159.57429	49.8625
163.89768	64.9625
168.21792	89.0625
172.53501	119.3625
176.84895	157.7625
181.15975	223.7625
185.46741	309.0625
189.77193	431.0625
194.07331	576.7625
198.37157	751.3625
202.6667	929.7625
206.9587	1110.5625
211.24758	1284.0625
215.53334	1464.9625
219.81599	1657.8625
224.09553	1855.7625
228.37195	2095.8625
232.64527	2323.1625
236.91549	2602.4625
241.18261	2863.1625
245.44663	3110.8625
249.70755	3316.5625
253.96539	3521.5625
258.22014	3670.4625
262.4718	3813.2625
266.72039	3896.9625
270.96589	3955.0625
275.20832	3939.5625
279.44768	3905.9625
283.68397	3852.4625
287.91719	3779.1625
292.14735	3740.4625
296.37445	3730.0625
300.59849	3772.7625
304.81948	3806.9625
309.03742	3835.6625
313.25231	3847.2625
317.46415	3772.1625
321.67296	3683.2625
325.87872	3600.9625
330.08145	3583.6625
334.28114	3586.4625
338.47781	3611.8625
342.67145	3672.4625
346.86207	3740.5625
351.04966	3826.9625
355.23424	3916.9625
359.4158	4016.8625
363.59435	4088.6625
367.76989	4128.3625
371.94243	4137.9625
376.11196	4157.3625
380.27849	4180.0625
384.44203	4170.7625
388.60257	4179.2625
392.76012	4184.5625
396.91468	4215.9625
401.06626	4287.4625
405.21485	4326.0625
409.36047	4317.2625
413.50311	4246.4625
417.64277	4199.1625
421.77947	4168.4625
425.9132	4158.3625
430.04396	4173.1625
434.17176	4188.3625
438.2966	4216.1625
442.41849	4236.4625
446.53742	4319.0625
450.6534	4415.8625
454.76644	4471.3625
458.87653	4485.4625
462.98368	4457.9625
467.08789	4426.5625
471.18916	4358.8625
475.2875	4308.4625
479.38291	4258.9625
483.4754	4246.0625
487.56496	4233.2625
491.6516	4201.2625
495.73531	4207.2625
499.81612	4196.5625
503.89401	4253.2625
507.96899	4247.5625
512.04106	4246.4625
516.11023	4264.8625
520.1765	4279.5625
524.23987	4303.6625
528.30034	4293.5625
532.35792	4258.0625
536.41261	4223.6625
540.46441	4161.3625
544.51333	4136.9625
548.55936	4132.2625
552.60252	4188.5625
556.64279	4222.5625
560.6802	4273.2625
564.71473	4271.8625
568.7464	4284.0625
572.7752	4314.7625
576.80114	4287.1625
580.82422	4268.4625
584.84444	4316.2625
588.86181	4384.2625
592.87633	4487.4625
596.888	4558.0625
600.89682	4587.6625
604.9028	4725.8625
608.90594	5239.2625
612.90624	5903.9625
616.90371	5777.0625
620.89834	4884.1625
624.89015	4429.0625
628.87913	4347.1625
632.86528	4342.6625
636.84862	4334.1625
640.82913	4293.7625
644.80683	4212.9625
648.78172	4139.3625
652.75379	4153.2625
656.72306	4191.2625
660.68952	4303.2625
664.65319	4298.5625
668.61405	4203.8625
672.57211	4189.4625
676.52738	4201.7625
680.47986	4203.4625
684.42955	4175.7625
688.37646	4163.8625
692.32058	4176.0625
696.26192	4250.0625
700.20048	4306.9625
704.13626	4338.2625
708.06928	4315.6625
711.99952	4268.9625
715.927	4268.9625
719.85171	4250.1625
723.77365	4250.1625
727.69284	4215.2625
731.60928	4193.7625
735.52295	4169.7625
739.43388	4177.2625
743.34206	4193.3625
747.24749	4195.4625
751.15017	4200.2625
755.05012	4228.9625
758.94733	4272.1625
762.8418	4447.2625
766.73354	4719.1625
770.62254	5028.7625
774.50882	5210.6625
778.39237	5140.9625
782.27321	4864.4625
786.15132	4580.5625
790.02671	4376.3625
793.89938	4284.1625
797.76935	4234.5625
801.6366	4224.1625
805.50115	4199.0625
809.36299	4197.4625
813.22213	4176.5625
817.07857	4143.8625
820.93231	4144.5625
824.78336	4143.7625
828.63172	4166.5625
832.47738	4170.6625
836.32036	4186.4625
840.16066	4203.5625
843.99827	4215.8625
847.8332	4216.5625
851.66546	4192.0625
855.49504	4172.8625
859.32195	4173.8625
863.1462	4170.9625
866.96777	4147.3625
870.78668	4158.3625
874.60293	4146.9625
878.41652	4165.9625
882.22745	4159.6625
886.03573	4196.9625
889.84136	4192.7625
893.64433	4174.0625
897.44466	4147.2625
901.24235	4137.1625
905.0374	4135.2625
908.8298	4125.1625
912.61957	4114.6625
916.40671	4129.0625
920.19121	4158.1625
923.97308	4175.6625
927.75233	4233.9625
931.52895	4253.4625
935.30295	4252.4625
939.07433	4211.1625
942.84309	4158.4625
946.60924	4126.9625
950.37278	4090.9625
954.13371	4101.7625
957.89203	4054.0625
961.64774	4054.4625
965.40086	4036.5625
969.15137	4026.9625
972.89929	4032.4625
976.64461	4044.8625
980.38733	4071.1625
984.12747	4099.2625
987.86502	4127.1625
991.59999	4174.7625
995.33237	4217.2625
999.06217	4294.8625
1002.78939	4382.2625
1006.51404	4410.3625
1010.23611	4421.1625
1013.95561	4445.3625
1017.67255	4442.6625
1021.38692	4402.2625
1025.09872	4400.5625
1028.80796	4441.4625
1032.51465	4567.1625
1036.21877	4691.9625
1039.92035	4734.6625
1043.61937	4680.3625
1047.31584	4574.9625
1051.00976	4478.0625
1054.70114	4411.1625
1058.38998	4363.8625
1062.07627	4373.3625
1065.76003	4350.2625
1069.44126	4382.0625
1073.11995	4412.9625
1076.79611	4477.4625
1080.46974	4524.7625
1084.14085	4564.2625
1087.80943	4584.6625
1091.47549	4596.6625
1095.13903	4583.8625
1098.80005	4516.8625
1102.45857	4461.1625
1106.11456	4408.8625
1109.76805	4385.8625
1113.41903	4398.6625
1117.06751	4425.4625
1120.71348	4460.9625
1124.35696	4510.4625
1127.99793	4549.2625
1131.63641	4579.0625
1135.2724	4522.5625
1138.90589	4430.8625
1142.5369	4369.1625
1146.16542	4350.7625
1149.79145	4331.1625
1153.415	4299.8625
1157.03607	4306.6625
1160.65467	4353.7625
1164.27079	4407.1625
1167.88443	4515.6625
1171.49561	4705.8625
1175.10432	4963.7625
1178.71056	5329.7625
1182.31434	5669.3625
1185.91565	5830.0625
1189.51451	5775.8625
1193.11091	5603.2625
1196.70485	5382.6625
1200.29634	5207.5625
1203.88538	5075.1625
1207.47197	4940.3625
1211.05612	4782.8625
1214.63782	4688.1625
1218.21708	4660.2625
1221.79391	4656.4625
1225.36829	4659.0625
1228.94024	4645.6625
1232.50976	4594.2625
1236.07685	4552.5625
1239.6415	4533.3625
1243.20374	4544.1625
1246.76355	4569.5625
1250.32093	4630.3625
1253.8759	4702.2625
1257.42845	4794.3625
1260.97859	4907.4625
1264.52631	5000.2625
1268.07163	5087.4625
1271.61453	5229.1625
1275.15503	5311.1625
1278.69312	5397.8625
1282.22882	5417.0625
1285.76211	5461.2625
1289.29301	5507.6625
1292.82151	5613.2625
1296.34761	5750.8625
1299.87133	5953.0625
1303.39266	6255.9625
1306.9116	6654.1625
1310.42815	7017.9625
1313.94233	7182.2625
1317.45412	7069.5625
1320.96354	6771.3625
1324.47058	6406.2625
1327.97525	6098.6625
1331.47754	5837.9625
1334.97747	5704.5625
1338.47502	5645.4625
1341.97022	5631.9625
1345.46305	5697.5625
1348.95352	5891.2625
1352.44163	6182.3625
1355.92738	6547.5625
1359.41078	7072.3625
1362.89183	7569.3625
1366.37053	7572.1625
1369.84688	6904.0625
1373.32088	6116.5625
1376.79254	5545.0625
1380.26186	5303.0625
1383.72883	5194.1625
1387.19347	5125.2625
1390.65578	5023.0625
1394.11575	4888.8625
1397.57339	4793.0625
1401.0287	4730.3625
1404.48168	4722.0625
1407.93234	4712.8625
1411.38068	4697.1625
1414.82669	4680.5625
1418.27039	4661.6625
1421.71177	4621.1625
1425.15083	4609.2625
1428.58758	4576.6625
1432.02203	4603.0625
1435.45416	4662.6625
1438.88399	4694.5625
1442.31151	4703.6625
1445.73673	4699.9625
1449.15965	4702.8625
1452.58027	4639.2625
1455.9986	4621.8625
1459.41463	4595.5625
1462.82837	4645.7625
1466.23982	4691.0625
1469.64898	4763.7625
1473.05586	4825.0625
1476.46045	4890.9625
1479.86276	4930.8625
1483.26279	4951.0625
1486.66054	5005.7625
1490.05602	5077.8625
1493.44922	5166.0625
1496.84016	5305.1625
1500.22882	5511.1625
1503.61521	5774.1625
1506.99934	6124.6625
1510.38121	6488.6625
1513.76081	6627.6625
1517.13816	6465.2625
1520.51324	6076.9625
1523.88607	5646.7625
1527.25665	5351.1625
1530.62498	5171.8625
1533.99105	5081.0625
1537.35488	4998.8625
1540.71647	4934.3625
1544.07581	4868.9625
1547.4329	4834.0625
1550.78776	4790.6625
1554.14038	4776.8625
1557.49077	4790.9625
1560.83892	4812.0625
1564.18484	4830.8625
1567.52853	4877.1625
1570.86999	4955.3625
1574.20922	5007.1625
1577.54624	5024.7625
1580.88103	4973.0625
1584.2136	4854.1625
1587.54395	4824.1625
1590.87208	4930.3625
1594.19801	5116.8625
1597.52172	5339.2625
1600.84321	5458.4625
1604.16251	5321.8625
1607.47959	5081.1625
1610.79447	4810.4625
1614.10715	4554.5625
1617.41763	4355.0625
1620.7259	4243.5625
1624.03199	4194.4625
1627.33587	4200.5625
1630.63757	4279.2625
1633.93707	4400.2625
1637.23439	4582.7625
1640.52951	4850.0625
1643.82246	5225.8625
1647.11321	5626.7625
1650.40179	5873.8625
1653.68819	5759.4625
1656.97241	5286.9625
1660.25446	4758.7625
1663.53433	4365.8625
1666.81203	4149.8625
1670.08756	4001.7625
1673.36092	3916.8625
1676.63211	3845.1625
1679.90115	3778.1625
1683.16801	3754.1625
1686.43272	3724.7625
1689.69527	3736.8625
1692.95567	3768.3625
1696.2139	3836.1625
1699.46999	3892.5625
1702.72392	3888.7625
1705.97571	3825.2625
1709.22535	3749.9625
1712.47284	3704.7625
1715.71819	3681.4625
1718.96139	3669.9625
1722.20246	3637.5625
1725.44139	3626.1625
1728.67818	3606.7625
1731.91284	3601.8625
1735.14537	3576.7625
1738.37576	3584.9625
1741.60403	3574.7625
1744.83017	3580.4625
1748.05418	3578.2625
1751.27607	3583.4625
1754.49584	3624.5625
1757.71349	3666.1625
1760.92903	3691.3625
1764.14244	3673.9625
1767.35375	3683.4625
1770.56294	3674.3625
1773.77002	3650.5625
1776.97499	3614.6625
1780.17785	3555.6625
1783.37861	3524.4625
1786.57727	3514.3625
1789.77382	3507.6625
1792.96828	3489.9625
1796.16064	3488.2625
1799.3509	3460.5625
1802.53907	3474.7625
1805.72514	3459.5625
1808.90913	3445.2625
1812.09102	3436.9625
1815.27083	3428.7625
1818.44856	3427.8625
1821.6242	3431.8625
1824.79776	3429.1625
1827.96924	3413.6625
1831.13864	3416.9625
1834.30597	3397.5625
1837.47122	3401.3625
1840.6344	3402.0625
1843.7955	3399.2625
1846.95454	3408.5625
1850.11151	3393.8625
1853.26642	3393.2625
1856.41926	3384.9625
1859.57004	3393.2625
1862.71876	3390.3625
1865.86542	3397.5625
1869.01003	3386.3625
1872.15258	3382.5625
1875.29308	3373.0625
1878.43152	3379.3625
1881.56792	3378.4625
1884.70227	3370.1625
1887.83457	3357.3625
1890.96482	3349.0625
1894.09304	3359.9625
1897.21921	3350.1625
1900.34335	3352.7625
1903.46544	3346.0625
1906.58551	3346.1625
1909.70353	3342.0625
1912.81953	3337.7625
1915.93349	3331.6625
1919.04543	3336.3625
1922.15534	3321.3625
1925.26322	3316.9625
1928.36908	3319.5625
1931.47292	3318.0625
1934.57473	3295.3625
1937.67453	3296.0625
1940.77232	3299.9625
1943.86808	3277.9625
1946.96184	3277.7625
1950.05358	3261.2625
1953.14331	3260.7625
1956.23103	3254.8625
1959.31675	3243.7625
1962.40046	3237.9625
1965.48217	3224.0625
1968.56188	3218.5625
1971.63959	3200.0625
1974.7153	3201.7625
1977.78901	3191.4625
1980.86073	3179.3625
1983.93046	3171.8625
1986.99819	3158.3625
1990.06394	3149.9625
1993.1277	3141.6625
1996.18947	3133.7625
1999.24925	3124.5625
2002.30706	3119.3625
2005.36288	3109.1625
2008.41672	3101.6625
2011.46859	3084.8625
2014.51848	3093.6625
2017.56639	3074.0625
2020.61233	3074.3625
2023.6563	3072.7625
2026.6983	3064.3625
2029.73833	3053.7625
2032.7764	3046.6625
2035.8125	3050.6625
2038.84664	3035.9625
2041.87881	3042.4625
2044.90903	3034.7625
2047.93729	3019.2625
2050.96359	3028.9625
2053.98794	3025.3625
2057.01034	3018.0625
2060.03078	3026.3625
2063.04927	3005.3625
2066.06582	3010.7625
2069.08042	3010.7625
2072.09307	3006.8625
2075.10378	3009.9625
2078.11255	3005.7625
2081.11938	3017.3625
2084.12426	3017.2625
2087.12722	2982.0625
2090.12824	2995.2625
2093.12732	3007.3625
2096.12447	3009.1625
2099.11969	3010.3625
2102.11299	3011.7625
2105.10435	3000.9625
2108.09379	3002.7625
2111.08131	3011.0625
2114.0669	3005.9625
2117.05057	3019.8625
2120.03233	3014.2625
2123.01216	3017.4625
2125.99008	3015.5625
2128.96609	3018.1625
2131.94018	3026.9625
2134.91236	3028.3625
2137.88263	3020.1625
2140.851	3024.6625
2143.81746	3052.5625
2146.78201	3031.9625
2149.74466	3031.0625
2152.7054	3047.6625
2155.66425	3017.8625
2158.6212	3044.6625
2161.57625	3037.9625
2164.52941	3039.3625
2167.48067	3023.0625
2170.43004	3031.0625
2173.37752	3027.6625
2176.32311	3026.4625
2179.26681	3035.5625
2182.20863	3024.9625
2185.14856	3028.8625
2188.08661	3033.0625
2191.02278	3038.7625
2193.95707	3039.4625
2196.88948	3033.6625
2199.82001	3042.6625
2202.74867	3037.4625
2205.67545	3031.3625
2208.60037	3038.0625
2211.52341	3033.0625
2214.44458	3032.4625
2217.36388	3009.9625
2220.28132	3004.9625
2223.1969	3014.9625
2226.11061	2992.1625
2229.02246	2986.8625
2231.93245	2983.4625
2234.84058	2982.5625
2237.74686	2992.1625
2240.65128	2992.1625
2243.55385	2976.9625
2246.45456	2969.8625
2249.35343	2970.2625
2252.25044	2961.1625
2255.14561	2954.9625
2258.03893	2970.4625
2260.93041	2993.1625
2263.82004	2967.8625
2266.70783	2953.9625
2269.59378	2936.4625
2272.4779	2939.1625
2275.36017	2935.6625
2278.24061	2921.0625
2281.11922	2931.2625
2283.996	2920.3625
2286.87094	2913.2625
2289.74405	2915.7625
2292.61534	2897.3625
2295.4848	2900.8625
2298.35243	2919.3625
2301.21824	2900.1625
2304.08223	2904.3625
2306.94439	2895.8625
2309.80474	2908.7625
2312.66327	2904.1625
2315.51999	2913.2625
2318.37489	2909.6625
2321.22797	2912.1625
2324.07925	2892.3625
2326.92871	2903.3625
2329.77637	2903.5625
2332.62222	2883.6625
2335.46626	2887.1625
2338.3085	2886.7625
2341.14893	2890.0625
2343.98756	2887.3625
2346.8244	2891.6625
2349.65943	2873.2625
2352.49267	2871.2625
2355.32411	2878.5625
2358.15376	2869.8625
2360.98161	2867.6625
2363.80768	2863.7625
2366.63195	2858.0625
2369.45444	2863.9625
2372.27514	2858.0625
2375.09405	2859.0625
2377.91118	2841.8625
2380.72652	2835.0625
2383.54009	2842.2625
2386.35187	2832.4625
2389.16188	2818.2625
2391.97011	2815.3625
2394.77657	2805.2625
2397.58125	2798.4625
2400.38416	2804.1625
2403.18529	2798.2625
2405.98466	2799.1625
2408.78226	2789.4625
2411.57809	2806.2625
2414.37216	2792.5625
2417.16446	2777.4625
2419.955	2786.6625
2422.74378	2777.9625
2425.5308	2782.0625
2428.31606	2774.2625
2431.09956	2767.3625
2433.88131	2780.6625
2436.6613	2775.2625
2439.43954	2775.5625
2442.21603	2775.1625
2444.99077	2768.2625
2447.76377	2772.1625
2450.53501	2757.6625
2453.30451	2763.7625
2456.07226	2761.4625
2458.83827	2745.0625
2461.60254	2765.0625
2464.36507	2760.7625
2467.12586	2751.8625
2469.88492	2766.2625
2472.64224	2766.0625
2475.39782	2783.5625
2478.15167	2771.0625
2480.90379	2749.1625
2483.65417	2759.4625
2486.40283	2767.7625
2489.14976	2756.6625
2491.89497	2756.9625
2494.63845	2775.2625
2497.3802	2764.7625
2500.12024	2755.6625
2502.85855	2739.0625
2505.59514	2745.7625
2508.33002	2738.8625
2511.06318	2725.7625
2513.79462	2728.1625
2516.52435	2718.9625
2519.25237	2723.5625
2521.97867	2726.6625
2524.70327	2717.6625
2527.42616	2710.6625
2530.14734	2709.0625
2532.86681	2701.9625
2535.58458	2710.7625
2538.30065	2698.7625
2541.01501	2699.0625
2543.72768	2692.4625
2546.43864	2697.2625
2549.14791	2699.6625
2551.85548	2677.5625
2554.56136	2680.5625
2557.26554	2679.6625
2559.96803	2681.3625
2562.66883	2666.2625
2565.36794	2674.5625
2568.06536	2676.3625
2570.7611	2661.3625
2573.45514	2665.3625
2576.14751	2662.4625
2578.83819	2653.1625
2581.52719	2653.9625
2584.21451	2658.2625
2586.90015	2659.2625
2589.58411	2633.0625
2592.2664	2627.5625
2594.94701	2642.1625
2597.62594	2638.2625
2600.30321	2634.1625
2602.9788	2628.2625
2605.65273	2629.1625
2608.32498	2621.1625
2610.99557	2622.7625
2613.66449	2614.1625
2616.33175	2618.4625
2618.99734	2608.7625
2621.66128	2609.5625
2624.32355	2597.3625
2626.98416	2608.6625
2629.64311	2604.7625
2632.30041	2609.1625
2634.95605	2589.4625
2637.61004	2576.9625
2640.26238	2570.4625
2642.91306	2574.2625
2645.56209	2584.9625
2648.20948	2584.7625
2650.85521	2569.3625
2653.4993	2568.2625
2656.14175	2580.1625
2658.78255	2568.6625
2661.42171	2578.0625
2664.05923	2584.2625
2666.6951	2587.2625
2669.32934	2585.7625
2671.96194	2574.0625
2674.59291	2574.4625
2677.22224	2574.6625
2679.84993	2577.6625
2682.476	2580.5625
2685.10043	2574.2625
2687.72324	2574.0625
2690.34441	2573.2625
2692.96396	2572.5625
2695.58188	2584.6625
2698.19818	2579.9625
2700.81285	2574.0625
2703.4259	2613.0625
2706.03733	2705.8625
2708.64714	2642.1625
2711.25533	2606.3625
2713.86191	2598.5625
2716.46687	2596.8625
2719.07021	2591.3625
2721.67194	2581.4625
2724.27206	2582.2625
2726.87057	2592.3625
2729.46747	2585.5625
2732.06276	2581.3625
2734.65644	2580.5625
2737.24852	2580.1625
2739.83899	2567.3625
2742.42786	2575.9625
2745.01513	2566.3625
2747.60079	2561.7625
2750.18486	2564.2625
2752.76733	2567.5625
2755.3482	2559.3625
2757.92747	2565.7625
2760.50515	2550.1625
2763.08123	2560.1625
2765.65573	2563.2625
2768.22863	2557.5625
2770.79994	2547.0625
2773.36967	2558.8625
2775.9378	2563.0625
2778.50435	2556.8625
2781.06932	2548.7625
2783.6327	2539.3625
2786.1945	2542.0625
2788.75471	2548.4625
2791.31335	2526.1625
2793.87041	2527.6625
2796.42589	2521.4625
2798.97979	2526.3625
2801.53212	2519.2625
2804.08288	2529.8625
2806.63206	2510.9625
2809.17967	2502.1625
2811.72571	2506.2625
2814.27018	2505.5625
2816.81308	2493.7625
2819.35442	2493.8625
2821.89419	2491.5625
2824.43239	2492.0625
2826.96904	2498.8625
2829.50412	2490.4625
2832.03763	2493.4625
2834.56959	2487.2625
2837.1	2501.6625
2839.62884	2505.4625
2842.15613	2503.0625
2844.68186	2503.7625
2847.20604	2506.0625
2849.72867	2521.0625
2852.24974	2510.1625
2854.76927	2516.3625
2857.28724	2549.6625
2859.80367	2526.4625
2862.31855	2520.7625
2864.83189	2513.6625
2867.34368	2512.8625
2869.85393	2509.4625
2872.36264	2496.7625
2874.8698	2506.8625
2877.37543	2502.4625
2879.87952	2499.9625
2882.38207	2512.3625
2884.88308	2507.1625
2887.38256	2508.5625
2889.88051	2492.5625
2892.37692	2504.6625
2894.8718	2508.7625
2897.36515	2504.7625
2899.85698	2517.6625
2902.34727	2516.6625
2904.83604	2516.5625
2907.32328	2519.9625
2909.809	2504.4625
2912.29319	2514.6625
2914.77587	2516.1625
2917.25702	2509.0625
2919.73665	2502.0625
2922.21476	2507.9625
2924.69136	2508.3625
2927.16644	2507.9625
2929.64	2513.0625
2932.11205	2502.9625
2934.58258	2499.2625
2937.05161	2495.7625
2939.51912	2495.9625
2941.98513	2484.4625
2944.44962	2473.6625
2946.91261	2471.6625
2949.37409	2470.2625
2951.83407	2458.6625
2954.29254	2462.2625
2956.74951	2461.1625
2959.20498	2450.3625
2961.65895	2437.7625
2964.11142	2456.2625
2966.56239	2442.6625
2969.01186	2445.4625
2971.45984	2438.0625
2973.90632	2429.6625
2976.35131	2444.4625
2978.7948	2428.6625
2981.23681	2425.8625
2983.67732	2422.9625
2986.11635	2406.6625
2988.55388	2403.4625
2990.98993	2403.0625
2993.4245	2381.8625
2995.85758	2383.5625
2998.28917	2381.2625
3000.71928	2367.7625
3003.14791	2368.8625
3005.57506	2377.2625
3008.00073	2367.5625
3010.42493	2360.0625
3012.84764	2365.3625
3015.26888	2364.5625
3017.68865	2357.3625
3020.10694	2355.6625
3022.52376	2343.9625
3024.9391	2355.5625
3027.35298	2348.1625
3029.76539	2348.9625
3032.17632	2354.7625
3034.5858	2343.8625
3036.9938	2343.7625
3039.40034	2336.6625
3041.80542	2338.8625
3044.20903	2332.5625
3046.61118	2334.7625
3049.01187	2326.3625
3051.4111	2327.9625
3053.80888	2320.0625
3056.20519	2304.8625
3058.60005	2307.4625
3060.99345	2312.3625
3063.3854	2317.2625
3065.7759	2302.8625
3068.16494	2296.1625
3070.55254	2300.0625
3072.93868	2291.3625
3075.32338	2299.8625
3077.70662	2294.5625
3080.08842	2282.5625
3082.46878	2281.1625
3084.84769	2285.2625
3087.22515	2286.2625
3089.60118	2286.0625
3091.97576	2280.8625
3094.3489	2284.5625
3096.72061	2280.7625
3099.09087	2296.8625
3101.4597	2294.9625
3103.82709	2284.7625
3106.19305	2287.9625
3108.55757	2284.2625
3110.92066	2282.4625
3113.28232	2269.3625
3115.64255	2265.5625
3118.00134	2261.8625
3120.35871	2269.2625
3122.71466	2273.8625
3125.06917	2260.1625
3127.42226	2263.2625
3129.77393	2266.4625
3132.12417	2264.0625
3134.47299	2258.4625
3136.82039	2260.3625
3139.16636	2260.2625
3141.51092	2261.4625
3143.85406	2259.2625
3146.19579	2272.6625
3148.53609	2263.6625
3150.87499	2260.8625
3153.21246	2272.6625
3155.54853	2269.2625
3157.88318	2278.1625
3160.21642	2279.7625
3162.54826	2261.2625
3164.87868	2269.4625
3167.2077	2272.7625
3169.5353	2280.8625
3171.86151	2274.2625
3174.18631	2272.1625
3176.5097	2280.1625
3178.83169	2282.4625
3181.15228	2265.6625
3183.47147	2262.0625
3185.78926	2261.1625
3188.10565	2265.8625
3190.42065	2264.9625
3192.73424	2260.2625
3195.04645	2260.2625
3197.35725	2253.4625
3199.66667	2269.3625
3201.97469	2275.3625
3204.28132	2264.5625
3206.58656	2271.0625
3208.8904	2266.4625
3211.19287	2274.8625
3213.49394	2279.5625
3215.79363	2280.8625
3218.09193	2278.4625
3220.38884	2302.3625
3222.68438	2305.4625
3224.97853	2291.4625
3227.2713	2288.4625
3229.56269	2278.8625
3231.8527	2272.2625
3234.14133	2265.6625
3236.42858	2272.2625
3238.71446	2260.4625
3240.99896	2251.7625
3243.28209	2255.2625
3245.56384	2259.7625
3247.84423	2249.9625
3250.12324	2234.4625
3252.40088	2259.1625
3254.67715	2256.4625
3256.95205	2249.3625
3259.22558	2247.2625
3261.49775	2251.7625
3263.76855	2249.6625
3266.03799	2234.4625
3268.30606	2244.5625
3270.57277	2240.3625
3272.83812	2230.0625
3275.10211	2231.1625
3277.36474	2223.1625
3279.62601	2225.0625
3281.88593	2211.8625
3284.14448	2220.5625
3286.40168	2225.9625
3288.65753	2223.7625
3290.91202	2217.9625
3293.16516	2203.5625
3295.41695	2210.9625
3297.66738	2190.1625
3299.91647	2186.6625
3302.16421	2179.8625
3304.4106	2167.7625
3306.65564	2160.2625
3308.89933	2150.0625
3311.14169	2128.1625
3313.38269	2137.8625
3315.62236	2113.3625
3317.86068	2085.6625
3320.09766	2071.6625
3322.3333	2059.5625
3324.5676	2063.2625
3326.80056	2064.3625
3329.03219	2031.9625
3331.26248	0.8625
3333.49143	0.0625
3335.71905	-1.7375
