Data from AgNPs_UA_2uM_CRN_0uM_R6G_10uM_Q_RamanShift__16__13-19-41-916.txt Node

Date: Wed Jul 13 13:19:41 BST 2022
User: TCL
Spectrometer: QEP01345
Trigger mode: 4
Integration Time (sec): 7.000000E0
Scans to average: 10
Electric dark correction enabled: true
Nonlinearity correction enabled: false
Boxcar width: 0
XAxis mode: Raman Shifts
Number of Pixels in Spectrum: 1044
>>>>>Begin Spectral Data<<<<<
46.04893	-3.0375
50.45542	-1.8375
54.85868	-0.5375
59.25871	0.1625
63.6555	116.4625
68.04907	119.8625
72.43941	121.9625
76.82654	130.7625
81.21044	136.8625
85.59113	142.8625
89.96862	147.0625
94.34289	148.0625
98.71396	155.0625
103.08183	161.9625
107.4465	163.2625
111.80798	166.9625
116.16626	172.4625
120.52136	182.9625
124.87327	184.6625
129.222	195.4625
133.56755	208.5625
137.90993	226.4625
142.24913	248.2625
146.58517	276.5625
150.91804	315.1625
155.24774	380.8625
159.57429	472.1625
163.89768	593.3625
168.21792	780.9625
172.53501	1060.3625
176.84895	1492.7625
181.15975	2099.3625
185.46741	2935.9625
189.77193	4042.9625
194.07331	5406.6625
198.37157	6944.1625
202.6667	8582.9625
206.9587	10156.8625
211.24758	11714.4625
215.53334	13307.9625
219.81599	14943.8625
224.09553	16809.3625
228.37195	18853.7625
232.64527	21057.8625
236.91549	23395.2625
241.18261	25757.9625
245.44663	27936.5625
249.70755	29884.9625
253.96539	31617.4625
258.22014	33114.1625
262.4718	34373.9625
266.72039	35203.1625
270.96589	35561.6625
275.20832	35548.9625
279.44768	35346.1625
283.68397	35014.8625
287.91719	34668.9625
292.14735	34455.7625
296.37445	34444.7625
300.59849	34592.4625
304.81948	34775.0625
309.03742	34873.7625
313.25231	34756.1625
317.46415	34351.4625
321.67296	33716.2625
325.87872	33265.9625
330.08145	33061.6625
334.28114	33167.6625
338.47781	33530.4625
342.67145	33971.6625
346.86207	34627.3625
351.04966	35342.1625
355.23424	36027.4625
359.4158	36574.3625
363.59435	37012.5625
367.76989	37398.0625
371.94243	37589.2625
376.11196	37750.0625
380.27849	37949.0625
384.44203	38150.4625
388.60257	38327.0625
392.76012	38605.5625
396.91468	39111.6625
401.06626	39684.6625
405.21485	39967.1625
409.36047	39866.6625
413.50311	39379.9625
417.64277	39083.3625
421.77947	39038.1625
425.9132	39118.3625
430.04396	39330.7625
434.17176	39560.1625
438.2966	39951.9625
442.41849	40532.0625
446.53742	41382.6625
450.6534	42267.6625
454.76644	42820.3625
458.87653	43034.0625
462.98368	42842.4625
467.08789	42468.1625
471.18916	42044.2625
475.2875	41606.7625
479.38291	41296.9625
483.4754	41065.9625
487.56496	40763.4625
491.6516	40592.7625
495.73531	40388.4625
499.81612	40389.2625
503.89401	40602.0625
507.96899	40753.3625
512.04106	40768.9625
516.11023	40808.1625
520.1765	40744.6625
524.23987	40715.3625
528.30034	40587.6625
532.35792	40424.9625
536.41261	40174.9625
540.46441	39913.3625
544.51333	39894.2625
548.55936	40244.9625
552.60252	40824.4625
556.64279	41435.4625
560.6802	41885.4625
564.71473	42187.2625
568.7464	42704.7625
572.7752	43224.5625
576.80114	43628.5625
580.82422	44111.8625
584.84444	44752.3625
588.86181	45511.2625
592.87633	46147.9625
596.888	46374.3625
600.89682	46405.6625
604.9028	47818.4625
608.90594	51382.3625
612.90624	54404.9625
616.90371	50797.6625
620.89834	44690.1625
624.89015	42508.2625
628.87913	42414.3625
632.86528	42567.7625
636.84862	42554.5625
640.82913	42042.8625
644.80683	41340.9625
648.78172	40920.8625
652.75379	41038.2625
656.72306	41573.5625
660.68952	42031.2625
664.65319	41802.9625
668.61405	41325.6625
672.57211	41369.7625
676.52738	41395.7625
680.47986	41259.9625
684.42955	41037.0625
688.37646	41097.4625
692.32058	41320.9625
696.26192	41683.2625
700.20048	42131.7625
704.13626	42317.6625
708.06928	42289.1625
711.99952	42120.1625
715.927	42081.3625
719.85171	42201.6625
723.77365	42160.1625
727.69284	41802.1625
731.60928	41648.6625
735.52295	41638.9625
739.43388	41675.5625
743.34206	41828.7625
747.24749	41945.3625
751.15017	42159.4625
755.05012	42652.7625
758.94733	43571.2625
762.8418	45357.1625
766.73354	48046.3625
770.62254	50245.2625
774.50882	50411.0625
778.39237	48661.9625
782.27321	46288.4625
786.15132	44306.2625
790.02671	43027.7625
793.89938	42404.8625
797.76935	42139.2625
801.6366	42016.3625
805.50115	41959.6625
809.36299	41876.1625
813.22213	41754.4625
817.07857	41687.4625
820.93231	41630.3625
824.78336	41571.2625
828.63172	41629.6625
832.47738	41603.7625
836.32036	41624.5625
840.16066	41761.4625
843.99827	41841.6625
847.8332	41851.8625
851.66546	41797.0625
855.49504	41882.6625
859.32195	41946.2625
863.1462	41955.7625
866.96777	41846.3625
870.78668	41857.4625
874.60293	41920.1625
878.41652	42033.1625
882.22745	42140.6625
886.03573	42249.8625
889.84136	42223.8625
893.64433	42068.9625
897.44466	41976.1625
901.24235	41952.0625
905.0374	41836.1625
908.8298	41729.5625
912.61957	41770.3625
916.40671	42014.3625
920.19121	42299.5625
923.97308	42605.3625
927.75233	42762.4625
931.52895	42595.5625
935.30295	42273.2625
939.07433	41729.1625
942.84309	41420.7625
946.60924	41313.9625
950.37278	41252.0625
954.13371	41163.1625
957.89203	41093.4625
961.64774	41037.1625
965.40086	40994.2625
969.15137	40888.4625
972.89929	40841.1625
976.64461	40806.4625
980.38733	40872.3625
984.12747	40950.5625
987.86502	41210.5625
991.59999	41566.5625
995.33237	42096.1625
999.06217	42667.4625
1002.78939	43278.5625
1006.51404	43729.2625
1010.23611	44039.1625
1013.95561	44252.2625
1017.67255	44293.4625
1021.38692	44000.4625
1025.09872	43702.6625
1028.80796	43693.6625
1032.51465	44082.2625
1036.21877	44522.0625
1039.92035	44448.6625
1043.61937	44234.0625
1047.31584	43881.2625
1051.00976	43472.5625
1054.70114	43318.8625
1058.38998	43504.3625
1062.07627	43686.3625
1065.76003	43922.7625
1069.44126	44298.1625
1073.11995	44750.8625
1076.79611	45226.3625
1080.46974	45571.3625
1084.14085	45833.6625
1087.80943	46207.2625
1091.47549	46362.5625
1095.13903	46166.6625
1098.80005	45752.1625
1102.45857	45297.5625
1106.11456	44918.6625
1109.76805	44833.8625
1113.41903	44895.4625
1117.06751	45154.2625
1120.71348	45520.3625
1124.35696	45939.3625
1127.99793	46243.0625
1131.63641	46173.0625
1135.2724	45778.1625
1138.90589	45443.6625
1142.5369	45301.9625
1146.16542	45274.7625
1149.79145	45305.6625
1153.415	45367.4625
1157.03607	45655.3625
1160.65467	46319.8625
1164.27079	47418.6625
1167.88443	48912.8625
1171.49561	50986.7625
1175.10432	53732.0625
1178.71056	57059.5625
1182.31434	59797.4625
1185.91565	60767.0625
1189.51451	60202.3625
1193.11091	58759.7625
1196.70485	56963.5625
1200.29634	55221.3625
1203.88538	53908.9625
1207.47197	52809.9625
1211.05612	51946.6625
1214.63782	51280.0625
1218.21708	50820.4625
1221.79391	50674.5625
1225.36829	50673.9625
1228.94024	50322.5625
1232.50976	49740.0625
1236.07685	49211.9625
1239.6415	48957.7625
1243.20374	48925.4625
1246.76355	49224.5625
1250.32093	49588.7625
1253.8759	50222.3625
1257.42845	51133.9625
1260.97859	52120.1625
1264.52631	53167.1625
1268.07163	54167.2625
1271.61453	55113.8625
1275.15503	56107.9625
1278.69312	57010.0625
1282.22882	57790.1625
1285.76211	58653.5625
1289.29301	59679.2625
1292.82151	61028.7625
1296.34761	62762.0625
1299.87133	65146.5625
1303.39266	68185.5625
1306.9116	71732.6625
1310.42815	75358.8625
1313.94233	77460.8625
1317.45412	77016.4625
1320.96354	75198.6625
1324.47058	73256.1625
1327.97525	71506.6625
1331.47754	70147.7625
1334.97747	69322.8625
1338.47502	68856.4625
1341.97022	68932.5625
1345.46305	69290.2625
1348.95352	69795.5625
1352.44163	70412.6625
1355.92738	71840.2625
1359.41078	74576.4625
1362.89183	76962.0625
1366.37053	75352.8625
1369.84688	69774.5625
1373.32088	63635.1625
1376.79254	59641.8625
1380.26186	57844.8625
1383.72883	57382.4625
1387.19347	57086.4625
1390.65578	56491.1625
1394.11575	56122.2625
1397.57339	56110.0625
1401.0287	56532.8625
1404.48168	56914.8625
1407.93234	56931.2625
1411.38068	56365.1625
1414.82669	55419.8625
1418.27039	54273.5625
1421.71177	53076.7625
1425.15083	52082.8625
1428.58758	51701.6625
1432.02203	52035.6625
1435.45416	52894.0625
1438.88399	53697.3625
1442.31151	54310.5625
1445.73673	54792.8625
1449.15965	55020.2625
1452.58027	55064.4625
1455.9986	55086.1625
1459.41463	55212.5625
1462.82837	55791.8625
1466.23982	56574.5625
1469.64898	57184.8625
1473.05586	57694.1625
1476.46045	57913.3625
1479.86276	57766.8625
1483.26279	57631.6625
1486.66054	57692.6625
1490.05602	58072.0625
1493.44922	58786.1625
1496.84016	59849.0625
1500.22882	61490.2625
1503.61521	63844.8625
1506.99934	66525.1625
1510.38121	68534.2625
1513.76081	68655.3625
1517.13816	66684.5625
1520.51324	63597.0625
1523.88607	60888.7625
1527.25665	59411.4625
1530.62498	58723.2625
1533.99105	58373.0625
1537.35488	57935.2625
1540.71647	57387.5625
1544.07581	56599.7625
1547.4329	55927.9625
1550.78776	55236.9625
1554.14038	54860.0625
1557.49077	54661.8625
1560.83892	54758.4625
1564.18484	55056.7625
1567.52853	55434.8625
1570.86999	55893.7625
1574.20922	56393.1625
1577.54624	56476.6625
1580.88103	55911.2625
1584.2136	55437.6625
1587.54395	55919.2625
1590.87208	57504.8625
1594.19801	60030.7625
1597.52172	62632.4625
1600.84321	63348.4625
1604.16251	61663.4625
1607.47959	58748.7625
1610.79447	55588.8625
1614.10715	52463.1625
1617.41763	49894.4625
1620.7259	48119.2625
1624.03199	47238.7625
1627.33587	47193.8625
1630.63757	47986.2625
1633.93707	49902.7625
1637.23439	53064.4625
1640.52951	57617.1625
1643.82246	62806.7625
1647.11321	66780.3625
1650.40179	67370.7625
1653.68819	63689.9625
1656.97241	57536.6625
1660.25446	51680.5625
1663.53433	47426.8625
1666.81203	44782.5625
1670.08756	43188.5625
1673.36092	42120.4625
1676.63211	41333.1625
1679.90115	40825.3625
1683.16801	40418.7625
1686.43272	40130.5625
1689.69527	39920.6625
1692.95567	39762.2625
1696.2139	39683.0625
1699.46999	39620.4625
1702.72392	39535.5625
1705.97571	39547.6625
1709.22535	39513.4625
1712.47284	39462.1625
1715.71819	39461.7625
1718.96139	39411.9625
1722.20246	39322.9625
1725.44139	39232.2625
1728.67818	39136.8625
1731.91284	38982.9625
1735.14537	38794.7625
1738.37576	38700.8625
1741.60403	38599.5625
1744.83017	38470.8625
1748.05418	38489.1625
1751.27607	38391.8625
1754.49584	38349.2625
1757.71349	38301.6625
1760.92903	38274.2625
1764.14244	38226.7625
1767.35375	38194.4625
1770.56294	38157.4625
1773.77002	38158.3625
1776.97499	38080.5625
1780.17785	38053.1625
1783.37861	37978.4625
1786.57727	37954.8625
1789.77382	37915.4625
1792.96828	37917.7625
1796.16064	37851.9625
1799.3509	37776.3625
1802.53907	37765.0625
1805.72514	37687.1625
1808.90913	37650.2625
1812.09102	37553.7625
1815.27083	37418.0625
1818.44856	37367.6625
1821.6242	37325.1625
1824.79776	37326.8625
1827.96924	37279.7625
1831.13864	37201.5625
1834.30597	37172.4625
1837.47122	37207.5625
1840.6344	37147.0625
1843.7955	37157.8625
1846.95454	37112.7625
1850.11151	37110.7625
1853.26642	37097.9625
1856.41926	37065.7625
1859.57004	37056.6625
1862.71876	37063.8625
1865.86542	36983.1625
1869.01003	37001.4625
1872.15258	36904.3625
1875.29308	36890.5625
1878.43152	36854.8625
1881.56792	36824.8625
1884.70227	36813.7625
1887.83457	36819.9625
1890.96482	36712.3625
1894.09304	36667.9625
1897.21921	36729.9625
1900.34335	36662.0625
1903.46544	36616.0625
1906.58551	36604.6625
1909.70353	36568.3625
1912.81953	36573.3625
1915.93349	36494.4625
1919.04543	36448.9625
1922.15534	36416.5625
1925.26322	36333.9625
1928.36908	36301.4625
1931.47292	36224.4625
1934.57473	36166.6625
1937.67453	36089.9625
1940.77232	36010.0625
1943.86808	35928.4625
1946.96184	35851.0625
1950.05358	35759.7625
1953.14331	35655.0625
1956.23103	35599.8625
1959.31675	35498.1625
1962.40046	35345.4625
1965.48217	35317.4625
1968.56188	35193.5625
1971.63959	35094.6625
1974.7153	35045.4625
1977.78901	34887.7625
1980.86073	34765.6625
1983.93046	34695.5625
1986.99819	34568.8625
1990.06394	34523.2625
1993.1277	34415.8625
1996.18947	34345.5625
1999.24925	34294.5625
2002.30706	34223.3625
2005.36288	34116.9625
2008.41672	34030.7625
2011.46859	33927.4625
2014.51848	33833.7625
2017.56639	33742.5625
2020.61233	33705.4625
2023.6563	33614.5625
2026.6983	33490.3625
2029.73833	33471.1625
2032.7764	33358.6625
2035.8125	33336.4625
2038.84664	33222.6625
2041.87881	33193.5625
2044.90903	33160.5625
2047.93729	33098.6625
2050.96359	33116.3625
2053.98794	33057.8625
2057.01034	33095.6625
2060.03078	33011.7625
2063.04927	32945.2625
2066.06582	32904.7625
2069.08042	32910.7625
2072.09307	32928.0625
2075.10378	32902.6625
2078.11255	32872.1625
2081.11938	32863.6625
2084.12426	32800.0625
2087.12722	32789.8625
2090.12824	32751.0625
2093.12732	32813.9625
2096.12447	32810.9625
2099.11969	32824.4625
2102.11299	32888.4625
2105.10435	32826.0625
2108.09379	32864.2625
2111.08131	32905.8625
2114.0669	32921.2625
2117.05057	32974.1625
2120.03233	33027.7625
2123.01216	33010.2625
2125.99008	32995.6625
2128.96609	33033.3625
2131.94018	33150.2625
2134.91236	33166.2625
2137.88263	33211.0625
2140.851	33174.8625
2143.81746	33220.5625
2146.78201	33233.6625
2149.74466	33272.2625
2152.7054	33306.2625
2155.66425	33279.2625
2158.6212	33229.7625
2161.57625	33232.4625
2164.52941	33262.2625
2167.48067	33265.5625
2170.43004	33250.7625
2173.37752	33253.9625
2176.32311	33216.0625
2179.26681	33186.0625
2182.20863	33184.3625
2185.14856	33294.4625
2188.08661	33264.3625
2191.02278	33266.7625
2193.95707	33228.9625
2196.88948	33231.1625
2199.82001	33219.5625
2202.74867	33173.5625
2205.67545	33136.2625
2208.60037	33168.5625
2211.52341	33097.7625
2214.44458	33033.0625
2217.36388	32987.3625
2220.28132	32933.3625
2223.1969	32864.2625
2226.11061	32868.0625
2229.02246	32723.1625
2231.93245	32687.3625
2234.84058	32675.6625
2237.74686	32635.0625
2240.65128	32587.5625
2243.55385	32583.5625
2246.45456	32581.5625
2249.35343	32547.3625
2252.25044	32536.0625
2255.14561	32514.9625
2258.03893	32432.0625
2260.93041	32388.9625
2263.82004	32288.0625
2266.70783	32258.8625
2269.59378	32153.0625
2272.4779	32081.9625
2275.36017	32011.2625
2278.24061	31975.4625
2281.11922	31878.8625
2283.996	31874.6625
2286.87094	31791.2625
2289.74405	31754.5625
2292.61534	31716.6625
2295.4848	31777.3625
2298.35243	31793.9625
2301.21824	31683.0625
2304.08223	31677.0625
2306.94439	31702.4625
2309.80474	31686.9625
2312.66327	31688.3625
2315.51999	31652.8625
2318.37489	31631.4625
2321.22797	31635.4625
2324.07925	31613.2625
2326.92871	31539.8625
2329.77637	31516.0625
2332.62222	31443.0625
2335.46626	31450.2625
2338.3085	31396.4625
2341.14893	31412.0625
2343.98756	31372.5625
2346.8244	31328.0625
2349.65943	31359.7625
2352.49267	31314.5625
2355.32411	31374.3625
2358.15376	31363.7625
2360.98161	31316.4625
2363.80768	31310.6625
2366.63195	31275.4625
2369.45444	31255.1625
2372.27514	31245.4625
2375.09405	31214.6625
2377.91118	31160.0625
2380.72652	31093.7625
2383.54009	31013.1625
2386.35187	30974.5625
2389.16188	30896.9625
2391.97011	30800.1625
2394.77657	30762.3625
2397.58125	30687.6625
2400.38416	30734.6625
2403.18529	30615.7625
2405.98466	30523.7625
2408.78226	30521.9625
2411.57809	30517.3625
2414.37216	30487.4625
2417.16446	30437.4625
2419.955	30388.7625
2422.74378	30439.0625
2425.5308	30388.0625
2428.31606	30426.4625
2431.09956	30386.4625
2433.88131	30288.0625
2436.6613	30266.7625
2439.43954	30312.2625
2442.21603	30296.6625
2444.99077	30281.6625
2447.76377	30265.7625
2450.53501	30263.8625
2453.30451	30240.4625
2456.07226	30229.3625
2458.83827	30182.9625
2461.60254	30167.1625
2464.36507	30092.6625
2467.12586	30107.1625
2469.88492	30059.6625
2472.64224	30075.3625
2475.39782	30085.4625
2478.15167	30123.5625
2480.90379	30094.9625
2483.65417	30118.1625
2486.40283	30135.4625
2489.14976	30161.9625
2491.89497	30102.3625
2494.63845	30133.5625
2497.3802	30162.7625
2500.12024	30158.8625
2502.85855	30076.1625
2505.59514	30077.1625
2508.33002	30041.3625
2511.06318	29998.8625
2513.79462	29927.6625
2516.52435	29912.6625
2519.25237	29826.3625
2521.97867	29765.0625
2524.70327	29833.5625
2527.42616	29787.0625
2530.14734	29778.0625
2532.86681	29720.4625
2535.58458	29712.7625
2538.30065	29678.6625
2541.01501	29663.7625
2543.72768	29619.4625
2546.43864	29664.5625
2549.14791	29608.2625
2551.85548	29529.3625
2554.56136	29507.7625
2557.26554	29433.3625
2559.96803	29387.4625
2562.66883	29356.9625
2565.36794	29351.5625
2568.06536	29308.6625
2570.7611	29266.6625
2573.45514	29198.0625
2576.14751	29201.6625
2578.83819	29137.1625
2581.52719	29149.3625
2584.21451	29096.9625
2586.90015	29157.5625
2589.58411	29051.4625
2592.2664	29031.0625
2594.94701	28981.1625
2597.62594	28973.6625
2600.30321	28932.2625
2602.9788	28901.3625
2605.65273	28836.4625
2608.32498	28864.3625
2610.99557	28833.5625
2613.66449	28855.3625
2616.33175	28836.9625
2618.99734	28866.3625
2621.66128	28804.2625
2624.32355	28764.7625
2626.98416	28730.7625
2629.64311	28644.3625
2632.30041	28710.9625
2634.95605	28645.9625
2637.61004	28617.5625
2640.26238	28566.4625
2642.91306	28574.6625
2645.56209	28509.0625
2648.20948	28514.6625
2650.85521	28507.5625
2653.4993	28508.2625
2656.14175	28476.8625
2658.78255	28486.6625
2661.42171	28498.1625
2664.05923	28543.4625
2666.6951	28546.3625
2669.32934	28534.8625
2671.96194	28519.0625
2674.59291	28521.5625
2677.22224	28508.8625
2679.84993	28542.4625
2682.476	28525.9625
2685.10043	28519.7625
2687.72324	28519.6625
2690.34441	28533.9625
2692.96396	28517.6625
2695.58188	28501.2625
2698.19818	28508.3625
2700.81285	28541.1625
2703.4259	28482.2625
2706.03733	28491.5625
2708.64714	28529.1625
2711.25533	28564.4625
2713.86191	28563.7625
2716.46687	28570.3625
2719.07021	28558.9625
2721.67194	28618.7625
2724.27206	28571.6625
2726.87057	28588.8625
2729.46747	28620.2625
2732.06276	28657.0625
2734.65644	28647.5625
2737.24852	28643.7625
2739.83899	28573.5625
2742.42786	28570.0625
2745.01513	28515.7625
2747.60079	28447.8625
2750.18486	28393.3625
2752.76733	28420.8625
2755.3482	28376.1625
2757.92747	28387.5625
2760.50515	28322.3625
2763.08123	28315.5625
2765.65573	28314.6625
2768.22863	28329.0625
2770.79994	28275.7625
2773.36967	28303.2625
2775.9378	28285.1625
2778.50435	28266.9625
2781.06932	28204.6625
2783.6327	28173.4625
2786.1945	28154.9625
2788.75471	28144.2625
2791.31335	28064.4625
2793.87041	28050.1625
2796.42589	28002.3625
2798.97979	27978.3625
2801.53212	27965.3625
2804.08288	27887.4625
2806.63206	27803.8625
2809.17967	27762.6625
2811.72571	27719.6625
2814.27018	27696.6625
2816.81308	27611.9625
2819.35442	27576.8625
2821.89419	27517.5625
2824.43239	27482.0625
2826.96904	27423.6625
2829.50412	27419.8625
2832.03763	27370.7625
2834.56959	27331.9625
2837.1	27323.0625
2839.62884	27330.0625
2842.15613	27321.3625
2844.68186	27350.5625
2847.20604	27289.5625
2849.72867	27237.4625
2852.24974	27202.0625
2854.76927	27199.7625
2857.28724	27153.1625
2859.80367	27126.6625
2862.31855	27098.8625
2864.83189	27062.8625
2867.34368	27037.1625
2869.85393	27037.9625
2872.36264	26991.1625
2874.8698	26974.0625
2877.37543	26982.2625
2879.87952	26963.6625
2882.38207	26930.9625
2884.88308	26896.7625
2887.38256	26933.2625
2889.88051	26893.3625
2892.37692	26933.1625
2894.8718	26965.9625
2897.36515	27051.1625
2899.85698	27016.9625
2902.34727	27072.7625
2904.83604	27053.9625
2907.32328	27105.2625
2909.809	27106.1625
2912.29319	27141.8625
2914.77587	27143.1625
2917.25702	27127.7625
2919.73665	27124.6625
2922.21476	27118.9625
2924.69136	27034.7625
2927.16644	27021.0625
2929.64	27011.0625
2932.11205	26984.0625
2934.58258	26953.9625
2937.05161	26976.8625
2939.51912	26973.1625
2941.98513	26950.1625
2944.44962	26921.9625
2946.91261	26841.8625
2949.37409	26907.7625
2951.83407	26929.2625
2954.29254	26907.6625
2956.74951	26913.2625
2959.20498	26946.7625
2961.65895	26884.4625
2964.11142	26920.0625
2966.56239	26885.6625
2969.01186	26881.0625
2971.45984	26809.3625
2973.90632	26789.8625
2976.35131	26784.1625
2978.7948	26731.2625
2981.23681	26751.1625
2983.67732	26648.8625
2986.11635	26650.3625
2988.55388	26565.1625
2990.98993	26529.3625
2993.4245	26480.9625
2995.85758	26435.2625
2998.28917	26359.7625
3000.71928	26349.3625
3003.14791	26305.8625
3005.57506	26300.4625
3008.00073	26209.7625
3010.42493	26189.3625
3012.84764	26156.4625
3015.26888	26133.1625
3017.68865	26093.1625
3020.10694	26073.9625
3022.52376	25991.2625
3024.9391	25961.7625
3027.35298	25935.0625
3029.76539	25958.2625
3032.17632	25965.2625
3034.5858	25922.5625
3036.9938	25893.9625
3039.40034	25865.9625
3041.80542	25808.2625
3044.20903	25790.5625
3046.61118	25762.4625
3049.01187	25697.5625
3051.4111	25699.3625
3053.80888	25641.9625
3056.20519	25604.3625
3058.60005	25544.8625
3060.99345	25516.3625
3063.3854	25451.0625
3065.7759	25408.5625
3068.16494	25372.0625
3070.55254	25286.6625
3072.93868	25230.5625
3075.32338	25162.9625
3077.70662	25121.2625
3080.08842	25039.2625
3082.46878	25061.7625
3084.84769	25048.9625
3087.22515	24993.4625
3089.60118	25008.7625
3091.97576	24998.0625
3094.3489	24990.3625
3096.72061	24968.1625
3099.09087	25017.6625
3101.4597	24940.1625
3103.82709	24983.0625
3106.19305	24940.3625
3108.55757	24964.8625
3110.92066	24926.8625
3113.28232	24917.7625
3115.64255	24846.3625
3118.00134	24816.5625
3120.35871	24823.7625
3122.71466	24738.2625
3125.06917	24694.2625
3127.42226	24625.3625
3129.77393	24640.7625
3132.12417	24614.3625
3134.47299	24552.7625
3136.82039	24518.3625
3139.16636	24494.2625
3141.51092	24518.5625
3143.85406	24550.2625
3146.19579	24514.0625
3148.53609	24508.0625
3150.87499	24558.6625
3153.21246	24513.4625
3155.54853	24563.5625
3157.88318	24562.6625
3160.21642	24583.0625
3162.54826	24579.3625
3164.87868	24537.9625
3167.2077	24538.9625
3169.5353	24527.2625
3171.86151	24541.4625
3174.18631	24507.0625
3176.5097	24469.6625
3178.83169	24422.6625
3181.15228	24426.5625
3183.47147	24342.7625
3185.78926	24387.4625
3188.10565	24285.8625
3190.42065	24264.4625
3192.73424	24281.4625
3195.04645	24218.8625
3197.35725	24211.5625
3199.66667	24202.2625
3201.97469	24175.5625
3204.28132	24137.9625
3206.58656	24227.2625
3208.8904	24187.5625
3211.19287	24212.0625
3213.49394	24241.6625
3215.79363	24199.1625
3218.09193	24229.7625
3220.38884	24215.9625
3222.68438	24284.0625
3224.97853	24238.2625
3227.2713	24251.2625
3229.56269	24238.2625
3231.8527	24251.9625
3234.14133	24162.6625
3236.42858	24109.2625
3238.71446	24101.1625
3240.99896	24028.4625
3243.28209	23996.8625
3245.56384	23975.8625
3247.84423	24001.7625
3250.12324	23977.1625
3252.40088	23898.2625
3254.67715	23898.9625
3256.95205	23850.3625
3259.22558	23873.6625
3261.49775	23905.9625
3263.76855	23887.2625
3266.03799	23885.8625
3268.30606	23856.7625
3270.57277	23799.8625
3272.83812	23773.2625
3275.10211	23732.1625
3277.36474	23651.1625
3279.62601	23650.1625
3281.88593	23587.9625
3284.14448	23571.2625
3286.40168	23640.2625
3288.65753	23632.0625
3290.91202	23563.2625
3293.16516	23586.1625
3295.41695	23505.0625
3297.66738	23402.6625
3299.91647	23290.8625
3302.16421	23156.7625
3304.4106	23021.5625
3306.65564	22873.8625
3308.89933	22706.0625
3311.14169	22572.6625
3313.38269	22403.3625
3315.62236	22328.1625
3317.86068	22152.4625
3320.09766	22026.7625
3322.3333	21870.9625
3324.5676	21768.5625
3326.80056	21495.8625
3329.03219	21352.4625
3331.26248	3.3625
3333.49143	1.4625
3335.71905	0.5625
