Data from AgNPs_UA_2uM_CRN_0uM_R6G_10uM_Q_RamanShift__23__13-27-51-924.txt Node

Date: Wed Jul 13 13:27:51 BST 2022
User: TCL
Spectrometer: QEP01345
Trigger mode: 4
Integration Time (sec): 7.000000E0
Scans to average: 10
Electric dark correction enabled: true
Nonlinearity correction enabled: false
Boxcar width: 0
XAxis mode: Raman Shifts
Number of Pixels in Spectrum: 1044
>>>>>Begin Spectral Data<<<<<
46.04893	-1.6
50.45542	-3
54.85868	-0.3
59.25871	-1.4
63.6555	98.6
68.04907	104.8
72.43941	108.5
76.82654	112.9
81.21044	120.6
85.59113	127.7
89.96862	131.7
94.34289	127.9
98.71396	136.9
103.08183	140.9
107.4465	144.7
111.80798	144.9
116.16626	155.1
120.52136	160.9
124.87327	162.1
129.222	169.5
133.56755	180.1
137.90993	189
142.24913	208.3
146.58517	228
150.91804	267
155.24774	314.4
159.57429	384.4
163.89768	490.5
168.21792	646.3
172.53501	878.7
176.84895	1223.9
181.15975	1690.3
185.46741	2367.1
189.77193	3269.8
194.07331	4359.7
198.37157	5579.2
202.6667	6861.3
206.9587	8133
211.24758	9382.7
215.53334	10631.3
219.81599	11983.7
224.09553	13545.5
228.37195	15164.3
232.64527	16980.5
236.91549	18903.4
241.18261	20825.5
245.44663	22538.8
249.70755	24043.4
253.96539	25404.5
258.22014	26574.9
262.4718	27595.4
266.72039	28226.6
270.96589	28539.2
275.20832	28496.5
279.44768	28399.1
283.68397	28145.6
287.91719	27902.9
292.14735	27756.7
296.37445	27735.8
300.59849	27865.8
304.81948	28032.6
309.03742	28079.9
313.25231	27942
317.46415	27432.3
321.67296	26836.4
325.87872	26382.2
330.08145	26283.1
334.28114	26367.5
338.47781	26616.1
342.67145	27038.3
346.86207	27565.6
351.04966	28195.2
355.23424	28858
359.4158	29364.3
363.59435	29758.6
367.76989	30053.4
371.94243	30232.3
376.11196	30425
380.27849	30492.6
384.44203	30672.1
388.60257	30827.9
392.76012	31058.5
396.91468	31449.6
401.06626	31993.7
405.21485	32314.9
409.36047	32209
413.50311	31808.9
417.64277	31540.1
421.77947	31599.2
425.9132	31754.7
430.04396	32029.3
434.17176	32281.8
438.2966	32788.3
442.41849	33553.5
446.53742	34647
450.6534	35746.6
454.76644	36444.5
458.87653	36557.4
462.98368	36093.4
467.08789	35417.3
471.18916	34690.9
475.2875	34064.3
479.38291	33654.9
483.4754	33358.8
487.56496	33040.8
491.6516	32624.1
495.73531	32307.2
499.81612	32190.5
503.89401	32291
507.96899	32406.9
512.04106	32392.9
516.11023	32317.3
520.1765	32281.4
524.23987	32258.3
528.30034	32162.8
532.35792	31874.7
536.41261	31522.7
540.46441	31225
544.51333	31215.9
548.55936	31556.4
552.60252	32163.8
556.64279	32771.3
560.6802	33210.6
564.71473	33511.1
568.7464	34130.1
572.7752	34749.6
576.80114	35088
580.82422	35539.8
584.84444	36288.8
588.86181	37245.3
592.87633	38539.1
596.888	39150.7
600.89682	39208.7
604.9028	40247.4
608.90594	43410.2
612.90624	45870.1
616.90371	42122.1
620.89834	36296.8
624.89015	34458.3
628.87913	34423
632.86528	34147.5
636.84862	33571.4
640.82913	32807.6
644.80683	32060.5
648.78172	31559.4
652.75379	31588.9
656.72306	32104.1
660.68952	32599
664.65319	32373.4
668.61405	31914.5
672.57211	31734.3
676.52738	31708.2
680.47986	31621.8
684.42955	31522.3
688.37646	31560.5
692.32058	31740.1
696.26192	32113
700.20048	32412.1
704.13626	32587.7
708.06928	32458.2
711.99952	32229.9
715.927	32192.2
719.85171	32246.9
723.77365	32114
727.69284	31819.7
731.60928	31658.6
735.52295	31753.5
739.43388	31900.9
743.34206	32027.3
747.24749	32149.4
751.15017	32460.2
755.05012	33031.6
758.94733	33901.4
762.8418	35739
766.73354	38335.9
770.62254	40461.6
774.50882	40564.2
778.39237	38572.6
782.27321	36022.5
786.15132	33937.4
790.02671	32846.1
793.89938	32312.5
797.76935	32142.5
801.6366	32068
805.50115	31993.7
809.36299	31838.7
813.22213	31721.7
817.07857	31570.4
820.93231	31556.2
824.78336	31589.1
828.63172	31632.4
832.47738	31768.8
836.32036	31842.5
840.16066	32032.9
843.99827	32170.8
847.8332	32032.5
851.66546	31887.3
855.49504	31815.2
859.32195	31796.6
863.1462	31637.6
866.96777	31493.8
870.78668	31422.7
874.60293	31436.9
878.41652	31498.4
882.22745	31690.2
886.03573	31695.2
889.84136	31665.2
893.64433	31460.7
897.44466	31377.1
901.24235	31340.6
905.0374	31252.2
908.8298	31207.4
912.61957	31315.5
916.40671	31592.2
920.19121	32094.3
923.97308	32563.1
927.75233	32806.3
931.52895	32687.5
935.30295	32223.7
939.07433	31626.1
942.84309	31291.8
946.60924	31150.9
950.37278	31079.3
954.13371	30860.7
957.89203	30638.8
961.64774	30565.3
965.40086	30455.6
969.15137	30424.6
972.89929	30297.7
976.64461	30243.8
980.38733	30366.1
984.12747	30555.8
987.86502	30888
991.59999	31462.7
995.33237	32330.3
999.06217	33679.7
1002.78939	34947.4
1006.51404	35445.6
1010.23611	35529.2
1013.95561	35707.9
1017.67255	35759.6
1021.38692	35448.9
1025.09872	35311.2
1028.80796	36090.1
1032.51465	37625
1036.21877	38737.5
1039.92035	38588.5
1043.61937	37582.3
1047.31584	36160.8
1051.00976	34724.3
1054.70114	34043.8
1058.38998	33837
1062.07627	33877.2
1065.76003	33827.5
1069.44126	33971.9
1073.11995	34247.7
1076.79611	34529.2
1080.46974	34820.2
1084.14085	35166.6
1087.80943	35566.5
1091.47549	35574.5
1095.13903	35202.5
1098.80005	34665.4
1102.45857	34178.5
1106.11456	34021.7
1109.76805	34113.5
1113.41903	34438.7
1117.06751	34780
1120.71348	35231.6
1124.35696	35503.5
1127.99793	35733.8
1131.63641	35688.8
1135.2724	35353.9
1138.90589	35070.3
1142.5369	34872.3
1146.16542	34812.1
1149.79145	34978.4
1153.415	35234.4
1157.03607	35695.5
1160.65467	36406.2
1164.27079	37663.8
1167.88443	39447.5
1171.49561	42040.3
1175.10432	45538.2
1178.71056	49663.6
1182.31434	53243.6
1185.91565	54618.2
1189.51451	53748.9
1193.11091	51301.4
1196.70485	48637.6
1200.29634	46438.1
1203.88538	44826.8
1207.47197	43505.4
1211.05612	42714
1214.63782	42356
1218.21708	42505
1221.79391	43016.7
1225.36829	43246.1
1228.94024	42684
1232.50976	41562.3
1236.07685	40607.7
1239.6415	40189.2
1243.20374	40141.3
1246.76355	40388.1
1250.32093	40971.8
1253.8759	41912.6
1257.42845	43042.4
1260.97859	44176.3
1264.52631	45098.4
1268.07163	46207.3
1271.61453	47489.4
1275.15503	49106.1
1278.69312	50701.7
1282.22882	52037.7
1285.76211	53142.7
1289.29301	54235.9
1292.82151	55731
1296.34761	57872.6
1299.87133	60996.2
1303.39266	64951.8
1306.9116	69776.5
1310.42815	74680.5
1313.94233	77730.8
1317.45412	77486.2
1320.96354	74987.2
1324.47058	72024.7
1327.97525	69348.4
1331.47754	67542.3
1334.97747	66699.8
1338.47502	66456
1341.97022	66555.3
1345.46305	66218
1348.95352	65814.1
1352.44163	65737
1355.92738	67342.5
1359.41078	70818.3
1362.89183	73661.3
1366.37053	71817
1369.84688	65494.3
1373.32088	58386
1376.79254	53789.9
1380.26186	51848.2
1383.72883	51417.2
1387.19347	51323.5
1390.65578	50933.8
1394.11575	51007.2
1397.57339	51960.9
1401.0287	53342.9
1404.48168	54501.2
1407.93234	55071.7
1411.38068	54860
1414.82669	53806.4
1418.27039	51894.7
1421.71177	49675.8
1425.15083	47979.1
1428.58758	47155.3
1432.02203	47420.5
1435.45416	48352.5
1438.88399	49310.5
1442.31151	50235.7
1445.73673	50924
1449.15965	51431.8
1452.58027	51558.3
1455.9986	51360.6
1459.41463	51338.3
1462.82837	51882.4
1466.23982	52820.7
1469.64898	53784.7
1473.05586	54428.1
1476.46045	54689.4
1479.86276	54653.1
1483.26279	54393.3
1486.66054	54329.9
1490.05602	54434.5
1493.44922	54704
1496.84016	54895.1
1500.22882	55370
1503.61521	56286.5
1506.99934	57843.1
1510.38121	59524.4
1513.76081	60096.3
1517.13816	58916.5
1520.51324	56613.6
1523.88607	54535.5
1527.25665	53357.3
1530.62498	52768.5
1533.99105	52513.4
1537.35488	52302.3
1540.71647	51960.1
1544.07581	51325.5
1547.4329	50554.2
1550.78776	49698.3
1554.14038	49013
1557.49077	48488.9
1560.83892	48230.5
1564.18484	48125.3
1567.52853	48048.2
1570.86999	48147.9
1574.20922	48497.3
1577.54624	48690.6
1580.88103	48531.9
1584.2136	48828
1587.54395	50263.7
1590.87208	53228.9
1594.19801	57532.7
1597.52172	61898.2
1600.84321	63520.9
1604.16251	61213.7
1607.47959	56310.5
1610.79447	50963.9
1614.10715	46326.4
1617.41763	42929.7
1620.7259	40722.3
1624.03199	39815.7
1627.33587	40011.7
1630.63757	41273.8
1633.93707	43821
1637.23439	47576.1
1640.52951	52537.2
1643.82246	57882.5
1647.11321	61364.7
1650.40179	60989.1
1653.68819	56440.3
1656.97241	49469.1
1660.25446	43128.1
1663.53433	38587.9
1666.81203	35760.2
1670.08756	33969.9
1673.36092	32817.4
1676.63211	31999.8
1679.90115	31435.6
1683.16801	31034.2
1686.43272	30738.5
1689.69527	30498.9
1692.95567	30344.6
1696.2139	30261.4
1699.46999	30185.9
1702.72392	30132
1705.97571	30068.9
1709.22535	30066.6
1712.47284	30077.4
1715.71819	30021.6
1718.96139	29996.4
1722.20246	29877.4
1725.44139	29789.2
1728.67818	29670.2
1731.91284	29540.3
1735.14537	29402
1738.37576	29303.5
1741.60403	29167.4
1744.83017	29150.2
1748.05418	29095
1751.27607	29050.7
1754.49584	28988.1
1757.71349	28983.8
1760.92903	28954
1764.14244	28910.7
1767.35375	28915
1770.56294	28867.7
1773.77002	28851.2
1776.97499	28807.8
1780.17785	28786.7
1783.37861	28757.1
1786.57727	28774.4
1789.77382	28718.8
1792.96828	28708.1
1796.16064	28655.2
1799.3509	28611.6
1802.53907	28570.6
1805.72514	28547.8
1808.90913	28497.7
1812.09102	28451.2
1815.27083	28383.5
1818.44856	28330.5
1821.6242	28295.7
1824.79776	28242.5
1827.96924	28230.4
1831.13864	28200.6
1834.30597	28176.6
1837.47122	28173.8
1840.6344	28152.9
1843.7955	28186.5
1846.95454	28178.4
1850.11151	28111.2
1853.26642	28167.7
1856.41926	28105.4
1859.57004	28122.1
1862.71876	28157.4
1865.86542	28073.8
1869.01003	28156.7
1872.15258	28072.4
1875.29308	28130.8
1878.43152	28113
1881.56792	28100.3
1884.70227	28072.2
1887.83457	28121.2
1890.96482	28094.4
1894.09304	28069.6
1897.21921	28097.2
1900.34335	28092.8
1903.46544	28064.4
1906.58551	28052.6
1909.70353	28074.5
1912.81953	28056.3
1915.93349	28043.2
1919.04543	27961.4
1922.15534	27925.7
1925.26322	27924.8
1928.36908	27810.6
1931.47292	27849.1
1934.57473	27777.8
1937.67453	27732.3
1940.77232	27640.6
1943.86808	27529.3
1946.96184	27478.4
1950.05358	27427.4
1953.14331	27293.1
1956.23103	27256.3
1959.31675	27193.6
1962.40046	27153.4
1965.48217	27018
1968.56188	26955.8
1971.63959	26876.9
1974.7153	26817.7
1977.78901	26708.7
1980.86073	26643
1983.93046	26577.2
1986.99819	26478.8
1990.06394	26413.9
1993.1277	26400.6
1996.18947	26271.5
1999.24925	26267
2002.30706	26193.9
2005.36288	26139.3
2008.41672	26057.6
2011.46859	25945.4
2014.51848	25918.8
2017.56639	25829.2
2020.61233	25862
2023.6563	25762.8
2026.6983	25710.9
2029.73833	25694.1
2032.7764	25664
2035.8125	25591.4
2038.84664	25591
2041.87881	25589
2044.90903	25519.6
2047.93729	25515.9
2050.96359	25484.7
2053.98794	25444.5
2057.01034	25461.7
2060.03078	25397
2063.04927	25372
2066.06582	25367.8
2069.08042	25319.2
2072.09307	25348.9
2075.10378	25307.9
2078.11255	25269.5
2081.11938	25242.6
2084.12426	25184.7
2087.12722	25183
2090.12824	25144.8
2093.12732	25157.5
2096.12447	25197
2099.11969	25214.3
2102.11299	25246.9
2105.10435	25204.2
2108.09379	25205.2
2111.08131	25251.8
2114.0669	25285.1
2117.05057	25297.5
2120.03233	25308.9
2123.01216	25298.7
2125.99008	25314.3
2128.96609	25348.1
2131.94018	25388.7
2134.91236	25445.4
2137.88263	25449.9
2140.851	25478.9
2143.81746	25538.5
2146.78201	25518.9
2149.74466	25493
2152.7054	25537.1
2155.66425	25530.6
2158.6212	25492.3
2161.57625	25524.9
2164.52941	25513.2
2167.48067	25504.1
2170.43004	25546.8
2173.37752	25472.2
2176.32311	25513.1
2179.26681	25505.4
2182.20863	25516.7
2185.14856	25534
2188.08661	25599.2
2191.02278	25585.4
2193.95707	25574.8
2196.88948	25581.6
2199.82001	25626.3
2202.74867	25583
2205.67545	25545.5
2208.60037	25567
2211.52341	25570.8
2214.44458	25562.3
2217.36388	25555.7
2220.28132	25472.2
2223.1969	25463.6
2226.11061	25418.4
2229.02246	25370.6
2231.93245	25382.9
2234.84058	25332.1
2237.74686	25243.2
2240.65128	25263.6
2243.55385	25227
2246.45456	25199
2249.35343	25200.9
2252.25044	25172.4
2255.14561	25189.3
2258.03893	25109
2260.93041	25067.2
2263.82004	24993.4
2266.70783	24919.8
2269.59378	24886.2
2272.4779	24797.2
2275.36017	24741.7
2278.24061	24689.6
2281.11922	24677.7
2283.996	24614
2286.87094	24633.4
2289.74405	24592.1
2292.61534	24586.9
2295.4848	24621.7
2298.35243	24646.6
2301.21824	24642.7
2304.08223	24633.3
2306.94439	24679.3
2309.80474	24696.8
2312.66327	24769.4
2315.51999	24747.9
2318.37489	24766.5
2321.22797	24752.8
2324.07925	24762.7
2326.92871	24743.8
2329.77637	24742.6
2332.62222	24682.6
2335.46626	24727.9
2338.3085	24735.5
2341.14893	24738.2
2343.98756	24766.8
2346.8244	24772.4
2349.65943	24819.2
2352.49267	24807.4
2355.32411	24784.8
2358.15376	24799.9
2360.98161	24737.2
2363.80768	24707.2
2366.63195	24665.5
2369.45444	24625.7
2372.27514	24624.9
2375.09405	24542.1
2377.91118	24490.1
2380.72652	24464.5
2383.54009	24373.8
2386.35187	24359.4
2389.16188	24284.4
2391.97011	24231.8
2394.77657	24231
2397.58125	24188.1
2400.38416	24174.5
2403.18529	24102.1
2405.98466	24042.2
2408.78226	24027.9
2411.57809	23932.5
2414.37216	23937.1
2417.16446	23933.3
2419.955	23895.7
2422.74378	23856.7
2425.5308	23831.2
2428.31606	23828.9
2431.09956	23830.6
2433.88131	23782.5
2436.6613	23795.2
2439.43954	23783.3
2442.21603	23807.9
2444.99077	23778.9
2447.76377	23800.3
2450.53501	23791.2
2453.30451	23785.4
2456.07226	23764.2
2458.83827	23782.4
2461.60254	23815.3
2464.36507	23727.5
2467.12586	23714
2469.88492	23751.9
2472.64224	23735
2475.39782	23782.7
2478.15167	23859
2480.90379	23847
2483.65417	23880.6
2486.40283	23923.3
2489.14976	23953.8
2491.89497	23925.7
2494.63845	23983
2497.3802	23978.7
2500.12024	24007.1
2502.85855	23993.7
2505.59514	23986.9
2508.33002	23930.8
2511.06318	23946.2
2513.79462	23882.8
2516.52435	23818.9
2519.25237	23793.2
2521.97867	23764.4
2524.70327	23798.7
2527.42616	23758.9
2530.14734	23792.5
2532.86681	23780.7
2535.58458	23790.5
2538.30065	23754.1
2541.01501	23754
2543.72768	23723.8
2546.43864	23776.6
2549.14791	23706.8
2551.85548	23674.6
2554.56136	23669.8
2557.26554	23643.3
2559.96803	23586.5
2562.66883	23594.1
2565.36794	23582
2568.06536	23574.5
2570.7611	23554.7
2573.45514	23575.7
2576.14751	23531.1
2578.83819	23541.8
2581.52719	23589.7
2584.21451	23550.5
2586.90015	23576.1
2589.58411	23566.8
2592.2664	23589.1
2594.94701	23542.5
2597.62594	23575.4
2600.30321	23561.8
2602.9788	23558.5
2605.65273	23513.9
2608.32498	23548.8
2610.99557	23529.4
2613.66449	23542.9
2616.33175	23561.3
2618.99734	23641.4
2621.66128	23624.1
2624.32355	23629.3
2626.98416	23654.6
2629.64311	23668.4
2632.30041	23642.8
2634.95605	23630.5
2637.61004	23578.2
2640.26238	23543.1
2642.91306	23517.1
2645.56209	23565.8
2648.20948	23496.2
2650.85521	23432
2653.4993	23421.4
2656.14175	23421.4
2658.78255	23444.3
2661.42171	23458.1
2664.05923	23496
2666.6951	23528.8
2669.32934	23528.1
2671.96194	23551.8
2674.59291	23543.1
2677.22224	23520
2679.84993	23549.5
2682.476	23501.2
2685.10043	23541.1
2687.72324	23475.8
2690.34441	23474.4
2692.96396	23451.3
2695.58188	23497
2698.19818	23438.1
2700.81285	23444.3
2703.4259	23414.5
2706.03733	23447.5
2708.64714	23485
2711.25533	23490.4
2713.86191	23479.8
2716.46687	23512.5
2719.07021	23532.1
2721.67194	23544.3
2724.27206	23495.8
2726.87057	23493.1
2729.46747	23557.8
2732.06276	23630.7
2734.65644	23606.9
2737.24852	23640.7
2739.83899	23580.2
2742.42786	23572.2
2745.01513	23513.4
2747.60079	23496.3
2750.18486	23480.9
2752.76733	23443.3
2755.3482	23508.5
2757.92747	23492.6
2760.50515	23414.8
2763.08123	23457
2765.65573	23463.4
2768.22863	23489.5
2770.79994	23444.1
2773.36967	23477.8
2775.9378	23466
2778.50435	23506.3
2781.06932	23487.3
2783.6327	23499.6
2786.1945	23452.6
2788.75471	23485.3
2791.31335	23381.6
2793.87041	23407.1
2796.42589	23350.6
2798.97979	23336.2
2801.53212	23340.2
2804.08288	23315
2806.63206	23228.8
2809.17967	23182
2811.72571	23156
2814.27018	23115.6
2816.81308	23108
2819.35442	23070.6
2821.89419	23039.1
2824.43239	22999.5
2826.96904	23000.6
2829.50412	22991.4
2832.03763	22927.6
2834.56959	22933
2837.1	22932.6
2839.62884	22932.6
2842.15613	22922.4
2844.68186	22961.7
2847.20604	22936
2849.72867	22896.7
2852.24974	22880.8
2854.76927	22857.8
2857.28724	22781.1
2859.80367	22796.9
2862.31855	22778.1
2864.83189	22761
2867.34368	22725.2
2869.85393	22765.5
2872.36264	22706.6
2874.8698	22653.1
2877.37543	22666
2879.87952	22687.1
2882.38207	22701.7
2884.88308	22689.2
2887.38256	22682
2889.88051	22714.3
2892.37692	22728.9
2894.8718	22780.8
2897.36515	22813.6
2899.85698	22838.5
2902.34727	22845.4
2904.83604	22890.3
2907.32328	22978.8
2909.809	22950.4
2912.29319	23004.5
2914.77587	22976.7
2917.25702	22975.1
2919.73665	22968.9
2922.21476	22960.7
2924.69136	22889.9
2927.16644	22901.6
2929.64	22827
2932.11205	22855
2934.58258	22772.7
2937.05161	22813.8
2939.51912	22809.4
2941.98513	22800.9
2944.44962	22803.9
2946.91261	22729.5
2949.37409	22771.7
2951.83407	22760.9
2954.29254	22776.2
2956.74951	22783.9
2959.20498	22785
2961.65895	22767.4
2964.11142	22767.4
2966.56239	22709
2969.01186	22739.5
2971.45984	22638.2
2973.90632	22643.9
2976.35131	22586.6
2978.7948	22579
2981.23681	22518.5
2983.67732	22472.9
2986.11635	22424.4
2988.55388	22389.1
2990.98993	22356.8
2993.4245	22317.6
2995.85758	22261.6
2998.28917	22188.1
3000.71928	22172.7
3003.14791	22122.6
3005.57506	22128.9
3008.00073	22039.4
3010.42493	22010.3
3012.84764	21934.1
3015.26888	22006.1
3017.68865	21926.4
3020.10694	21900.1
3022.52376	21831
3024.9391	21833.7
3027.35298	21812.3
3029.76539	21784.9
3032.17632	21807.8
3034.5858	21765
3036.9938	21773.7
3039.40034	21769.2
3041.80542	21739.9
3044.20903	21694
3046.61118	21716.7
3049.01187	21669.2
3051.4111	21671.9
3053.80888	21586.2
3056.20519	21582.8
3058.60005	21526.3
3060.99345	21511.6
3063.3854	21450.9
3065.7759	21378.8
3068.16494	21363.3
3070.55254	21251.2
3072.93868	21213.2
3075.32338	21129.8
3077.70662	21101.9
3080.08842	21065.7
3082.46878	21063.1
3084.84769	21005.2
3087.22515	21021
3089.60118	21019
3091.97576	21015.6
3094.3489	20975.5
3096.72061	20977
3099.09087	20998.7
3101.4597	20976.2
3103.82709	20955.2
3106.19305	20926.7
3108.55757	20966
3110.92066	20922.2
3113.28232	20899.3
3115.64255	20908.7
3118.00134	20856
3120.35871	20817.1
3122.71466	20786.2
3125.06917	20740
3127.42226	20698.6
3129.77393	20736.3
3132.12417	20665.4
3134.47299	20620
3136.82039	20583.1
3139.16636	20590.2
3141.51092	20611.3
3143.85406	20625.5
3146.19579	20603.6
3148.53609	20617.5
3150.87499	20620.8
3153.21246	20613.3
3155.54853	20663.7
3157.88318	20619.8
3160.21642	20688.5
3162.54826	20647.3
3164.87868	20639.5
3167.2077	20604.3
3169.5353	20599.7
3171.86151	20595.2
3174.18631	20586.2
3176.5097	20585.9
3178.83169	20551.9
3181.15228	20533.6
3183.47147	20536.8
3185.78926	20493.7
3188.10565	20503.9
3190.42065	20503.9
3192.73424	20471.8
3195.04645	20433
3197.35725	20430.7
3199.66667	20412.3
3201.97469	20428
3204.28132	20424.8
3206.58656	20468.4
3208.8904	20483.2
3211.19287	20462.3
3213.49394	20440.7
3215.79363	20452.6
3218.09193	20446.8
3220.38884	20435
3222.68438	20488.5
3224.97853	20525.9
3227.2713	20528.7
3229.56269	20529.1
3231.8527	20533.2
3234.14133	20454.3
3236.42858	20456.1
3238.71446	20442.8
3240.99896	20343.3
3243.28209	20355.8
3245.56384	20336.1
3247.84423	20357.8
3250.12324	20354.1
3252.40088	20283.1
3254.67715	20278
3256.95205	20247.9
3259.22558	20256.5
3261.49775	20246.4
3263.76855	20268.7
3266.03799	20274
3268.30606	20238.6
3270.57277	20228.4
3272.83812	20162.9
3275.10211	20146.3
3277.36474	20092.7
3279.62601	20122.3
3281.88593	20032.7
3284.14448	20042
3286.40168	20108.1
3288.65753	20061.9
3290.91202	20071.7
3293.16516	20054.6
3295.41695	19998.8
3297.66738	19914.7
3299.91647	19846.7
3302.16421	19735.9
3304.4106	19603.1
3306.65564	19492.9
3308.89933	19372.4
3311.14169	19248.2
3313.38269	19105.2
3315.62236	19013.6
3317.86068	18912.2
3320.09766	18807.4
3322.3333	18655.7
3324.5676	18598.9
3326.80056	18361.8
3329.03219	18249.2
3331.26248	3.4
3333.49143	1.7
3335.71905	1.2
