Data from AgNPs_UA_0uM_CRN_0uM_R6G_10uM_Q_RamanShift__3__11-21-58-748.txt Node

Date: Wed Jul 13 11:21:58 BST 2022
User: TCL
Spectrometer: QEP01345
Trigger mode: 4
Integration Time (sec): 7.000000E0
Scans to average: 10
Electric dark correction enabled: true
Nonlinearity correction enabled: false
Boxcar width: 0
XAxis mode: Raman Shifts
Number of Pixels in Spectrum: 1044
>>>>>Begin Spectral Data<<<<<
46.04893	1.1
50.45542	-1.1
54.85868	-0.6
59.25871	0.2
63.6555	43.4
68.04907	50.2
72.43941	53.3
76.82654	54.9
81.21044	60.1
85.59113	63
89.96862	70.2
94.34289	68.4
98.71396	68.3
103.08183	74.9
107.4465	76
111.80798	77.5
116.16626	78.7
120.52136	77.1
124.87327	79.7
129.222	80.1
133.56755	79.8
137.90993	93.8
142.24913	93.6
146.58517	103.2
150.91804	112.2
155.24774	124.2
159.57429	150.7
163.89768	183.1
168.21792	233.3
172.53501	300.8
176.84895	416.2
181.15975	566.7
185.46741	796.6
189.77193	1100.8
194.07331	1492.2
198.37157	1936.7
202.6667	2441.8
206.9587	2947.2
211.24758	3460.5
215.53334	4006.2
219.81599	4594.2
224.09553	5249.8
228.37195	5982.3
232.64527	6841.7
236.91549	7702.5
241.18261	8605.7
245.44663	9518.9
249.70755	10318.4
253.96539	11026.6
258.22014	11582.1
262.4718	11956.3
266.72039	12097.3
270.96589	12021.7
275.20832	11731.4
279.44768	11271.9
283.68397	10708.6
287.91719	10131.6
292.14735	9513.2
296.37445	8958.3
300.59849	8479.3
304.81948	8099.1
309.03742	7761.2
313.25231	7406.9
317.46415	6947.6
321.67296	6430.6
325.87872	5986.5
330.08145	5695.5
334.28114	5566
338.47781	5513.2
342.67145	5538.3
346.86207	5603.2
351.04966	5757.9
355.23424	5894.7
359.4158	5974.1
363.59435	5934.8
367.76989	5845.9
371.94243	5753.4
376.11196	5695.6
380.27849	5631.4
384.44203	5587.8
388.60257	5551.8
392.76012	5564.9
396.91468	5608.5
401.06626	5695.1
405.21485	5732.7
409.36047	5635.9
413.50311	5485.7
417.64277	5309
421.77947	5223.6
425.9132	5180.8
430.04396	5170.1
434.17176	5189.8
438.2966	5225.7
442.41849	5280.1
446.53742	5353.4
450.6534	5377.1
454.76644	5390.7
458.87653	5431.8
462.98368	5410.4
467.08789	5377.5
471.18916	5341.8
475.2875	5280.8
479.38291	5215.3
483.4754	5186.1
487.56496	5168.5
491.6516	5141.9
495.73531	5142.2
499.81612	5153.7
503.89401	5191.5
507.96899	5247.2
512.04106	5311.7
516.11023	5379.9
520.1765	5454
524.23987	5496.9
528.30034	5538.3
532.35792	5568.2
536.41261	5588.5
540.46441	5573.3
544.51333	5593.9
548.55936	5625.5
552.60252	5725.6
556.64279	5842.6
560.6802	5942.8
564.71473	6037.9
568.7464	6171.6
572.7752	6117.1
576.80114	5859.8
580.82422	5610.3
584.84444	5510.2
588.86181	5432.7
592.87633	5412
596.888	5506.3
600.89682	5746.8
604.9028	6345.5
608.90594	7687.3
612.90624	9179.3
616.90371	8827.5
620.89834	7094.7
624.89015	6261.2
628.87913	5984.8
632.86528	5920.8
636.84862	5850.9
640.82913	5675.8
644.80683	5471.1
648.78172	5383.7
652.75379	5425.6
656.72306	5613.5
660.68952	5840.9
664.65319	5951.3
668.61405	6001
672.57211	6249.6
676.52738	6616.3
680.47986	6915.5
684.42955	7127.9
688.37646	7250.7
692.32058	7274.9
696.26192	7235.2
700.20048	7182.8
704.13626	7085.9
708.06928	6991.8
711.99952	6807.9
715.927	6661.8
719.85171	6494.1
723.77365	6313.1
727.69284	6123.1
731.60928	6002.9
735.52295	5886.5
739.43388	5844.8
743.34206	5807
747.24749	5770.5
751.15017	5703.2
755.05012	5721
758.94733	5867.1
762.8418	6309.3
766.73354	7003.6
770.62254	7539.6
774.50882	7645.3
778.39237	7372.8
782.27321	6928.6
786.15132	6369
790.02671	6008.7
793.89938	5834.8
797.76935	5791.5
801.6366	5736
805.50115	5742.2
809.36299	5728.3
813.22213	5765.5
817.07857	5782
820.93231	5828.5
824.78336	5841.6
828.63172	5875.8
832.47738	5855.8
836.32036	5829.4
840.16066	5804.9
843.99827	5790.1
847.8332	5792.7
851.66546	5790.2
855.49504	5798.8
859.32195	5824.5
863.1462	5839.9
866.96777	5878.6
870.78668	5915
874.60293	5967.1
878.41652	6023.9
882.22745	6110.2
886.03573	6171.4
889.84136	6253.9
893.64433	6340.5
897.44466	6477.5
901.24235	6645.5
905.0374	6803.6
908.8298	6959.4
912.61957	7052
916.40671	7110
920.19121	7117.4
923.97308	7099.5
927.75233	7080.2
931.52895	7091.6
935.30295	6973.7
939.07433	6809
942.84309	6650.2
946.60924	6550.7
950.37278	6470.8
954.13371	6401.2
957.89203	6342.5
961.64774	6324.7
965.40086	6282.8
969.15137	6244.9
972.89929	6229.8
976.64461	6199.4
980.38733	6205.6
984.12747	6186.7
987.86502	6201.9
991.59999	6211.4
995.33237	6228.6
999.06217	6263.2
1002.78939	6340.5
1006.51404	6409.6
1010.23611	6506
1013.95561	6547.4
1017.67255	6553.5
1021.38692	6601.4
1025.09872	6638.4
1028.80796	6672.8
1032.51465	6807.5
1036.21877	6991.2
1039.92035	7303.7
1043.61937	7713.7
1047.31584	8199.6
1051.00976	8596.4
1054.70114	8762.3
1058.38998	8608.2
1062.07627	8154.1
1065.76003	7588
1069.44126	7065.2
1073.11995	6733.3
1076.79611	6565.7
1080.46974	6466.7
1084.14085	6490.5
1087.80943	6554.1
1091.47549	6536
1095.13903	6404.1
1098.80005	6303.9
1102.45857	6263.9
1106.11456	6259.4
1109.76805	6230.3
1113.41903	6237.9
1117.06751	6337.4
1120.71348	6483.6
1124.35696	6633.4
1127.99793	6811.1
1131.63641	6768.4
1135.2724	6497.9
1138.90589	6314.7
1142.5369	6189.6
1146.16542	6119.9
1149.79145	6061.1
1153.415	6023.3
1157.03607	6034.7
1160.65467	6075.8
1164.27079	6163.3
1167.88443	6285.7
1171.49561	6537.6
1175.10432	6942.6
1178.71056	7501.2
1182.31434	7928.2
1185.91565	7979.1
1189.51451	7740.2
1193.11091	7436.5
1196.70485	7190.3
1200.29634	7017.2
1203.88538	6846.5
1207.47197	6633.4
1211.05612	6438.5
1214.63782	6297.7
1218.21708	6223.9
1221.79391	6197.8
1225.36829	6202.3
1228.94024	6221.5
1232.50976	6244.8
1236.07685	6267.6
1239.6415	6334
1243.20374	6369.4
1246.76355	6415
1250.32093	6451.7
1253.8759	6532.3
1257.42845	6641.5
1260.97859	6801.6
1264.52631	6972.5
1268.07163	7134.2
1271.61453	7254.2
1275.15503	7313
1278.69312	7338
1282.22882	7371.8
1285.76211	7522.9
1289.29301	7718.4
1292.82151	7921.7
1296.34761	8103.3
1299.87133	8387.4
1303.39266	8828
1306.9116	9525.2
1310.42815	10381.2
1313.94233	10697.2
1317.45412	10274.1
1320.96354	9557.1
1324.47058	8990.5
1327.97525	8526
1331.47754	8251.6
1334.97747	8125.6
1338.47502	8138.8
1341.97022	8284.3
1345.46305	8675
1348.95352	9179.5
1352.44163	9761.1
1355.92738	10385.3
1359.41078	11358.6
1362.89183	12447.6
1366.37053	12325.5
1369.84688	10862.1
1373.32088	9404.3
1376.79254	8622.9
1380.26186	8280
1383.72883	8084.2
1387.19347	7920.8
1390.65578	7786.5
1394.11575	7706
1397.57339	7685.8
1401.0287	7702.4
1404.48168	7704.6
1407.93234	7759.5
1411.38068	7847.6
1414.82669	7966.2
1418.27039	8080.4
1421.71177	8163.2
1425.15083	8193.1
1428.58758	8159.9
1432.02203	8229.1
1435.45416	8288
1438.88399	8315.6
1442.31151	8281.1
1445.73673	8267.2
1449.15965	8267.7
1452.58027	8255.3
1455.9986	8207.6
1459.41463	8198.3
1462.82837	8184.2
1466.23982	8181.1
1469.64898	8216.5
1473.05586	8167.2
1476.46045	8142.6
1479.86276	8120.9
1483.26279	8113.8
1486.66054	8128.1
1490.05602	8211.5
1493.44922	8396.2
1496.84016	8729.2
1500.22882	9338.2
1503.61521	10208.1
1506.99934	11227.1
1510.38121	12075.1
1513.76081	12152.4
1517.13816	11291.3
1520.51324	9925.9
1523.88607	8768.8
1527.25665	7967.7
1530.62498	7534.7
1533.99105	7259
1537.35488	7073.2
1540.71647	6938.2
1544.07581	6837.4
1547.4329	6817.1
1550.78776	6803.9
1554.14038	6820.1
1557.49077	6872.6
1560.83892	6978.8
1564.18484	7145.7
1567.52853	7368.9
1570.86999	7574.7
1574.20922	7643.1
1577.54624	7590.5
1580.88103	7292.7
1584.2136	6877.7
1587.54395	6604.3
1590.87208	6507
1594.19801	6584.8
1597.52172	6729.6
1600.84321	6730.5
1604.16251	6592.4
1607.47959	6460.7
1610.79447	6338.8
1614.10715	6216.9
1617.41763	6102.1
1620.7259	6036.7
1624.03199	5986.9
1627.33587	6019.7
1630.63757	6068.4
1633.93707	6154.7
1637.23439	6357.2
1640.52951	6705
1643.82246	7256.4
1647.11321	7967.5
1650.40179	8527.3
1653.68819	8442.2
1656.97241	7708.9
1660.25446	6887.7
1663.53433	6309.6
1666.81203	5957.2
1670.08756	5772.1
1673.36092	5640.4
1676.63211	5564.2
1679.90115	5507.5
1683.16801	5445.6
1686.43272	5422.6
1689.69527	5387.3
1692.95567	5348.2
1696.2139	5339
1699.46999	5323.7
1702.72392	5318.9
1705.97571	5310.3
1709.22535	5325
1712.47284	5339.5
1715.71819	5343.7
1718.96139	5349.6
1722.20246	5385.1
1725.44139	5394.8
1728.67818	5387.7
1731.91284	5393.3
1735.14537	5420.3
1738.37576	5444.7
1741.60403	5469.6
1744.83017	5501.2
1748.05418	5552.4
1751.27607	5599.7
1754.49584	5654.9
1757.71349	5712.3
1760.92903	5730.3
1764.14244	5777.2
1767.35375	5799.6
1770.56294	5818.8
1773.77002	5835.8
1776.97499	5842.3
1780.17785	5824
1783.37861	5762.8
1786.57727	5707.7
1789.77382	5630.9
1792.96828	5577
1796.16064	5492
1799.3509	5426.2
1802.53907	5358.7
1805.72514	5297.3
1808.90913	5241.5
1812.09102	5180
1815.27083	5119.1
1818.44856	5084.6
1821.6242	5044.8
1824.79776	5011.1
1827.96924	4989.2
1831.13864	4992.6
1834.30597	4963.2
1837.47122	4937.3
1840.6344	4933.1
1843.7955	4937.1
1846.95454	4942.7
1850.11151	4930.2
1853.26642	4922.5
1856.41926	4916.9
1859.57004	4913.3
1862.71876	4907.2
1865.86542	4914.4
1869.01003	4893.6
1872.15258	4906
1875.29308	4897.3
1878.43152	4878.6
1881.56792	4867.6
1884.70227	4869.9
1887.83457	4874.4
1890.96482	4839.5
1894.09304	4841.4
1897.21921	4858.3
1900.34335	4846
1903.46544	4831.4
1906.58551	4851.3
1909.70353	4844.6
1912.81953	4855.8
1915.93349	4863.3
1919.04543	4874.2
1922.15534	4877.3
1925.26322	4867.5
1928.36908	4881.5
1931.47292	4876.9
1934.57473	4876
1937.67453	4864.5
1940.77232	4851.2
1943.86808	4848.6
1946.96184	4834.1
1950.05358	4805.4
1953.14331	4785.9
1956.23103	4767
1959.31675	4736.6
1962.40046	4710.7
1965.48217	4704.2
1968.56188	4687.7
1971.63959	4650.1
1974.7153	4646.3
1977.78901	4634
1980.86073	4612.6
1983.93046	4612.7
1986.99819	4579.7
1990.06394	4552.9
1993.1277	4557.2
1996.18947	4545.7
1999.24925	4549.4
2002.30706	4535.5
2005.36288	4511.8
2008.41672	4520.1
2011.46859	4498.1
2014.51848	4494
2017.56639	4500.7
2020.61233	4516.4
2023.6563	4503.7
2026.6983	4529.6
2029.73833	4522.7
2032.7764	4530.3
2035.8125	4563
2038.84664	4587.3
2041.87881	4600.5
2044.90903	4627.2
2047.93729	4654.1
2050.96359	4691.3
2053.98794	4707.6
2057.01034	4753.4
2060.03078	4780.1
2063.04927	4803.6
2066.06582	4831
2069.08042	4849
2072.09307	4859.4
2075.10378	4866.7
2078.11255	4865.9
2081.11938	4864.3
2084.12426	4830.3
2087.12722	4819.6
2090.12824	4792.6
2093.12732	4777.9
2096.12447	4737.5
2099.11969	4707.7
2102.11299	4664.6
2105.10435	4629.2
2108.09379	4603.8
2111.08131	4576.9
2114.0669	4535.5
2117.05057	4517.7
2120.03233	4482.1
2123.01216	4469.3
2125.99008	4442.2
2128.96609	4414.1
2131.94018	4407.6
2134.91236	4406.3
2137.88263	4386.8
2140.851	4365.1
2143.81746	4372.1
2146.78201	4357.7
2149.74466	4332.1
2152.7054	4347.6
2155.66425	4347.8
2158.6212	4313.4
2161.57625	4293.1
2164.52941	4299.8
2167.48067	4320.7
2170.43004	4305.6
2173.37752	4295.4
2176.32311	4292.4
2179.26681	4300
2182.20863	4303.4
2185.14856	4298.1
2188.08661	4291.7
2191.02278	4279.4
2193.95707	4293.8
2196.88948	4281.6
2199.82001	4278.2
2202.74867	4265.9
2205.67545	4244.9
2208.60037	4259
2211.52341	4254.4
2214.44458	4234.8
2217.36388	4212.3
2220.28132	4218.4
2223.1969	4193.8
2226.11061	4205.9
2229.02246	4188.5
2231.93245	4174
2234.84058	4178.6
2237.74686	4161.8
2240.65128	4165
2243.55385	4149.5
2246.45456	4168.2
2249.35343	4141.7
2252.25044	4143.4
2255.14561	4152.4
2258.03893	4151.3
2260.93041	4141
2263.82004	4139.4
2266.70783	4109.1
2269.59378	4112.1
2272.4779	4121.8
2275.36017	4098.8
2278.24061	4096.5
2281.11922	4071.5
2283.996	4059
2286.87094	4061.9
2289.74405	4060.1
2292.61534	4043.7
2295.4848	4039.4
2298.35243	4040.8
2301.21824	4047.7
2304.08223	4030
2306.94439	4022.1
2309.80474	4031.2
2312.66327	4037.4
2315.51999	4017.6
2318.37489	4026.2
2321.22797	4012.3
2324.07925	4000.7
2326.92871	3997.6
2329.77637	3991.8
2332.62222	3977.4
2335.46626	3962.9
2338.3085	3959.7
2341.14893	3950.2
2343.98756	3950.5
2346.8244	3947.9
2349.65943	3941.4
2352.49267	3955.6
2355.32411	3970.5
2358.15376	3968.8
2360.98161	3960.7
2363.80768	3955.8
2366.63195	3938.3
2369.45444	3951.6
2372.27514	3963.6
2375.09405	3950.6
2377.91118	3933.6
2380.72652	3929.3
2383.54009	3932.5
2386.35187	3900.5
2389.16188	3886.2
2391.97011	3880.6
2394.77657	3880.3
2397.58125	3865.4
2400.38416	3872.6
2403.18529	3857.8
2405.98466	3855
2408.78226	3850.7
2411.57809	3835
2414.37216	3826.5
2417.16446	3821.6
2419.955	3822.9
2422.74378	3837.1
2425.5308	3826.8
2428.31606	3814.2
2431.09956	3817.4
2433.88131	3817.1
2436.6613	3819.4
2439.43954	3816
2442.21603	3805
2444.99077	3796.2
2447.76377	3811
2450.53501	3803.8
2453.30451	3806.3
2456.07226	3781.2
2458.83827	3791.8
2461.60254	3783.5
2464.36507	3782.3
2467.12586	3775.4
2469.88492	3781.4
2472.64224	3773.7
2475.39782	3772.6
2478.15167	3765.6
2480.90379	3768.4
2483.65417	3771.9
2486.40283	3753.4
2489.14976	3776.4
2491.89497	3748.1
2494.63845	3770
2497.3802	3764
2500.12024	3754
2502.85855	3746.7
2505.59514	3729
2508.33002	3720.6
2511.06318	3714.2
2513.79462	3716.7
2516.52435	3702.4
2519.25237	3698.4
2521.97867	3693.7
2524.70327	3691.4
2527.42616	3669.5
2530.14734	3672.6
2532.86681	3658.6
2535.58458	3655.1
2538.30065	3661
2541.01501	3653.3
2543.72768	3642.7
2546.43864	3651.4
2549.14791	3644.8
2551.85548	3627.1
2554.56136	3641.6
2557.26554	3632.6
2559.96803	3638.8
2562.66883	3624.7
2565.36794	3616.8
2568.06536	3603
2570.7611	3603.4
2573.45514	3599.5
2576.14751	3584
2578.83819	3584.6
2581.52719	3569.3
2584.21451	3572
2586.90015	3581.6
2589.58411	3567.7
2592.2664	3568.3
2594.94701	3558.9
2597.62594	3543.2
2600.30321	3540.5
2602.9788	3530.2
2605.65273	3535.8
2608.32498	3518.8
2610.99557	3527.6
2613.66449	3511.9
2616.33175	3500.3
2618.99734	3511.6
2621.66128	3488.3
2624.32355	3497.4
2626.98416	3483.8
2629.64311	3488.8
2632.30041	3487.9
2634.95605	3473.2
2637.61004	3466
2640.26238	3466
2642.91306	3456.1
2645.56209	3434.9
2648.20948	3440.4
2650.85521	3430.4
2653.4993	3423.3
2656.14175	3421.6
2658.78255	3435.2
2661.42171	3433.8
2664.05923	3428.8
2666.6951	3431.8
2669.32934	3442.1
2671.96194	3429.3
2674.59291	3425
2677.22224	3443.7
2679.84993	3435.4
2682.476	3431.5
2685.10043	3427.1
2687.72324	3432.7
2690.34441	3431.5
2692.96396	3413.6
2695.58188	3423.2
2698.19818	3395.5
2700.81285	3410.7
2703.4259	3415.3
2706.03733	3412.5
2708.64714	3416.9
2711.25533	3419.6
2713.86191	3415.6
2716.46687	3424.4
2719.07021	3423.4
2721.67194	3415.4
2724.27206	3420
2726.87057	3396.6
2729.46747	3407.4
2732.06276	3412.5
2734.65644	3406.9
2737.24852	3406.4
2739.83899	3390.6
2742.42786	3392.3
2745.01513	3385.2
2747.60079	3375.9
2750.18486	3371.5
2752.76733	3357.7
2755.3482	3362.8
2757.92747	3351.4
2760.50515	3355.9
2763.08123	3354
2765.65573	3340.7
2768.22863	3330.8
2770.79994	3333.1
2773.36967	3332.5
2775.9378	3324.5
2778.50435	3323
2781.06932	3312.8
2783.6327	3315
2786.1945	3286
2788.75471	3283.1
2791.31335	3290.2
2793.87041	3281.8
2796.42589	3288
2798.97979	3272.4
2801.53212	3251.6
2804.08288	3260.4
2806.63206	3248.5
2809.17967	3238
2811.72571	3241
2814.27018	3226.8
2816.81308	3228.6
2819.35442	3228.7
2821.89419	3202.8
2824.43239	3222.2
2826.96904	3216.2
2829.50412	3209
2832.03763	3205.6
2834.56959	3192.9
2837.1	3186.6
2839.62884	3193.8
2842.15613	3171.4
2844.68186	3194.7
2847.20604	3181.2
2849.72867	3169.4
2852.24974	3185.1
2854.76927	3173.6
2857.28724	3180.3
2859.80367	3170.7
2862.31855	3168.2
2864.83189	3168.7
2867.34368	3171.5
2869.85393	3154.9
2872.36264	3152
2874.8698	3143.9
2877.37543	3142.5
2879.87952	3154.2
2882.38207	3135.1
2884.88308	3145.1
2887.38256	3124.8
2889.88051	3137.4
2892.37692	3135.2
2894.8718	3132.5
2897.36515	3142.3
2899.85698	3140.8
2902.34727	3144.4
2904.83604	3149.6
2907.32328	3157.1
2909.809	3153.8
2912.29319	3166.2
2914.77587	3167.1
2917.25702	3164.4
2919.73665	3145.7
2922.21476	3166.8
2924.69136	3153.7
2927.16644	3146.7
2929.64	3147.5
2932.11205	3139.2
2934.58258	3127
2937.05161	3137.7
2939.51912	3125.2
2941.98513	3127.9
2944.44962	3117.4
2946.91261	3109.1
2949.37409	3119.7
2951.83407	3116.9
2954.29254	3110.2
2956.74951	3101.4
2959.20498	3112.4
2961.65895	3109.4
2964.11142	3121.3
2966.56239	3103.1
2969.01186	3110.9
2971.45984	3099.5
2973.90632	3103.1
2976.35131	3090.2
2978.7948	3090.7
2981.23681	3093.7
2983.67732	3085.8
2986.11635	3073.6
2988.55388	3076.9
2990.98993	3073.1
2993.4245	3071.1
2995.85758	3051.8
2998.28917	3051.9
3000.71928	3055.9
3003.14791	3050.9
3005.57506	3032
3008.00073	3034.6
3010.42493	3033.2
3012.84764	3035
3015.26888	3042.8
3017.68865	3029.3
3020.10694	3018.8
3022.52376	3012.8
3024.9391	3013.6
3027.35298	3005
3029.76539	3003.3
3032.17632	3007.4
3034.5858	3006.3
3036.9938	2998.3
3039.40034	2998.5
3041.80542	2993.3
3044.20903	2987.9
3046.61118	2987
3049.01187	2987.2
3051.4111	2978.3
3053.80888	2985.6
3056.20519	2991.6
3058.60005	2986.7
3060.99345	2972.9
3063.3854	2964.2
3065.7759	2965.6
3068.16494	2950.4
3070.55254	2946.1
3072.93868	2951.7
3075.32338	2945.9
3077.70662	2940.7
3080.08842	2941.8
3082.46878	2942.1
3084.84769	2944.9
3087.22515	2947.2
3089.60118	2943.4
3091.97576	2949.7
3094.3489	2958.8
3096.72061	2952.4
3099.09087	2951.6
3101.4597	2948.4
3103.82709	2965.9
3106.19305	2957.7
3108.55757	2968.8
3110.92066	2961.4
3113.28232	2964.7
3115.64255	2963.8
3118.00134	2973.3
3120.35871	2971.8
3122.71466	2968.5
3125.06917	2948.6
3127.42226	2960.9
3129.77393	2959.2
3132.12417	2959
3134.47299	2964.2
3136.82039	2964.2
3139.16636	2968.2
3141.51092	2978.9
3143.85406	2983.8
3146.19579	2985.8
3148.53609	2989.1
3150.87499	2999.5
3153.21246	3003.2
3155.54853	3005.4
3157.88318	3033.2
3160.21642	3029.9
3162.54826	3030.2
3164.87868	3032.7
3167.2077	3025
3169.5353	3044.6
3171.86151	3036.7
3174.18631	3045.9
3176.5097	3056.3
3178.83169	3041.7
3181.15228	3055.4
3183.47147	3055.9
3185.78926	3040.8
3188.10565	3047.7
3190.42065	3047.6
3192.73424	3039.4
3195.04645	3045.2
3197.35725	3046.7
3199.66667	3051.6
3201.97469	3062.1
3204.28132	3044.8
3206.58656	3061.5
3208.8904	3067.5
3211.19287	3073.6
3213.49394	3071.8
3215.79363	3085.9
3218.09193	3081.4
3220.38884	3088.1
3222.68438	3100.6
3224.97853	3103.7
3227.2713	3089.3
3229.56269	3090.2
3231.8527	3089.7
3234.14133	3083.1
3236.42858	3076
3238.71446	3074.4
3240.99896	3065
3243.28209	3080.1
3245.56384	3066.5
3247.84423	3066.9
3250.12324	3057.6
3252.40088	3050.1
3254.67715	3062.4
3256.95205	3062.2
3259.22558	3057.8
3261.49775	3063.9
3263.76855	3066.6
3266.03799	3048
3268.30606	3056.7
3270.57277	3043.7
3272.83812	3030.1
3275.10211	3042.5
3277.36474	3027.7
3279.62601	3023.7
3281.88593	3019.9
3284.14448	3023.6
3286.40168	3017.3
3288.65753	3025.7
3290.91202	3012.6
3293.16516	2994.6
3295.41695	3017.2
3297.66738	3012.8
3299.91647	2985.5
3302.16421	2960.9
3304.4106	2950
3306.65564	2934.1
3308.89933	2918.8
3311.14169	2901.8
3313.38269	2872.9
3315.62236	2861.9
3317.86068	2835.1
3320.09766	2831
3322.3333	2805.3
3324.5676	2790.1
3326.80056	2755.1
3329.03219	2744.1
3331.26248	-1.1
3333.49143	1.6
3335.71905	1.9
