Data from AgNPs_UA_2uM_CRN_0uM_R6G_10uM_Q_RamanShift__22__13-26-41-923.txt Node

Date: Wed Jul 13 13:26:41 BST 2022
User: TCL
Spectrometer: QEP01345
Trigger mode: 4
Integration Time (sec): 7.000000E0
Scans to average: 10
Electric dark correction enabled: true
Nonlinearity correction enabled: false
Boxcar width: 0
XAxis mode: Raman Shifts
Number of Pixels in Spectrum: 1044
>>>>>Begin Spectral Data<<<<<
46.04893	-2.6
50.45542	-0.9
54.85868	0.5
59.25871	-1
63.6555	97.9
68.04907	107.3
72.43941	112.6
76.82654	115.5
81.21044	124.2
85.59113	126
89.96862	127.9
94.34289	128.6
98.71396	137.2
103.08183	145.1
107.4465	147.7
111.80798	150
116.16626	156.1
120.52136	159.1
124.87327	164.4
129.222	173.7
133.56755	185.2
137.90993	200
142.24913	217.3
146.58517	232.5
150.91804	268.2
155.24774	319.7
159.57429	391.1
163.89768	502.8
168.21792	657.8
172.53501	896.8
176.84895	1237.5
181.15975	1728.5
185.46741	2429.7
189.77193	3328.1
194.07331	4442.7
198.37157	5664.1
202.6667	7004.3
206.9587	8293
211.24758	9552.7
215.53334	10837
219.81599	12238.5
224.09553	13728.8
228.37195	15441.8
232.64527	17307.7
236.91549	19238
241.18261	21161.5
245.44663	22946.1
249.70755	24480
253.96539	25911.2
258.22014	27121
262.4718	28105
266.72039	28761.6
270.96589	29055.1
275.20832	29089.9
279.44768	28927.7
283.68397	28726.8
287.91719	28460.8
292.14735	28300.6
296.37445	28283.6
300.59849	28347.6
304.81948	28538.4
309.03742	28616.9
313.25231	28421.2
317.46415	27952.1
321.67296	27344.6
325.87872	26862.6
330.08145	26715.9
334.28114	26878.8
338.47781	27137.6
342.67145	27527.5
346.86207	28098.7
351.04966	28711.4
355.23424	29355.2
359.4158	29892.9
363.59435	30285.1
367.76989	30573.1
371.94243	30762.4
376.11196	30919.6
380.27849	31060.1
384.44203	31194.5
388.60257	31384.7
392.76012	31646.5
396.91468	32006.7
401.06626	32538.2
405.21485	32914.1
409.36047	32789.6
413.50311	32402.4
417.64277	32143
421.77947	32156.2
425.9132	32317.4
430.04396	32598.6
434.17176	32909.4
438.2966	33380.7
442.41849	34121.6
446.53742	35208.7
450.6534	36323.7
454.76644	37064.2
458.87653	37078.7
462.98368	36632.7
467.08789	35974.5
471.18916	35263.4
475.2875	34685.4
479.38291	34241.2
483.4754	33899.2
487.56496	33574
491.6516	33245
495.73531	32941.9
499.81612	32799.1
503.89401	32927.4
507.96899	33047.4
512.04106	33002.7
516.11023	32912.5
520.1765	32858
524.23987	32879.4
528.30034	32750.2
532.35792	32495.3
536.41261	32152.6
540.46441	31843.7
544.51333	31843.4
548.55936	32176.3
552.60252	32794
556.64279	33405.7
560.6802	33846.5
564.71473	34129.5
568.7464	34699.8
572.7752	35317
576.80114	35610.9
580.82422	36135.6
584.84444	36838.7
588.86181	37852.7
592.87633	39027.1
596.888	39712.9
600.89682	39708.8
604.9028	40804.1
608.90594	44011.8
612.90624	46407.6
616.90371	42673
620.89834	36883.2
624.89015	35033.4
628.87913	34963.2
632.86528	34743.1
636.84862	34146
640.82913	33443.1
644.80683	32610.6
648.78172	32225
652.75379	32238.3
656.72306	32697.3
660.68952	33249.2
664.65319	33021.8
668.61405	32517.1
672.57211	32396.2
676.52738	32370.1
680.47986	32262.8
684.42955	32141.1
688.37646	32185.4
692.32058	32414.7
696.26192	32753.1
700.20048	33074.3
704.13626	33267.3
708.06928	33123.5
711.99952	32910.3
715.927	32835.3
719.85171	32918.5
723.77365	32782.3
727.69284	32491
731.60928	32343
735.52295	32384.9
739.43388	32496.5
743.34206	32673.3
747.24749	32825.6
751.15017	33099.5
755.05012	33675.9
758.94733	34604.2
762.8418	36397.1
766.73354	38994.9
770.62254	41105.5
774.50882	41230.3
778.39237	39243
782.27321	36678
786.15132	34695.8
790.02671	33468.4
793.89938	32941.6
797.76935	32772.1
801.6366	32701.8
805.50115	32637.6
809.36299	32470.6
813.22213	32328.7
817.07857	32252.9
820.93231	32149.2
824.78336	32143.7
828.63172	32257.5
832.47738	32357.6
836.32036	32514.7
840.16066	32646.3
843.99827	32805.7
847.8332	32692.5
851.66546	32525.6
855.49504	32478.8
859.32195	32427
863.1462	32277.3
866.96777	32160.5
870.78668	32025.1
874.60293	32074.9
878.41652	32154.8
882.22745	32284.7
886.03573	32350.3
889.84136	32310.7
893.64433	32172.9
897.44466	32020.5
901.24235	31953.1
905.0374	31932.5
908.8298	31855.2
912.61957	31953.3
916.40671	32224.1
920.19121	32738.6
923.97308	33205.7
927.75233	33418.6
931.52895	33331.4
935.30295	32901.5
939.07433	32289.9
942.84309	31902.6
946.60924	31836.3
950.37278	31700.8
954.13371	31469.5
957.89203	31279.9
961.64774	31192.1
965.40086	31109.9
969.15137	31022.5
972.89929	30948.6
976.64461	30895.6
980.38733	31007.4
984.12747	31197.2
987.86502	31538
991.59999	32089.4
995.33237	32966.1
999.06217	34251
1002.78939	35512.7
1006.51404	36014.7
1010.23611	36077.6
1013.95561	36286.5
1017.67255	36337.4
1021.38692	35969.8
1025.09872	35844.1
1028.80796	36602.4
1032.51465	38129.2
1036.21877	39151
1039.92035	38998.4
1043.61937	38100.4
1047.31584	36694.2
1051.00976	35262.5
1054.70114	34574.1
1058.38998	34456.9
1062.07627	34502.4
1065.76003	34487.1
1069.44126	34567.3
1073.11995	34877.9
1076.79611	35159
1080.46974	35485.3
1084.14085	35830.1
1087.80943	36207.1
1091.47549	36240.8
1095.13903	35877.4
1098.80005	35306.9
1102.45857	34818.1
1106.11456	34683.5
1109.76805	34790.4
1113.41903	35062.6
1117.06751	35433.9
1120.71348	35796.1
1124.35696	36113.6
1127.99793	36377.3
1131.63641	36307.6
1135.2724	35980.8
1138.90589	35699.3
1142.5369	35517.4
1146.16542	35438.1
1149.79145	35565.5
1153.415	35791
1157.03607	36263.2
1160.65467	37020.6
1164.27079	38226.6
1167.88443	40055.8
1171.49561	42627.2
1175.10432	46070.1
1178.71056	50228.9
1182.31434	53688.5
1185.91565	55043.1
1189.51451	54260.9
1193.11091	51873
1196.70485	49278.2
1200.29634	47047
1203.88538	45383.6
1207.47197	44136.9
1211.05612	43253.1
1214.63782	42891.5
1218.21708	43020.7
1221.79391	43534.9
1225.36829	43792.2
1228.94024	43182.1
1232.50976	42059.7
1236.07685	41215.7
1239.6415	40762.4
1243.20374	40692.1
1246.76355	40987.4
1250.32093	41545.8
1253.8759	42413
1257.42845	43619.3
1260.97859	44678.4
1264.52631	45642.2
1268.07163	46708.2
1271.61453	48011
1275.15503	49572.8
1278.69312	51117.9
1282.22882	52547.3
1285.76211	53528.9
1289.29301	54615.6
1292.82151	56113.2
1296.34761	58270.9
1299.87133	61315.8
1303.39266	65221.1
1306.9116	69974.7
1310.42815	74812.7
1313.94233	77918.2
1317.45412	77579.1
1320.96354	75152.4
1324.47058	72222.4
1327.97525	69649.6
1331.47754	67875.9
1334.97747	67020.6
1338.47502	66851.6
1341.97022	66913.5
1345.46305	66628.1
1348.95352	66174.6
1352.44163	66099.1
1355.92738	67657.7
1359.41078	71167.9
1362.89183	73957.7
1366.37053	72103.3
1369.84688	65789
1373.32088	58802.2
1376.79254	54186.8
1380.26186	52253.6
1383.72883	51844.4
1387.19347	51714.1
1390.65578	51312.8
1394.11575	51429
1397.57339	52280.9
1401.0287	53605.5
1404.48168	54680.6
1407.93234	55277.5
1411.38068	55083.6
1414.82669	54028.8
1418.27039	52211
1421.71177	50012.4
1425.15083	48301.4
1428.58758	47494.6
1432.02203	47743.2
1435.45416	48778.6
1438.88399	49766.6
1442.31151	50566.5
1445.73673	51288.5
1449.15965	51732.4
1452.58027	51846.9
1455.9986	51683
1459.41463	51654.6
1462.82837	52187.8
1466.23982	53128.3
1469.64898	54066.2
1473.05586	54667.9
1476.46045	54988.1
1479.86276	54907
1483.26279	54737.6
1486.66054	54633.1
1490.05602	54880.2
1493.44922	55133.8
1496.84016	55381.8
1500.22882	55799.9
1503.61521	56791.5
1506.99934	58398
1510.38121	60048.4
1513.76081	60590.9
1517.13816	59407.7
1520.51324	57052.6
1523.88607	54923.7
1527.25665	53712.2
1530.62498	53220.7
1533.99105	52978.2
1537.35488	52765.9
1540.71647	52421.8
1544.07581	51753.6
1547.4329	51004.8
1550.78776	50139
1554.14038	49442.6
1557.49077	48959.5
1560.83892	48719.1
1564.18484	48582.9
1567.52853	48588.8
1570.86999	48659.5
1574.20922	48943.2
1577.54624	49167.4
1580.88103	49071.2
1584.2136	49201.5
1587.54395	50636.3
1590.87208	53509.2
1594.19801	57781.5
1597.52172	62082.4
1600.84321	63682.6
1604.16251	61343.5
1607.47959	56580.7
1610.79447	51368.7
1614.10715	46805.6
1617.41763	43417.3
1620.7259	41278.4
1624.03199	40306.2
1627.33587	40469.5
1630.63757	41737.1
1633.93707	44222.7
1637.23439	48029.5
1640.52951	52958.2
1643.82246	58164.1
1647.11321	61702.2
1650.40179	61311.1
1653.68819	56735
1656.97241	49819
1660.25446	43579.6
1663.53433	39078.2
1666.81203	36225.7
1670.08756	34464.3
1673.36092	33308.2
1676.63211	32533.4
1679.90115	31987.4
1683.16801	31556.1
1686.43272	31227.9
1689.69527	31035
1692.95567	30904
1696.2139	30761
1699.46999	30743.6
1702.72392	30669
1705.97571	30662
1709.22535	30603
1712.47284	30558.6
1715.71819	30573.7
1718.96139	30482
1722.20246	30416.5
1725.44139	30325.9
1728.67818	30187.1
1731.91284	30021.7
1735.14537	29904
1738.37576	29805
1741.60403	29683.3
1744.83017	29648.5
1748.05418	29575.8
1751.27607	29522
1754.49584	29517.2
1757.71349	29485.1
1760.92903	29494.6
1764.14244	29374.6
1767.35375	29396.4
1770.56294	29350.5
1773.77002	29381.6
1776.97499	29337.5
1780.17785	29271
1783.37861	29254.7
1786.57727	29227.9
1789.77382	29203.1
1792.96828	29167.9
1796.16064	29148.4
1799.3509	29101.1
1802.53907	29067.2
1805.72514	29005.8
1808.90913	28987.6
1812.09102	28907.1
1815.27083	28834.2
1818.44856	28803.5
1821.6242	28763.5
1824.79776	28704.1
1827.96924	28713
1831.13864	28661.2
1834.30597	28630.6
1837.47122	28629.2
1840.6344	28686.3
1843.7955	28641.7
1846.95454	28608.2
1850.11151	28607.5
1853.26642	28643.2
1856.41926	28588.3
1859.57004	28615
1862.71876	28606.6
1865.86542	28619.7
1869.01003	28570.5
1872.15258	28584.8
1875.29308	28588.4
1878.43152	28631.3
1881.56792	28586
1884.70227	28596.1
1887.83457	28591.1
1890.96482	28551.7
1894.09304	28524.8
1897.21921	28521.8
1900.34335	28546.8
1903.46544	28521.4
1906.58551	28542
1909.70353	28539.1
1912.81953	28497.1
1915.93349	28482.8
1919.04543	28470.1
1922.15534	28415.9
1925.26322	28325.8
1928.36908	28293.6
1931.47292	28267.4
1934.57473	28236.1
1937.67453	28195.8
1940.77232	28092.1
1943.86808	27974.5
1946.96184	27910.9
1950.05358	27862.9
1953.14331	27782.7
1956.23103	27695.1
1959.31675	27681.7
1962.40046	27576.5
1965.48217	27496.5
1968.56188	27398.2
1971.63959	27347.6
1974.7153	27234.3
1977.78901	27171.6
1980.86073	27074.4
1983.93046	27021.3
1986.99819	26937
1990.06394	26818.2
1993.1277	26783.1
1996.18947	26730.8
1999.24925	26746.3
2002.30706	26633.4
2005.36288	26535
2008.41672	26496.1
2011.46859	26399.7
2014.51848	26352.9
2017.56639	26272.7
2020.61233	26248.7
2023.6563	26207.5
2026.6983	26136.1
2029.73833	26102.3
2032.7764	26071.1
2035.8125	26054.1
2038.84664	26000.6
2041.87881	26020.6
2044.90903	25928.6
2047.93729	25915.1
2050.96359	25894.4
2053.98794	25860.1
2057.01034	25840.7
2060.03078	25843.1
2063.04927	25761.5
2066.06582	25778.8
2069.08042	25783.8
2072.09307	25772
2075.10378	25746.2
2078.11255	25703.1
2081.11938	25689.4
2084.12426	25593.2
2087.12722	25633
2090.12824	25580.1
2093.12732	25588.9
2096.12447	25619.1
2099.11969	25614.7
2102.11299	25649.9
2105.10435	25628.2
2108.09379	25623.9
2111.08131	25700
2114.0669	25663.3
2117.05057	25692.4
2120.03233	25692.1
2123.01216	25715.4
2125.99008	25711.3
2128.96609	25774.7
2131.94018	25827.6
2134.91236	25870.3
2137.88263	25850.2
2140.851	25871.7
2143.81746	25909.4
2146.78201	25948.1
2149.74466	25907.8
2152.7054	25972.1
2155.66425	25938.3
2158.6212	25925.8
2161.57625	25913.7
2164.52941	25978.8
2167.48067	25949.5
2170.43004	25957.5
2173.37752	25916.1
2176.32311	25955.5
2179.26681	25927.6
2182.20863	25927.1
2185.14856	25996.6
2188.08661	25996.3
2191.02278	25997.3
2193.95707	26034.2
2196.88948	26011.6
2199.82001	26035.7
2202.74867	26023.1
2205.67545	26008.8
2208.60037	25986.4
2211.52341	25970
2214.44458	25983.8
2217.36388	25941.5
2220.28132	25897.1
2223.1969	25844.4
2226.11061	25861.6
2229.02246	25798.4
2231.93245	25790.9
2234.84058	25725.1
2237.74686	25662.2
2240.65128	25641.3
2243.55385	25623
2246.45456	25659.5
2249.35343	25562.4
2252.25044	25548.4
2255.14561	25560.4
2258.03893	25529
2260.93041	25457.1
2263.82004	25409
2266.70783	25354.9
2269.59378	25265.5
2272.4779	25185.5
2275.36017	25133.9
2278.24061	25073.1
2281.11922	25096
2283.996	25058
2286.87094	25006.7
2289.74405	24989.2
2292.61534	24997.8
2295.4848	25015.3
2298.35243	25015.5
2301.21824	24999
2304.08223	25080.9
2306.94439	25049.2
2309.80474	25102.9
2312.66327	25159.4
2315.51999	25152.5
2318.37489	25153.7
2321.22797	25169.1
2324.07925	25162.6
2326.92871	25152.4
2329.77637	25116.2
2332.62222	25063.2
2335.46626	25076.2
2338.3085	25133.2
2341.14893	25122.5
2343.98756	25167.7
2346.8244	25130.5
2349.65943	25122
2352.49267	25146.4
2355.32411	25198.1
2358.15376	25178.8
2360.98161	25111.8
2363.80768	25098.6
2366.63195	25052.2
2369.45444	25036.5
2372.27514	24958.8
2375.09405	24893.1
2377.91118	24840.8
2380.72652	24810.8
2383.54009	24744.1
2386.35187	24695.9
2389.16188	24647.5
2391.97011	24617.5
2394.77657	24581.4
2397.58125	24552.9
2400.38416	24520.8
2403.18529	24515.3
2405.98466	24430.8
2408.78226	24375
2411.57809	24333.6
2414.37216	24327.4
2417.16446	24285.7
2419.955	24236.8
2422.74378	24240.1
2425.5308	24228.3
2428.31606	24222.7
2431.09956	24204.2
2433.88131	24179.5
2436.6613	24182.4
2439.43954	24182
2442.21603	24149.2
2444.99077	24177.9
2447.76377	24217.6
2450.53501	24160.8
2453.30451	24166.1
2456.07226	24113.9
2458.83827	24154.5
2461.60254	24142.1
2464.36507	24095.8
2467.12586	24057.2
2469.88492	24133.5
2472.64224	24131.9
2475.39782	24155.5
2478.15167	24173.7
2480.90379	24232.2
2483.65417	24246
2486.40283	24324.4
2489.14976	24326
2491.89497	24279.4
2494.63845	24345.6
2497.3802	24341.1
2500.12024	24355.2
2502.85855	24342.9
2505.59514	24320
2508.33002	24322.1
2511.06318	24285.7
2513.79462	24212.4
2516.52435	24161.2
2519.25237	24142
2521.97867	24107.3
2524.70327	24152
2527.42616	24135.5
2530.14734	24139.7
2532.86681	24131.1
2535.58458	24096.8
2538.30065	24118.3
2541.01501	24076.5
2543.72768	24102.3
2546.43864	24119.8
2549.14791	24079.4
2551.85548	24048.8
2554.56136	24023.6
2557.26554	23979.8
2559.96803	23941.9
2562.66883	23964
2565.36794	23942.7
2568.06536	23915.3
2570.7611	23911.2
2573.45514	23918.2
2576.14751	23917.3
2578.83819	23884.4
2581.52719	23905.9
2584.21451	23902.7
2586.90015	23876.5
2589.58411	23916.2
2592.2664	23904.7
2594.94701	23869.1
2597.62594	23921.8
2600.30321	23881.9
2602.9788	23854.8
2605.65273	23858
2608.32498	23866.2
2610.99557	23821.1
2613.66449	23873.1
2616.33175	23891.3
2618.99734	23940.2
2621.66128	23934.1
2624.32355	23986.7
2626.98416	23964.6
2629.64311	23971.9
2632.30041	23962.5
2634.95605	23944
2637.61004	23938.8
2640.26238	23876.1
2642.91306	23838.9
2645.56209	23806.6
2648.20948	23790.9
2650.85521	23723.6
2653.4993	23743.1
2656.14175	23750.4
2658.78255	23804.1
2661.42171	23741
2664.05923	23786.2
2666.6951	23818
2669.32934	23838.3
2671.96194	23832.9
2674.59291	23847
2677.22224	23857.8
2679.84993	23891.3
2682.476	23835.7
2685.10043	23811.7
2687.72324	23801.8
2690.34441	23801.7
2692.96396	23772.3
2695.58188	23739.2
2698.19818	23761.1
2700.81285	23782.1
2703.4259	23762.8
2706.03733	23753.5
2708.64714	23767
2711.25533	23812.3
2713.86191	23770.9
2716.46687	23828.2
2719.07021	23842.2
2721.67194	23859.9
2724.27206	23820.9
2726.87057	23870.9
2729.46747	23899.1
2732.06276	23911.2
2734.65644	23923.4
2737.24852	23886.6
2739.83899	23885.2
2742.42786	23883.5
2745.01513	23846.5
2747.60079	23808.5
2750.18486	23758.1
2752.76733	23811
2755.3482	23819.2
2757.92747	23824.7
2760.50515	23778.7
2763.08123	23798.3
2765.65573	23749
2768.22863	23796.2
2770.79994	23788
2773.36967	23819.3
2775.9378	23763.9
2778.50435	23827.3
2781.06932	23780.6
2783.6327	23796.5
2786.1945	23766.3
2788.75471	23745
2791.31335	23702.9
2793.87041	23710.8
2796.42589	23639.6
2798.97979	23669.8
2801.53212	23601.7
2804.08288	23598.7
2806.63206	23530
2809.17967	23482
2811.72571	23443.2
2814.27018	23445.7
2816.81308	23395.2
2819.35442	23372.5
2821.89419	23309.1
2824.43239	23300.4
2826.96904	23305.9
2829.50412	23273.9
2832.03763	23241.5
2834.56959	23261.8
2837.1	23225.7
2839.62884	23257.4
2842.15613	23244.3
2844.68186	23213.6
2847.20604	23198.5
2849.72867	23175.1
2852.24974	23167.5
2854.76927	23135.8
2857.28724	23056.9
2859.80367	23092.7
2862.31855	23108.3
2864.83189	23068.5
2867.34368	23005
2869.85393	23025.9
2872.36264	22984.1
2874.8698	22982.3
2877.37543	23015.7
2879.87952	23008.3
2882.38207	22993.6
2884.88308	22970
2887.38256	23032.9
2889.88051	23012.4
2892.37692	23028.3
2894.8718	23088
2897.36515	23120.3
2899.85698	23114.8
2902.34727	23165
2904.83604	23151.5
2907.32328	23219.5
2909.809	23226.1
2912.29319	23248.4
2914.77587	23235.5
2917.25702	23265.2
2919.73665	23258
2922.21476	23197.8
2924.69136	23159.9
2927.16644	23158.7
2929.64	23129.3
2932.11205	23119.8
2934.58258	23070.7
2937.05161	23092.4
2939.51912	23113.1
2941.98513	23068
2944.44962	23061.4
2946.91261	23030.1
2949.37409	23071.1
2951.83407	23053.7
2954.29254	23035.1
2956.74951	23051.5
2959.20498	23046.3
2961.65895	23044.8
2964.11142	23061.8
2966.56239	23030.6
2969.01186	22998.1
2971.45984	22944.2
2973.90632	22908.6
2976.35131	22872.6
2978.7948	22833.4
2981.23681	22851.1
2983.67732	22775.9
2986.11635	22706.5
2988.55388	22690.8
2990.98993	22639.6
2993.4245	22612.3
2995.85758	22524.5
2998.28917	22504.5
3000.71928	22449.5
3003.14791	22426.2
3005.57506	22405.4
3008.00073	22333.1
3010.42493	22324.3
3012.84764	22241
3015.26888	22291.2
3017.68865	22236.2
3020.10694	22171.1
3022.52376	22143.1
3024.9391	22098.6
3027.35298	22097.3
3029.76539	22078.1
3032.17632	22087.9
3034.5858	22073.9
3036.9938	22049.6
3039.40034	22023.8
3041.80542	22038.4
3044.20903	21988.3
3046.61118	21986.4
3049.01187	21959.5
3051.4111	21968
3053.80888	21898.9
3056.20519	21855.7
3058.60005	21803.8
3060.99345	21773.1
3063.3854	21683.3
3065.7759	21684.7
3068.16494	21629.9
3070.55254	21516.7
3072.93868	21481
3075.32338	21435.9
3077.70662	21408.6
3080.08842	21308.2
3082.46878	21357.4
3084.84769	21320.6
3087.22515	21305.7
3089.60118	21311
3091.97576	21271.1
3094.3489	21294.3
3096.72061	21266.8
3099.09087	21304.3
3101.4597	21275.6
3103.82709	21247.9
3106.19305	21229.5
3108.55757	21232.9
3110.92066	21212.1
3113.28232	21209
3115.64255	21142.2
3118.00134	21155.4
3120.35871	21113.8
3122.71466	21057
3125.06917	21035.4
3127.42226	20990.2
3129.77393	21013.6
3132.12417	20958.8
3134.47299	20942.3
3136.82039	20887.2
3139.16636	20875.7
3141.51092	20889.1
3143.85406	20895.9
3146.19579	20881
3148.53609	20866.5
3150.87499	20899.2
3153.21246	20893.3
3155.54853	20916.9
3157.88318	20897.4
3160.21642	20952.6
3162.54826	20936.9
3164.87868	20929.5
3167.2077	20936.3
3169.5353	20901.6
3171.86151	20918.7
3174.18631	20894.3
3176.5097	20878.1
3178.83169	20843.1
3181.15228	20853.7
3183.47147	20767
3185.78926	20788.6
3188.10565	20765
3190.42065	20777.7
3192.73424	20741.4
3195.04645	20726.7
3197.35725	20725.4
3199.66667	20694.4
3201.97469	20729.8
3204.28132	20705.2
3206.58656	20728.3
3208.8904	20742.5
3211.19287	20757.7
3213.49394	20767.7
3215.79363	20754.1
3218.09193	20719.4
3220.38884	20732.8
3222.68438	20766.2
3224.97853	20781.1
3227.2713	20803.6
3229.56269	20798.9
3231.8527	20802
3234.14133	20762.4
3236.42858	20693.9
3238.71446	20700
3240.99896	20663.9
3243.28209	20615.3
3245.56384	20570.8
3247.84423	20662.8
3250.12324	20600.7
3252.40088	20563.8
3254.67715	20522.4
3256.95205	20479.8
3259.22558	20553.8
3261.49775	20533.4
3263.76855	20537.3
3266.03799	20535.4
3268.30606	20538.1
3270.57277	20488.2
3272.83812	20429.4
3275.10211	20414.1
3277.36474	20363.1
3279.62601	20375.9
3281.88593	20313.4
3284.14448	20354.9
3286.40168	20351.7
3288.65753	20351.6
3290.91202	20391.9
3293.16516	20308.6
3295.41695	20262.3
3297.66738	20195.4
3299.91647	20096.4
3302.16421	19978.2
3304.4106	19866.2
3306.65564	19765.4
3308.89933	19642
3311.14169	19516.7
3313.38269	19336.7
3315.62236	19265.9
3317.86068	19154.2
3320.09766	19021.3
3322.3333	18912.5
3324.5676	18834.5
3326.80056	18591.1
3329.03219	18500.1
3331.26248	3
3333.49143	1.1
3335.71905	0.3
