EXPLAIN
TAG	CHRONOA
TITLE	LABEL	Chronoamperometry Scan	Test Identifier
DATE	LABEL	15/12/2021	Date
TIME	LABEL	13:56:50	Time
NOTES	NOTES	1	Notes...
	
PSTAT	PSTAT	IFC1010-21051	Potentiostat
VPRESTEP	POTEN	3.00000E-001	F	Pre-step Voltage (V)
TPRESTEP	QUANT	5.00000E-001	Pre-step Delay Time (s)
VSTEP1	POTEN	4.00000E-001	F	Step 1 Voltage (V)
TSTEP1	QUANT	3.60000E+002	Step 1 Time (s)
VSTEP2	POTEN	3.00000E-001	F	Step 2 Voltage (V)
TSTEP2	QUANT	1.00000E+000	Step 2 Time (s)
SAMPLETIME	QUANT	1.00000E-001	Sample Period (s)
DECIMATE	TOGGLE	T	Decimate
ILIMIT	QUANT	1.00000E+000	Limit I (mA/cm^2)
IMODE	SELECTOR	1	I/E Range Mode
IRANGE	QUANT	3.00000E-001	Max Current (mA)
EQDELAY	QUANT	5.00000E+000	Equil. Time (s)
SAMPLINGMODE	SELECTOR	1	Sampling Mode
AREA	QUANT	1.00000E+000	Sample Area (cm^2)
IRCOMP	SELECTOR	0	IRComp
PFCOR	QUANT	5.00000E+001	PF Corr. (ohm)
SEQUENCER	TOGGLE	TRUE	Run as Sequence
PSTATMODEL	IQUANT	64	Pstat Model
PSTATSECTION	LABEL	IFC1010-21051	Pstat Section
PSTATSERIALNO	LABEL	21051	Pstat Serial Number
CTRLMODE	IQUANT	1	Control Mode
ELECTROMETER	IQUANT	0	RE=0 or CS=1
IESTAB	IQUANT	0	I/E Stability
CASPEED	IQUANT	4	Control Amp Speed
CONVENTION	IQUANT	1	Current Convention
ICHRANGE	IQUANT	2	Ich Range
ICHRANGEMODE	TOGGLE	T	Ich Auto Range
ICHOFFSETENABLE	TOGGLE	F	Ich Offset Enable
ICHOFFSET	QUANT	0	Ich Offset (V)
ICHFILTER	IQUANT	3	Ich Filter
VCHRANGE	IQUANT	3	Vch Range
VCHRANGEMODE	TOGGLE	T	Vch Auto Range
VCHOFFSETENABLE	TOGGLE	F	Vch Offset Enable
VCHOFFSET	QUANT	0	Vch Offset (V)
VCHFILTER	IQUANT	3	Vch Filter
IERANGELOWERLIMIT	IQUANT	4	I/E Range Lower Limit
IERANGEMODE	TOGGLE	F	I/E AutoRange
IERANGE	IQUANT	9	I/E Range
ACHSELECT	IQUANT	0	Ach Select
ACHRANGE	IQUANT	2	Ach Range
ACHOFFSETENABLE	TOGGLE	F	Ach Offset Enable
ACHOFFSET	QUANT	0	Ach Offset (V)
ACHFILTER	IQUANT	1	Ach Filter
SENSECABLEID	IQUANT	14	Sense Cable ID
PWRCABLEID	IQUANT	14	Power Cable ID
DCCALDATE	LABEL	10/1/2020	DC Calibration Date
ACCALDATE	LABEL	4/2/2018	AC Calibration Date
FRAMEWORKVERSION	QUANT	7.06	Framework Version
INSTRUMENTVERSION	LABEL	4.30	Instrument Version
CURVE	TABLE	99
	Pt	T	Vf	Im	Vu	Sig	Ach	IERange	Over	Temp
	#	s	V vs. Ref.	A	V	V	V	#	bits	deg C
	0	-0.4	3.00097E-001	1.84571E-005	0.00000E+000	3.00072E-001	0.00000E+000	9	...........	1425.60
	1	-0.3	3.00442E-001	1.82290E-005	0.00000E+000	3.00072E-001	0.00000E+000	9	...........	1425.60
	2	-0.2	3.00446E-001	1.80062E-005	0.00000E+000	3.00072E-001	0.00000E+000	9	...........	1425.60
	3	-0.1	3.00438E-001	1.77972E-005	0.00000E+000	3.00072E-001	0.00000E+000	9	...........	1425.60
	4	0	3.00439E-001	1.75849E-005	0.00000E+000	3.00072E-001	0.00000E+000	9	...........	1425.60
	5	0.1	4.00493E-001	7.14995E-004	0.00000E+000	4.00072E-001	0.00000E+000	9	...........	1425.60
	6	0.2	4.00502E-001	6.00969E-004	0.00000E+000	4.00072E-001	0.00000E+000	9	...........	1425.60
	7	0.3	4.00495E-001	5.29337E-004	0.00000E+000	4.00072E-001	0.00000E+000	9	...........	1425.69
	8	0.4	4.00492E-001	4.78302E-004	0.00000E+000	4.00072E-001	0.00000E+000	9	...........	1425.69
	9	0.5	4.00489E-001	4.38890E-004	0.00000E+000	4.00072E-001	0.00000E+000	9	...........	1425.69
	10	0.6	4.00488E-001	4.07138E-004	0.00000E+000	4.00072E-001	0.00000E+000	9	...........	1425.69
	11	0.7	4.00497E-001	3.80564E-004	0.00000E+000	4.00072E-001	0.00000E+000	9	...........	1425.69
	12	0.8	4.00496E-001	3.57715E-004	0.00000E+000	4.00072E-001	0.00000E+000	9	...........	1425.69
	13	0.9	4.00481E-001	3.37872E-004	0.00000E+000	4.00072E-001	0.00000E+000	9	...........	1425.69
	14	1	4.00491E-001	3.20308E-004	0.00000E+000	4.00072E-001	0.00000E+000	9	...........	1425.69
	15	1.1	4.00499E-001	3.04629E-004	0.00000E+000	4.00072E-001	0.00000E+000	9	...........	1425.69
	16	1.2	4.00495E-001	2.90469E-004	0.00000E+000	4.00072E-001	0.00000E+000	9	...........	1425.69
	17	1.3	4.00496E-001	2.77609E-004	0.00000E+000	4.00072E-001	0.00000E+000	9	...........	1425.60
	18	1.4	4.00487E-001	2.65844E-004	0.00000E+000	4.00072E-001	0.00000E+000	9	...........	1425.60
	19	1.5	4.00496E-001	2.55024E-004	0.00000E+000	4.00072E-001	0.00000E+000	9	...........	1425.60
	20	1.6	4.00490E-001	2.44992E-004	0.00000E+000	4.00072E-001	0.00000E+000	9	...........	1425.60
	21	1.7	4.00488E-001	2.35640E-004	0.00000E+000	4.00072E-001	0.00000E+000	9	...........	1425.60
	22	1.8	4.00487E-001	2.26831E-004	0.00000E+000	4.00072E-001	0.00000E+000	9	...........	1425.60
	23	1.9	4.00487E-001	2.18669E-004	0.00000E+000	4.00072E-001	0.00000E+000	9	...........	1425.60
	24	2	4.00498E-001	2.10939E-004	0.00000E+000	4.00072E-001	0.00000E+000	9	...........	1425.60
	25	2.1	4.00499E-001	2.03571E-004	0.00000E+000	4.00072E-001	0.00000E+000	9	...........	1425.60
	26	2.2	4.00486E-001	1.96544E-004	0.00000E+000	4.00072E-001	0.00000E+000	9	...........	1425.60
	27	2.3	4.00483E-001	1.89945E-004	0.00000E+000	4.00072E-001	0.00000E+000	9	...........	1425.60
	28	2.4	4.00476E-001	1.83650E-004	0.00000E+000	4.00072E-001	0.00000E+000	9	...........	1425.60
	29	2.5	4.00492E-001	1.77725E-004	0.00000E+000	4.00072E-001	0.00000E+000	9	...........	1425.60
	30	2.6	4.00486E-001	1.72094E-004	0.00000E+000	4.00072E-001	0.00000E+000	9	...........	1425.60
	31	2.7	4.00494E-001	1.66702E-004	0.00000E+000	4.00072E-001	0.00000E+000	9	...........	1425.60
	32	2.8	4.00488E-001	1.61657E-004	0.00000E+000	4.00072E-001	0.00000E+000	9	...........	1425.60
	33	2.9	4.00494E-001	1.56844E-004	0.00000E+000	4.00072E-001	0.00000E+000	9	...........	1425.60
	34	3	4.00490E-001	1.52222E-004	0.00000E+000	4.00072E-001	0.00000E+000	9	...........	1425.60
	35	3.1	4.00489E-001	1.47820E-004	0.00000E+000	4.00072E-001	0.00000E+000	9	...........	1425.60
	36	3.2	4.00506E-001	1.43627E-004	0.00000E+000	4.00072E-001	0.00000E+000	9	...........	1425.60
	37	3.3	4.00498E-001	1.39648E-004	0.00000E+000	4.00072E-001	0.00000E+000	9	...........	1425.60
	38	3.4	4.00497E-001	1.35928E-004	0.00000E+000	4.00072E-001	0.00000E+000	9	...........	1425.60
	39	3.5	4.00492E-001	1.32334E-004	0.00000E+000	4.00072E-001	0.00000E+000	9	...........	1425.60
	40	3.6	4.00487E-001	1.28879E-004	0.00000E+000	4.00072E-001	0.00000E+000	9	...........	1425.60
	41	3.7	4.00492E-001	1.25641E-004	0.00000E+000	4.00072E-001	0.00000E+000	9	...........	1425.60
	42	3.8	4.00496E-001	1.22515E-004	0.00000E+000	4.00072E-001	0.00000E+000	9	...........	1425.60
	43	3.9	4.00504E-001	1.19591E-004	0.00000E+000	4.00072E-001	0.00000E+000	9	...........	1425.60
	44	4	4.00497E-001	1.16812E-004	0.00000E+000	4.00072E-001	0.00000E+000	9	...........	1425.60
	45	4.1	4.00495E-001	1.14140E-004	0.00000E+000	4.00072E-001	0.00000E+000	9	...........	1425.60
	46	4.2	4.00494E-001	1.11594E-004	0.00000E+000	4.00072E-001	0.00000E+000	9	...........	1425.60
	47	4.3	4.00492E-001	1.09184E-004	0.00000E+000	4.00072E-001	0.00000E+000	9	...........	1425.60
	48	4.4	4.00495E-001	1.06901E-004	0.00000E+000	4.00072E-001	0.00000E+000	9	...........	1425.60
	49	4.5	4.00501E-001	1.04649E-004	0.00000E+000	4.00072E-001	0.00000E+000	9	...........	1425.60
	50	4.6	4.00487E-001	1.02621E-004	0.00000E+000	4.00072E-001	0.00000E+000	9	...........	1425.60
	51	4.7	4.00494E-001	1.00634E-004	0.00000E+000	4.00072E-001	0.00000E+000	9	...........	1425.60
	52	4.8	4.00495E-001	9.87112E-005	0.00000E+000	4.00072E-001	0.00000E+000	9	...........	1425.60
	53	4.9	4.00491E-001	9.68817E-005	0.00000E+000	4.00072E-001	0.00000E+000	9	...........	1425.60
	54	5	4.00480E-001	9.51204E-005	0.00000E+000	4.00072E-001	0.00000E+000	9	...........	1425.60
	55	5.1	4.00491E-001	9.34344E-005	0.00000E+000	4.00072E-001	0.00000E+000	9	...........	1425.60
	56	5.2	4.00515E-001	9.18192E-005	0.00000E+000	4.00072E-001	0.00000E+000	9	...........	1425.60
	57	5.3	4.00501E-001	9.02776E-005	0.00000E+000	4.00072E-001	0.00000E+000	9	...........	1425.51
	58	5.4	4.00496E-001	8.87707E-005	0.00000E+000	4.00072E-001	0.00000E+000	9	...........	1425.51
	59	5.5	4.00491E-001	8.73278E-005	0.00000E+000	4.00072E-001	0.00000E+000	9	...........	1425.51
	60	5.6	4.00493E-001	8.59412E-005	0.00000E+000	4.00072E-001	0.00000E+000	9	...........	1425.51
	61	5.7	4.00485E-001	8.45597E-005	0.00000E+000	4.00072E-001	0.00000E+000	9	...........	1425.51
	62	5.8	4.00498E-001	8.32950E-005	0.00000E+000	4.00072E-001	0.00000E+000	9	...........	1425.51
	63	5.9	4.00504E-001	8.20346E-005	0.00000E+000	4.00072E-001	0.00000E+000	9	...........	1425.51
	64	6	4.00494E-001	8.08238E-005	0.00000E+000	4.00072E-001	0.00000E+000	9	...........	1425.51
	65	6.1	4.00493E-001	7.96522E-005	0.00000E+000	4.00072E-001	0.00000E+000	9	...........	1425.51
	66	7.1	4.00486E-001	6.99476E-005	0.00000E+000	4.00072E-001	0.00000E+000	9	...........	1425.51
	67	8.1	4.00488E-001	6.26259E-005	0.00000E+000	4.00072E-001	0.00000E+000	9	...........	1425.51
	68	9.1	4.00492E-001	5.72373E-005	0.00000E+000	4.00072E-001	0.00000E+000	9	...........	1425.60
	69	10.1	4.00495E-001	5.28362E-005	0.00000E+000	4.00072E-001	0.00000E+000	9	...........	1425.60
	70	11.1	4.00494E-001	4.92678E-005	0.00000E+000	4.00072E-001	0.00000E+000	9	...........	1425.60
	71	12.1	4.00497E-001	4.63431E-005	0.00000E+000	4.00072E-001	0.00000E+000	9	...........	1425.60
	72	13.1	4.00493E-001	4.39310E-005	0.00000E+000	4.00072E-001	0.00000E+000	9	...........	1425.60
	73	14.1	4.00486E-001	4.18793E-005	0.00000E+000	4.00072E-001	0.00000E+000	9	...........	1425.60
	74	15.1	4.00488E-001	3.99063E-005	0.00000E+000	4.00072E-001	0.00000E+000	9	...........	1425.60
	75	16.1	4.00504E-001	3.81555E-005	0.00000E+000	4.00072E-001	0.00000E+000	9	...........	1425.60
	76	26.1	4.00497E-001	2.79482E-005	0.00000E+000	4.00072E-001	0.00000E+000	9	...........	1425.60
	77	36.1	4.00487E-001	2.36116E-005	0.00000E+000	4.00072E-001	0.00000E+000	9	...........	1425.60
	78	46.1	4.00500E-001	2.13766E-005	0.00000E+000	4.00072E-001	0.00000E+000	9	...........	1425.60
	79	56.1	4.00495E-001	1.93642E-005	0.00000E+000	4.00072E-001	0.00000E+000	9	...........	1425.60
	80	66.1	4.00502E-001	1.83332E-005	0.00000E+000	4.00072E-001	0.00000E+000	9	...........	1425.60
	81	76.1	4.00498E-001	1.78195E-005	0.00000E+000	4.00072E-001	0.00000E+000	9	...........	1425.60
	82	86.1	4.00502E-001	1.71735E-005	0.00000E+000	4.00072E-001	0.00000E+000	9	...........	1425.60
	83	96.1	4.00492E-001	1.63816E-005	0.00000E+000	4.00072E-001	0.00000E+000	9	...........	1425.60
	84	106.1	4.00488E-001	1.61317E-005	0.00000E+000	4.00072E-001	0.00000E+000	9	...........	1425.60
	85	116.1	4.00501E-001	1.60493E-005	0.00000E+000	4.00072E-001	0.00000E+000	9	...........	1425.60
	86	216.1	4.00493E-001	1.53429E-005	0.00000E+000	4.00072E-001	0.00000E+000	9	...........	1425.60
	87	316.1	4.00506E-001	1.49029E-005	0.00000E+000	4.00072E-001	0.00000E+000	9	...........	1425.60
	88	360	4.00501E-001	1.51250E-005	0.00000E+000	4.00072E-001	0.00000E+000	9	...........	1425.60
	89	360.1	3.00452E-001	-4.39453E-004	0.00000E+000	3.00072E-001	0.00000E+000	9	...........	1425.60
	90	360.2	3.00441E-001	-3.55372E-004	0.00000E+000	3.00072E-001	0.00000E+000	9	...........	1425.60
	91	360.3	3.00446E-001	-2.94662E-004	0.00000E+000	3.00072E-001	0.00000E+000	9	...........	1425.60
	92	360.4	3.00445E-001	-2.48489E-004	0.00000E+000	3.00072E-001	0.00000E+000	9	...........	1425.60
	93	360.5	3.00438E-001	-2.12646E-004	0.00000E+000	3.00072E-001	0.00000E+000	9	...........	1425.60
	94	360.6	3.00432E-001	-1.84501E-004	0.00000E+000	3.00072E-001	0.00000E+000	9	...........	1425.60
	95	360.7	3.00440E-001	-1.62102E-004	0.00000E+000	3.00072E-001	0.00000E+000	9	...........	1425.60
	96	360.8	3.00443E-001	-1.44134E-004	0.00000E+000	3.00072E-001	0.00000E+000	9	...........	1425.60
	97	360.9	3.00433E-001	-1.29534E-004	0.00000E+000	3.00072E-001	0.00000E+000	9	...........	1425.60
	98	361	3.00446E-001	-1.17590E-004	0.00000E+000	3.00072E-001	0.00000E+000	9	...........	1425.60
