EXPLAIN
TAG	CHRONOA
TITLE	LABEL	Chronoamperometry Scan	Test Identifier
DATE	LABEL	15/12/2021	Date
TIME	LABEL	19:28:12	Time
NOTES	NOTES	1	Notes...
	
PSTAT	PSTAT	IFC1010-21051	Potentiostat
VPRESTEP	POTEN	3.00000E-001	F	Pre-step Voltage (V)
TPRESTEP	QUANT	5.00000E-001	Pre-step Delay Time (s)
VSTEP1	POTEN	4.00000E-001	F	Step 1 Voltage (V)
TSTEP1	QUANT	3.60000E+002	Step 1 Time (s)
VSTEP2	POTEN	3.00000E-001	F	Step 2 Voltage (V)
TSTEP2	QUANT	1.00000E+000	Step 2 Time (s)
SAMPLETIME	QUANT	1.00000E-001	Sample Period (s)
DECIMATE	TOGGLE	T	Decimate
ILIMIT	QUANT	1.00000E+000	Limit I (mA/cm^2)
IMODE	SELECTOR	1	I/E Range Mode
IRANGE	QUANT	3.00000E-001	Max Current (mA)
EQDELAY	QUANT	5.00000E+000	Equil. Time (s)
SAMPLINGMODE	SELECTOR	1	Sampling Mode
AREA	QUANT	1.00000E+000	Sample Area (cm^2)
IRCOMP	SELECTOR	0	IRComp
PFCOR	QUANT	5.00000E+001	PF Corr. (ohm)
SEQUENCER	TOGGLE	TRUE	Run as Sequence
PSTATMODEL	IQUANT	64	Pstat Model
PSTATSECTION	LABEL	IFC1010-21051	Pstat Section
PSTATSERIALNO	LABEL	21051	Pstat Serial Number
CTRLMODE	IQUANT	1	Control Mode
ELECTROMETER	IQUANT	0	RE=0 or CS=1
IESTAB	IQUANT	0	I/E Stability
CASPEED	IQUANT	4	Control Amp Speed
CONVENTION	IQUANT	1	Current Convention
ICHRANGE	IQUANT	2	Ich Range
ICHRANGEMODE	TOGGLE	T	Ich Auto Range
ICHOFFSETENABLE	TOGGLE	F	Ich Offset Enable
ICHOFFSET	QUANT	0	Ich Offset (V)
ICHFILTER	IQUANT	3	Ich Filter
VCHRANGE	IQUANT	3	Vch Range
VCHRANGEMODE	TOGGLE	T	Vch Auto Range
VCHOFFSETENABLE	TOGGLE	F	Vch Offset Enable
VCHOFFSET	QUANT	0	Vch Offset (V)
VCHFILTER	IQUANT	3	Vch Filter
IERANGELOWERLIMIT	IQUANT	4	I/E Range Lower Limit
IERANGEMODE	TOGGLE	F	I/E AutoRange
IERANGE	IQUANT	9	I/E Range
ACHSELECT	IQUANT	0	Ach Select
ACHRANGE	IQUANT	2	Ach Range
ACHOFFSETENABLE	TOGGLE	F	Ach Offset Enable
ACHOFFSET	QUANT	0	Ach Offset (V)
ACHFILTER	IQUANT	1	Ach Filter
SENSECABLEID	IQUANT	14	Sense Cable ID
PWRCABLEID	IQUANT	14	Power Cable ID
DCCALDATE	LABEL	10/1/2020	DC Calibration Date
ACCALDATE	LABEL	4/2/2018	AC Calibration Date
FRAMEWORKVERSION	QUANT	7.06	Framework Version
INSTRUMENTVERSION	LABEL	4.30	Instrument Version
CURVE	TABLE	99
	Pt	T	Vf	Im	Vu	Sig	Ach	IERange	Over	Temp
	#	s	V vs. Ref.	A	V	V	V	#	bits	deg C
	0	-0.4	3.00055E-001	1.72451E-005	0.00000E+000	3.00072E-001	0.00000E+000	9	...........	1426.04
	1	-0.3	3.00420E-001	1.70641E-005	0.00000E+000	3.00072E-001	0.00000E+000	9	...........	1426.04
	2	-0.2	3.00420E-001	1.69050E-005	0.00000E+000	3.00072E-001	0.00000E+000	9	...........	1426.04
	3	-0.1	3.00425E-001	1.67501E-005	0.00000E+000	3.00072E-001	0.00000E+000	9	...........	1426.04
	4	0	3.00431E-001	1.65662E-005	0.00000E+000	3.00072E-001	0.00000E+000	9	...........	1426.04
	5	0.1	4.00472E-001	6.21947E-004	0.00000E+000	4.00072E-001	0.00000E+000	9	...........	1426.04
	6	0.2	4.00480E-001	5.25573E-004	0.00000E+000	4.00072E-001	0.00000E+000	9	...........	1426.04
	7	0.3	4.00487E-001	4.56544E-004	0.00000E+000	4.00072E-001	0.00000E+000	9	...........	1426.04
	8	0.4	4.00482E-001	4.04404E-004	0.00000E+000	4.00072E-001	0.00000E+000	9	...........	1426.04
	9	0.5	4.00482E-001	3.63236E-004	0.00000E+000	4.00072E-001	0.00000E+000	9	...........	1426.04
	10	0.6	4.00480E-001	3.29810E-004	0.00000E+000	4.00072E-001	0.00000E+000	9	...........	1426.04
	11	0.7	4.00484E-001	3.02121E-004	0.00000E+000	4.00072E-001	0.00000E+000	9	...........	1426.04
	12	0.8	4.00478E-001	2.78767E-004	0.00000E+000	4.00072E-001	0.00000E+000	9	...........	1426.04
	13	0.9	4.00482E-001	2.58775E-004	0.00000E+000	4.00072E-001	0.00000E+000	9	...........	1426.04
	14	1	4.00475E-001	2.40987E-004	0.00000E+000	4.00072E-001	0.00000E+000	9	...........	1426.04
	15	1.1	4.00479E-001	2.25655E-004	0.00000E+000	4.00072E-001	0.00000E+000	9	...........	1426.04
	16	1.2	4.00486E-001	2.12243E-004	0.00000E+000	4.00072E-001	0.00000E+000	9	...........	1426.04
	17	1.3	4.00467E-001	2.00331E-004	0.00000E+000	4.00072E-001	0.00000E+000	9	...........	1425.60
	18	1.4	4.00466E-001	1.89730E-004	0.00000E+000	4.00072E-001	0.00000E+000	9	...........	1425.60
	19	1.5	4.00491E-001	1.80137E-004	0.00000E+000	4.00072E-001	0.00000E+000	9	...........	1425.60
	20	1.6	4.00480E-001	1.71528E-004	0.00000E+000	4.00072E-001	0.00000E+000	9	...........	1425.60
	21	1.7	4.00481E-001	1.63620E-004	0.00000E+000	4.00072E-001	0.00000E+000	9	...........	1425.60
	22	1.8	4.00481E-001	1.56437E-004	0.00000E+000	4.00072E-001	0.00000E+000	9	...........	1425.60
	23	1.9	4.00482E-001	1.49822E-004	0.00000E+000	4.00072E-001	0.00000E+000	9	...........	1425.60
	24	2	4.00486E-001	1.43738E-004	0.00000E+000	4.00072E-001	0.00000E+000	9	...........	1425.60
	25	2.1	4.00481E-001	1.38102E-004	0.00000E+000	4.00072E-001	0.00000E+000	9	...........	1425.60
	26	2.2	4.00483E-001	1.32930E-004	0.00000E+000	4.00072E-001	0.00000E+000	9	...........	1425.60
	27	2.3	4.00491E-001	1.28065E-004	0.00000E+000	4.00072E-001	0.00000E+000	9	...........	1425.78
	28	2.4	4.00481E-001	1.23601E-004	0.00000E+000	4.00072E-001	0.00000E+000	9	...........	1425.78
	29	2.5	4.00475E-001	1.19429E-004	0.00000E+000	4.00072E-001	0.00000E+000	9	...........	1425.78
	30	2.6	4.00481E-001	1.15567E-004	0.00000E+000	4.00072E-001	0.00000E+000	9	...........	1425.78
	31	2.7	4.00480E-001	1.11918E-004	0.00000E+000	4.00072E-001	0.00000E+000	9	...........	1425.78
	32	2.8	4.00482E-001	1.08521E-004	0.00000E+000	4.00072E-001	0.00000E+000	9	...........	1425.78
	33	2.9	4.00478E-001	1.05341E-004	0.00000E+000	4.00072E-001	0.00000E+000	9	...........	1425.78
	34	3	4.00477E-001	1.02338E-004	0.00000E+000	4.00072E-001	0.00000E+000	9	...........	1425.78
	35	3.1	4.00483E-001	9.95389E-005	0.00000E+000	4.00072E-001	0.00000E+000	9	...........	1425.78
	36	3.2	4.00480E-001	9.69347E-005	0.00000E+000	4.00072E-001	0.00000E+000	9	...........	1425.78
	37	3.3	4.00476E-001	9.45028E-005	0.00000E+000	4.00072E-001	0.00000E+000	9	...........	1425.95
	38	3.4	4.00483E-001	9.21953E-005	0.00000E+000	4.00072E-001	0.00000E+000	9	...........	1425.95
	39	3.5	4.00473E-001	9.00563E-005	0.00000E+000	4.00072E-001	0.00000E+000	9	...........	1425.95
	40	3.6	4.00478E-001	8.80818E-005	0.00000E+000	4.00072E-001	0.00000E+000	9	...........	1425.95
	41	3.7	4.00476E-001	8.62178E-005	0.00000E+000	4.00072E-001	0.00000E+000	9	...........	1425.95
	42	3.8	4.00487E-001	8.44710E-005	0.00000E+000	4.00072E-001	0.00000E+000	9	...........	1425.95
	43	3.9	4.00486E-001	8.27998E-005	0.00000E+000	4.00072E-001	0.00000E+000	9	...........	1425.95
	44	4	4.00488E-001	8.12497E-005	0.00000E+000	4.00072E-001	0.00000E+000	9	...........	1425.95
	45	4.1	4.00486E-001	7.97000E-005	0.00000E+000	4.00072E-001	0.00000E+000	9	...........	1425.95
	46	4.2	4.00486E-001	7.82748E-005	0.00000E+000	4.00072E-001	0.00000E+000	9	...........	1425.95
	47	4.3	4.00493E-001	7.68630E-005	0.00000E+000	4.00072E-001	0.00000E+000	9	...........	1425.95
	48	4.4	4.00483E-001	7.55933E-005	0.00000E+000	4.00072E-001	0.00000E+000	9	...........	1425.95
	49	4.5	4.00488E-001	7.43290E-005	0.00000E+000	4.00072E-001	0.00000E+000	9	...........	1425.95
	50	4.6	4.00485E-001	7.31198E-005	0.00000E+000	4.00072E-001	0.00000E+000	9	...........	1425.95
	51	4.7	4.00489E-001	7.19693E-005	0.00000E+000	4.00072E-001	0.00000E+000	9	...........	1425.95
	52	4.8	4.00488E-001	7.08334E-005	0.00000E+000	4.00072E-001	0.00000E+000	9	...........	1425.95
	53	4.9	4.00482E-001	6.98005E-005	0.00000E+000	4.00072E-001	0.00000E+000	9	...........	1425.95
	54	5	4.00491E-001	6.87853E-005	0.00000E+000	4.00072E-001	0.00000E+000	9	...........	1425.95
	55	5.1	4.00485E-001	6.77990E-005	0.00000E+000	4.00072E-001	0.00000E+000	9	...........	1425.95
	56	5.2	4.00485E-001	6.68417E-005	0.00000E+000	4.00072E-001	0.00000E+000	9	...........	1425.95
	57	5.3	4.00482E-001	6.58916E-005	0.00000E+000	4.00072E-001	0.00000E+000	9	...........	1425.95
	58	5.4	4.00483E-001	6.49905E-005	0.00000E+000	4.00072E-001	0.00000E+000	9	...........	1425.95
	59	5.5	4.00486E-001	6.40752E-005	0.00000E+000	4.00072E-001	0.00000E+000	9	...........	1425.95
	60	5.6	4.00482E-001	6.32163E-005	0.00000E+000	4.00072E-001	0.00000E+000	9	...........	1425.95
	61	5.7	4.00483E-001	6.23900E-005	0.00000E+000	4.00072E-001	0.00000E+000	9	...........	1425.95
	62	5.8	4.00484E-001	6.16181E-005	0.00000E+000	4.00072E-001	0.00000E+000	9	...........	1425.95
	63	5.9	4.00470E-001	6.08490E-005	0.00000E+000	4.00072E-001	0.00000E+000	9	...........	1425.95
	64	6	4.00469E-001	6.01019E-005	0.00000E+000	4.00072E-001	0.00000E+000	9	...........	1425.95
	65	6.1	4.00466E-001	5.93810E-005	0.00000E+000	4.00072E-001	0.00000E+000	9	...........	1425.95
	66	7.1	4.00487E-001	5.32065E-005	0.00000E+000	4.00072E-001	0.00000E+000	9	...........	1425.95
	67	8.1	4.00482E-001	4.86400E-005	0.00000E+000	4.00072E-001	0.00000E+000	9	...........	1425.95
	68	9.1	4.00480E-001	4.48782E-005	0.00000E+000	4.00072E-001	0.00000E+000	9	...........	1426.04
	69	10.1	4.00474E-001	4.18919E-005	0.00000E+000	4.00072E-001	0.00000E+000	9	...........	1425.95
	70	11.1	4.00489E-001	3.96262E-005	0.00000E+000	4.00072E-001	0.00000E+000	9	...........	1425.95
	71	12.1	4.00482E-001	3.76468E-005	0.00000E+000	4.00072E-001	0.00000E+000	9	...........	1426.04
	72	13.1	4.00480E-001	3.58032E-005	0.00000E+000	4.00072E-001	0.00000E+000	9	...........	1426.04
	73	14.1	4.00481E-001	3.43025E-005	0.00000E+000	4.00072E-001	0.00000E+000	9	...........	1425.95
	74	15.1	4.00487E-001	3.29440E-005	0.00000E+000	4.00072E-001	0.00000E+000	9	...........	1425.95
	75	16.1	4.00482E-001	3.14470E-005	0.00000E+000	4.00072E-001	0.00000E+000	9	...........	1425.95
	76	26.1	4.00483E-001	2.41012E-005	0.00000E+000	4.00072E-001	0.00000E+000	9	...........	1426.04
	77	36.1	4.00501E-001	2.06267E-005	0.00000E+000	4.00072E-001	0.00000E+000	9	...........	1426.04
	78	46.1	4.00490E-001	1.86084E-005	0.00000E+000	4.00072E-001	0.00000E+000	9	...........	1426.04
	79	56.1	4.00478E-001	1.71055E-005	0.00000E+000	4.00072E-001	0.00000E+000	9	...........	1426.04
	80	66.1	4.00494E-001	1.61238E-005	0.00000E+000	4.00072E-001	0.00000E+000	9	...........	1426.04
	81	76.1	4.00482E-001	1.56306E-005	0.00000E+000	4.00072E-001	0.00000E+000	9	...........	1426.04
	82	86.1	4.00484E-001	1.51174E-005	0.00000E+000	4.00072E-001	0.00000E+000	9	...........	1426.04
	83	96.1	4.00496E-001	1.45946E-005	0.00000E+000	4.00072E-001	0.00000E+000	9	...........	1426.04
	84	106.1	4.00484E-001	1.41082E-005	0.00000E+000	4.00072E-001	0.00000E+000	9	...........	1426.04
	85	116.1	4.00493E-001	1.39081E-005	0.00000E+000	4.00072E-001	0.00000E+000	9	...........	1426.04
	86	216.1	4.00472E-001	1.32029E-005	0.00000E+000	4.00072E-001	0.00000E+000	9	...........	1426.04
	87	316.1	4.00482E-001	1.24735E-005	0.00000E+000	4.00072E-001	0.00000E+000	9	...........	1425.95
	88	360	4.00487E-001	1.27248E-005	0.00000E+000	4.00072E-001	0.00000E+000	9	...........	1426.04
	89	360.1	3.00437E-001	-2.91726E-004	0.00000E+000	3.00072E-001	0.00000E+000	9	...........	1426.04
	90	360.2	3.00440E-001	-1.93184E-004	0.00000E+000	3.00072E-001	0.00000E+000	9	...........	1426.04
	91	360.3	3.00431E-001	-1.45438E-004	0.00000E+000	3.00072E-001	0.00000E+000	9	...........	1426.04
	92	360.4	3.00432E-001	-1.18047E-004	0.00000E+000	3.00072E-001	0.00000E+000	9	...........	1426.04
	93	360.5	3.00442E-001	-1.00438E-004	0.00000E+000	3.00072E-001	0.00000E+000	9	...........	1426.04
	94	360.6	3.00440E-001	-8.81179E-005	0.00000E+000	3.00072E-001	0.00000E+000	9	...........	1426.04
	95	360.7	3.00435E-001	-7.89900E-005	0.00000E+000	3.00072E-001	0.00000E+000	9	...........	1426.04
	96	360.8	3.00437E-001	-7.18716E-005	0.00000E+000	3.00072E-001	0.00000E+000	9	...........	1426.04
	97	360.9	3.00440E-001	-6.61805E-005	0.00000E+000	3.00072E-001	0.00000E+000	9	...........	1426.04
	98	361	3.00434E-001	-6.14783E-005	0.00000E+000	3.00072E-001	0.00000E+000	9	...........	1426.04
