EXPLAIN
TAG	CHRONOA
TITLE	LABEL	Chronoamperometry Scan	Test Identifier
DATE	LABEL	15/12/2021	Date
TIME	LABEL	21:13:55	Time
NOTES	NOTES	1	Notes...
	
PSTAT	PSTAT	IFC1010-21051	Potentiostat
VPRESTEP	POTEN	-3.00000E-001	F	Pre-step Voltage (V)
TPRESTEP	QUANT	5.00000E-001	Pre-step Delay Time (s)
VSTEP1	POTEN	-4.00000E-001	F	Step 1 Voltage (V)
TSTEP1	QUANT	3.60000E+002	Step 1 Time (s)
VSTEP2	POTEN	-5.00000E-001	F	Step 2 Voltage (V)
TSTEP2	QUANT	1.00000E+000	Step 2 Time (s)
SAMPLETIME	QUANT	1.00000E-001	Sample Period (s)
DECIMATE	TOGGLE	T	Decimate
ILIMIT	QUANT	1.00000E+000	Limit I (mA/cm^2)
IMODE	SELECTOR	1	I/E Range Mode
IRANGE	QUANT	3.00000E-001	Max Current (mA)
EQDELAY	QUANT	5.00000E+000	Equil. Time (s)
SAMPLINGMODE	SELECTOR	1	Sampling Mode
AREA	QUANT	1.00000E+000	Sample Area (cm^2)
IRCOMP	SELECTOR	0	IRComp
PFCOR	QUANT	5.00000E+001	PF Corr. (ohm)
SEQUENCER	TOGGLE	TRUE	Run as Sequence
PSTATMODEL	IQUANT	64	Pstat Model
PSTATSECTION	LABEL	IFC1010-21051	Pstat Section
PSTATSERIALNO	LABEL	21051	Pstat Serial Number
CTRLMODE	IQUANT	1	Control Mode
ELECTROMETER	IQUANT	0	RE=0 or CS=1
IESTAB	IQUANT	0	I/E Stability
CASPEED	IQUANT	4	Control Amp Speed
CONVENTION	IQUANT	1	Current Convention
ICHRANGE	IQUANT	2	Ich Range
ICHRANGEMODE	TOGGLE	T	Ich Auto Range
ICHOFFSETENABLE	TOGGLE	F	Ich Offset Enable
ICHOFFSET	QUANT	0	Ich Offset (V)
ICHFILTER	IQUANT	3	Ich Filter
VCHRANGE	IQUANT	3	Vch Range
VCHRANGEMODE	TOGGLE	T	Vch Auto Range
VCHOFFSETENABLE	TOGGLE	F	Vch Offset Enable
VCHOFFSET	QUANT	0	Vch Offset (V)
VCHFILTER	IQUANT	3	Vch Filter
IERANGELOWERLIMIT	IQUANT	4	I/E Range Lower Limit
IERANGEMODE	TOGGLE	F	I/E AutoRange
IERANGE	IQUANT	9	I/E Range
ACHSELECT	IQUANT	0	Ach Select
ACHRANGE	IQUANT	2	Ach Range
ACHOFFSETENABLE	TOGGLE	F	Ach Offset Enable
ACHOFFSET	QUANT	0	Ach Offset (V)
ACHFILTER	IQUANT	1	Ach Filter
SENSECABLEID	IQUANT	14	Sense Cable ID
PWRCABLEID	IQUANT	14	Power Cable ID
DCCALDATE	LABEL	10/1/2020	DC Calibration Date
ACCALDATE	LABEL	4/2/2018	AC Calibration Date
FRAMEWORKVERSION	QUANT	7.06	Framework Version
INSTRUMENTVERSION	LABEL	4.30	Instrument Version
CURVE	TABLE	99
	Pt	T	Vf	Im	Vu	Sig	Ach	IERange	Over	Temp
	#	s	V vs. Ref.	A	V	V	V	#	bits	deg C
	0	-0.4	-3.00772E-001	-1.22939E-004	0.00000E+000	-3.00011E-001	0.00000E+000	9	...........	1426.04
	1	-0.3	-3.00559E-001	-1.22668E-004	0.00000E+000	-3.00011E-001	0.00000E+000	9	...........	1426.04
	2	-0.2	-3.00560E-001	-1.22433E-004	0.00000E+000	-3.00011E-001	0.00000E+000	9	...........	1426.04
	3	-0.1	-3.00558E-001	-1.22172E-004	0.00000E+000	-3.00011E-001	0.00000E+000	9	...........	1426.04
	4	0	-3.00546E-001	-1.21896E-004	0.00000E+000	-3.00011E-001	0.00000E+000	9	...........	1426.04
	5	0.1	-4.00597E-001	-4.66675E-004	0.00000E+000	-4.00011E-001	0.00000E+000	9	...........	1426.04
	6	0.2	-4.00584E-001	-4.18797E-004	0.00000E+000	-4.00011E-001	0.00000E+000	9	...........	1426.04
	7	0.3	-4.00588E-001	-4.06431E-004	0.00000E+000	-4.00011E-001	0.00000E+000	9	...........	1426.04
	8	0.4	-4.00597E-001	-3.99008E-004	0.00000E+000	-4.00011E-001	0.00000E+000	9	...........	1426.04
	9	0.5	-4.00591E-001	-3.92973E-004	0.00000E+000	-4.00011E-001	0.00000E+000	9	...........	1426.04
	10	0.6	-4.00588E-001	-3.87580E-004	0.00000E+000	-4.00011E-001	0.00000E+000	9	...........	1425.87
	11	0.7	-4.00592E-001	-3.82735E-004	0.00000E+000	-4.00011E-001	0.00000E+000	9	...........	1425.87
	12	0.8	-4.00600E-001	-3.78287E-004	0.00000E+000	-4.00011E-001	0.00000E+000	9	...........	1425.87
	13	0.9	-4.00605E-001	-3.74125E-004	0.00000E+000	-4.00011E-001	0.00000E+000	9	...........	1425.87
	14	1	-4.00593E-001	-3.70135E-004	0.00000E+000	-4.00011E-001	0.00000E+000	9	...........	1425.87
	15	1.1	-4.00605E-001	-3.66463E-004	0.00000E+000	-4.00011E-001	0.00000E+000	9	...........	1425.87
	16	1.2	-4.00589E-001	-3.62928E-004	0.00000E+000	-4.00011E-001	0.00000E+000	9	...........	1425.87
	17	1.3	-4.00584E-001	-3.59581E-004	0.00000E+000	-4.00011E-001	0.00000E+000	9	...........	1425.87
	18	1.4	-4.00593E-001	-3.56396E-004	0.00000E+000	-4.00011E-001	0.00000E+000	9	...........	1425.87
	19	1.5	-4.00591E-001	-3.53407E-004	0.00000E+000	-4.00011E-001	0.00000E+000	9	...........	1425.87
	20	1.6	-4.00592E-001	-3.50457E-004	0.00000E+000	-4.00011E-001	0.00000E+000	9	...........	1426.04
	21	1.7	-4.00604E-001	-3.47711E-004	0.00000E+000	-4.00011E-001	0.00000E+000	9	...........	1426.04
	22	1.8	-4.00591E-001	-3.45015E-004	0.00000E+000	-4.00011E-001	0.00000E+000	9	...........	1426.04
	23	1.9	-4.00590E-001	-3.42430E-004	0.00000E+000	-4.00011E-001	0.00000E+000	9	...........	1426.04
	24	2	-4.00593E-001	-3.39979E-004	0.00000E+000	-4.00011E-001	0.00000E+000	9	...........	1426.04
	25	2.1	-4.00578E-001	-3.37474E-004	0.00000E+000	-4.00011E-001	0.00000E+000	9	...........	1426.04
	26	2.2	-4.00600E-001	-3.35222E-004	0.00000E+000	-4.00011E-001	0.00000E+000	9	...........	1426.04
	27	2.3	-4.00586E-001	-3.32885E-004	0.00000E+000	-4.00011E-001	0.00000E+000	9	...........	1426.04
	28	2.4	-4.00601E-001	-3.30762E-004	0.00000E+000	-4.00011E-001	0.00000E+000	9	...........	1426.04
	29	2.5	-4.00595E-001	-3.28598E-004	0.00000E+000	-4.00011E-001	0.00000E+000	9	...........	1426.04
	30	2.6	-4.00581E-001	-3.26496E-004	0.00000E+000	-4.00011E-001	0.00000E+000	9	...........	1426.04
	31	2.7	-4.00589E-001	-3.24541E-004	0.00000E+000	-4.00011E-001	0.00000E+000	9	...........	1426.04
	32	2.8	-4.00598E-001	-3.22628E-004	0.00000E+000	-4.00011E-001	0.00000E+000	9	...........	1426.04
	33	2.9	-4.00600E-001	-3.20715E-004	0.00000E+000	-4.00011E-001	0.00000E+000	9	...........	1426.04
	34	3	-4.00607E-001	-3.18901E-004	0.00000E+000	-4.00011E-001	0.00000E+000	9	...........	1426.04
	35	3.1	-4.00601E-001	-3.17102E-004	0.00000E+000	-4.00011E-001	0.00000E+000	9	...........	1426.04
	36	3.2	-4.00593E-001	-3.15331E-004	0.00000E+000	-4.00011E-001	0.00000E+000	9	...........	1426.04
	37	3.3	-4.00595E-001	-3.13653E-004	0.00000E+000	-4.00011E-001	0.00000E+000	9	...........	1426.04
	38	3.4	-4.00610E-001	-3.12025E-004	0.00000E+000	-4.00011E-001	0.00000E+000	9	...........	1426.04
	39	3.5	-4.00607E-001	-3.10358E-004	0.00000E+000	-4.00011E-001	0.00000E+000	9	...........	1426.04
	40	3.6	-4.00610E-001	-3.08792E-004	0.00000E+000	-4.00011E-001	0.00000E+000	9	...........	1425.60
	41	3.7	-4.00597E-001	-3.07232E-004	0.00000E+000	-4.00011E-001	0.00000E+000	9	...........	1425.60
	42	3.8	-4.00601E-001	-3.05778E-004	0.00000E+000	-4.00011E-001	0.00000E+000	9	...........	1425.60
	43	3.9	-4.00600E-001	-3.04315E-004	0.00000E+000	-4.00011E-001	0.00000E+000	9	...........	1425.60
	44	4	-4.00607E-001	-3.02896E-004	0.00000E+000	-4.00011E-001	0.00000E+000	9	...........	1425.60
	45	4.1	-4.00611E-001	-3.01488E-004	0.00000E+000	-4.00011E-001	0.00000E+000	9	...........	1425.60
	46	4.2	-4.00602E-001	-3.00151E-004	0.00000E+000	-4.00011E-001	0.00000E+000	9	...........	1425.60
	47	4.3	-4.00598E-001	-2.98817E-004	0.00000E+000	-4.00011E-001	0.00000E+000	9	...........	1425.60
	48	4.4	-4.00597E-001	-2.97471E-004	0.00000E+000	-4.00011E-001	0.00000E+000	9	...........	1425.60
	49	4.5	-4.00602E-001	-2.96257E-004	0.00000E+000	-4.00011E-001	0.00000E+000	9	...........	1425.60
	50	4.6	-4.00596E-001	-2.94995E-004	0.00000E+000	-4.00011E-001	0.00000E+000	9	...........	1425.69
	51	4.7	-4.00594E-001	-2.93737E-004	0.00000E+000	-4.00011E-001	0.00000E+000	9	...........	1425.69
	52	4.8	-4.00587E-001	-2.92487E-004	0.00000E+000	-4.00011E-001	0.00000E+000	9	...........	1425.69
	53	4.9	-4.00597E-001	-2.91327E-004	0.00000E+000	-4.00011E-001	0.00000E+000	9	...........	1425.69
	54	5	-4.00600E-001	-2.90182E-004	0.00000E+000	-4.00011E-001	0.00000E+000	9	...........	1425.69
	55	5.1	-4.00584E-001	-2.88998E-004	0.00000E+000	-4.00011E-001	0.00000E+000	9	...........	1425.69
	56	5.2	-4.00599E-001	-2.87914E-004	0.00000E+000	-4.00011E-001	0.00000E+000	9	...........	1425.69
	57	5.3	-4.00612E-001	-2.86829E-004	0.00000E+000	-4.00011E-001	0.00000E+000	9	...........	1425.69
	58	5.4	-4.00604E-001	-2.85724E-004	0.00000E+000	-4.00011E-001	0.00000E+000	9	...........	1425.69
	59	5.5	-4.00597E-001	-2.84646E-004	0.00000E+000	-4.00011E-001	0.00000E+000	9	...........	1425.69
	60	5.6	-4.00599E-001	-2.83630E-004	0.00000E+000	-4.00011E-001	0.00000E+000	9	...........	1426.04
	61	5.7	-4.00600E-001	-2.82556E-004	0.00000E+000	-4.00011E-001	0.00000E+000	9	...........	1426.04
	62	5.8	-4.00600E-001	-2.81514E-004	0.00000E+000	-4.00011E-001	0.00000E+000	9	...........	1426.04
	63	5.9	-4.00601E-001	-2.80482E-004	0.00000E+000	-4.00011E-001	0.00000E+000	9	...........	1426.04
	64	6	-4.00605E-001	-2.79433E-004	0.00000E+000	-4.00011E-001	0.00000E+000	9	...........	1426.04
	65	6.1	-4.00599E-001	-2.78474E-004	0.00000E+000	-4.00011E-001	0.00000E+000	9	...........	1426.04
	66	7.1	-4.00602E-001	-2.69199E-004	0.00000E+000	-4.00011E-001	0.00000E+000	9	...........	1425.87
	67	8.1	-4.00599E-001	-2.61115E-004	0.00000E+000	-4.00011E-001	0.00000E+000	9	...........	1426.04
	68	9.1	-4.00594E-001	-2.54021E-004	0.00000E+000	-4.00011E-001	0.00000E+000	9	...........	1426.04
	69	10.1	-4.00595E-001	-2.47476E-004	0.00000E+000	-4.00011E-001	0.00000E+000	9	...........	1426.04
	70	11.1	-4.00596E-001	-2.41495E-004	0.00000E+000	-4.00011E-001	0.00000E+000	9	...........	1426.13
	71	12.1	-4.00598E-001	-2.36176E-004	0.00000E+000	-4.00011E-001	0.00000E+000	9	...........	1426.04
	72	13.1	-4.00599E-001	-2.31460E-004	0.00000E+000	-4.00011E-001	0.00000E+000	9	...........	1426.04
	73	14.1	-4.00607E-001	-2.27248E-004	0.00000E+000	-4.00011E-001	0.00000E+000	9	...........	1426.04
	74	15.1	-4.00596E-001	-2.23202E-004	0.00000E+000	-4.00011E-001	0.00000E+000	9	...........	1426.13
	75	16.1	-4.00608E-001	-2.19587E-004	0.00000E+000	-4.00011E-001	0.00000E+000	9	...........	1426.13
	76	26.1	-4.00611E-001	-1.92373E-004	0.00000E+000	-4.00011E-001	0.00000E+000	9	...........	1426.13
	77	36.1	-4.00609E-001	-1.75563E-004	0.00000E+000	-4.00011E-001	0.00000E+000	9	...........	1426.13
	78	46.1	-4.00601E-001	-1.64144E-004	0.00000E+000	-4.00011E-001	0.00000E+000	9	...........	1426.13
	79	56.1	-4.00596E-001	-1.55966E-004	0.00000E+000	-4.00011E-001	0.00000E+000	9	...........	1426.13
	80	66.1	-4.00595E-001	-1.49326E-004	0.00000E+000	-4.00011E-001	0.00000E+000	9	...........	1426.13
	81	76.1	-4.00599E-001	-1.44138E-004	0.00000E+000	-4.00011E-001	0.00000E+000	9	...........	1426.13
	82	86.1	-4.00606E-001	-1.39216E-004	0.00000E+000	-4.00011E-001	0.00000E+000	9	...........	1426.13
	83	96.1	-4.00605E-001	-1.36058E-004	0.00000E+000	-4.00011E-001	0.00000E+000	9	...........	1426.04
	84	106.1	-4.00595E-001	-1.32436E-004	0.00000E+000	-4.00011E-001	0.00000E+000	9	...........	1426.22
	85	116.1	-4.00591E-001	-1.30157E-004	0.00000E+000	-4.00011E-001	0.00000E+000	9	...........	1426.22
	86	216.1	-4.00600E-001	-1.20053E-004	0.00000E+000	-4.00011E-001	0.00000E+000	9	...........	1426.22
	87	316.1	-4.00602E-001	-1.15329E-004	0.00000E+000	-4.00011E-001	0.00000E+000	9	...........	1426.22
	88	360	-4.00585E-001	-1.14447E-004	0.00000E+000	-4.00011E-001	0.00000E+000	9	...........	1426.22
	89	360.1	-5.00604E-001	-4.30671E-004	0.00000E+000	-5.00010E-001	0.00000E+000	9	...........	1426.22
	90	360.2	-5.00603E-001	-3.44600E-004	0.00000E+000	-5.00010E-001	0.00000E+000	9	...........	1426.22
	91	360.3	-5.00601E-001	-3.16091E-004	0.00000E+000	-5.00010E-001	0.00000E+000	9	...........	1426.22
	92	360.4	-5.00611E-001	-2.99759E-004	0.00000E+000	-5.00010E-001	0.00000E+000	9	...........	1426.22
	93	360.5	-5.00592E-001	-2.88082E-004	0.00000E+000	-5.00010E-001	0.00000E+000	9	...........	1426.22
	94	360.6	-5.00608E-001	-2.78922E-004	0.00000E+000	-5.00010E-001	0.00000E+000	9	...........	1426.22
	95	360.7	-5.00603E-001	-2.71361E-004	0.00000E+000	-5.00010E-001	0.00000E+000	9	...........	1426.22
	96	360.8	-5.00606E-001	-2.64962E-004	0.00000E+000	-5.00010E-001	0.00000E+000	9	...........	1426.22
	97	360.9	-5.00605E-001	-2.59313E-004	0.00000E+000	-5.00010E-001	0.00000E+000	9	...........	1426.22
	98	361	-5.00603E-001	-2.54382E-004	0.00000E+000	-5.00010E-001	0.00000E+000	9	...........	1426.22
