EXPLAIN
TAG	CHRONOA
TITLE	LABEL	Chronoamperometry Scan	Test Identifier
DATE	LABEL	15/12/2021	Date
TIME	LABEL	14:34:40	Time
NOTES	NOTES	1	Notes...
	
PSTAT	PSTAT	IFC1010-21051	Potentiostat
VPRESTEP	POTEN	1.00000E-002	F	Pre-step Voltage (V)
TPRESTEP	QUANT	5.00000E-001	Pre-step Delay Time (s)
VSTEP1	POTEN	0.00000E+000	F	Step 1 Voltage (V)
TSTEP1	QUANT	3.60000E+002	Step 1 Time (s)
VSTEP2	POTEN	-1.00000E-001	T	Step 2 Voltage (V)
TSTEP2	QUANT	1.00000E+000	Step 2 Time (s)
SAMPLETIME	QUANT	1.00000E-001	Sample Period (s)
DECIMATE	TOGGLE	T	Decimate
ILIMIT	QUANT	1.00000E+000	Limit I (mA/cm^2)
IMODE	SELECTOR	1	I/E Range Mode
IRANGE	QUANT	3.00000E-001	Max Current (mA)
EQDELAY	QUANT	5.00000E+000	Equil. Time (s)
SAMPLINGMODE	SELECTOR	1	Sampling Mode
AREA	QUANT	1.00000E+000	Sample Area (cm^2)
IRCOMP	SELECTOR	0	IRComp
PFCOR	QUANT	5.00000E+001	PF Corr. (ohm)
SEQUENCER	TOGGLE	TRUE	Run as Sequence
PSTATMODEL	IQUANT	64	Pstat Model
PSTATSECTION	LABEL	IFC1010-21051	Pstat Section
PSTATSERIALNO	LABEL	21051	Pstat Serial Number
CTRLMODE	IQUANT	1	Control Mode
ELECTROMETER	IQUANT	0	RE=0 or CS=1
IESTAB	IQUANT	0	I/E Stability
CASPEED	IQUANT	4	Control Amp Speed
CONVENTION	IQUANT	1	Current Convention
ICHRANGE	IQUANT	2	Ich Range
ICHRANGEMODE	TOGGLE	T	Ich Auto Range
ICHOFFSETENABLE	TOGGLE	F	Ich Offset Enable
ICHOFFSET	QUANT	0	Ich Offset (V)
ICHFILTER	IQUANT	3	Ich Filter
VCHRANGE	IQUANT	3	Vch Range
VCHRANGEMODE	TOGGLE	T	Vch Auto Range
VCHOFFSETENABLE	TOGGLE	F	Vch Offset Enable
VCHOFFSET	QUANT	0	Vch Offset (V)
VCHFILTER	IQUANT	3	Vch Filter
IERANGELOWERLIMIT	IQUANT	4	I/E Range Lower Limit
IERANGEMODE	TOGGLE	F	I/E AutoRange
IERANGE	IQUANT	9	I/E Range
ACHSELECT	IQUANT	0	Ach Select
ACHRANGE	IQUANT	2	Ach Range
ACHOFFSETENABLE	TOGGLE	F	Ach Offset Enable
ACHOFFSET	QUANT	0	Ach Offset (V)
ACHFILTER	IQUANT	1	Ach Filter
SENSECABLEID	IQUANT	14	Sense Cable ID
PWRCABLEID	IQUANT	14	Power Cable ID
DCCALDATE	LABEL	10/1/2020	DC Calibration Date
ACCALDATE	LABEL	4/2/2018	AC Calibration Date
FRAMEWORKVERSION	QUANT	7.06	Framework Version
INSTRUMENTVERSION	LABEL	4.30	Instrument Version
CURVE	TABLE	99
	Pt	T	Vf	Im	Vu	Sig	Ach	IERange	Over	Temp
	#	s	V vs. Ref.	A	V	V	V	#	bits	deg C
	0	-0.4	9.71672E-003	-2.49642E-005	0.00000E+000	1.00559E-002	0.00000E+000	9	...........	1425.69
	1	-0.3	1.00163E-002	-2.47419E-005	0.00000E+000	1.00559E-002	0.00000E+000	9	...........	1425.69
	2	-0.2	1.00709E-002	-2.45402E-005	0.00000E+000	1.00559E-002	0.00000E+000	9	...........	1425.69
	3	-0.1	1.00768E-002	-2.43517E-005	0.00000E+000	1.00559E-002	0.00000E+000	9	...........	1425.69
	4	0	1.00764E-002	-2.41539E-005	0.00000E+000	1.00559E-002	0.00000E+000	9	...........	1425.69
	5	0.1	6.98230E-005	-5.94086E-005	0.00000E+000	5.34840E-005	0.00000E+000	9	...........	1425.69
	6	0.2	6.98590E-005	-4.70372E-005	0.00000E+000	5.34840E-005	0.00000E+000	9	...........	1425.69
	7	0.3	6.92923E-005	-4.04208E-005	0.00000E+000	5.34840E-005	0.00000E+000	9	...........	1425.69
	8	0.4	6.86916E-005	-3.64410E-005	0.00000E+000	5.34840E-005	0.00000E+000	9	...........	1425.69
	9	0.5	6.95386E-005	-3.38378E-005	0.00000E+000	5.34840E-005	0.00000E+000	9	...........	1425.69
	10	0.6	6.89409E-005	-3.20343E-005	0.00000E+000	5.34840E-005	0.00000E+000	9	...........	1425.69
	11	0.7	6.92062E-005	-3.07325E-005	0.00000E+000	5.34840E-005	0.00000E+000	9	...........	1425.69
	12	0.8	6.91602E-005	-2.97308E-005	0.00000E+000	5.34840E-005	0.00000E+000	9	...........	1425.69
	13	0.9	7.03666E-005	-2.89392E-005	0.00000E+000	5.34840E-005	0.00000E+000	9	...........	1425.69
	14	1	6.83121E-005	-2.82954E-005	0.00000E+000	5.34840E-005	0.00000E+000	9	...........	1425.69
	15	1.1	7.04808E-005	-2.77493E-005	0.00000E+000	5.34840E-005	0.00000E+000	9	...........	1425.69
	16	1.2	7.04898E-005	-2.72930E-005	0.00000E+000	5.34840E-005	0.00000E+000	9	...........	1425.69
	17	1.3	6.92633E-005	-2.69136E-005	0.00000E+000	5.34840E-005	0.00000E+000	9	...........	1425.69
	18	1.4	6.95807E-005	-2.65858E-005	0.00000E+000	5.34840E-005	0.00000E+000	9	...........	1425.69
	19	1.5	6.90190E-005	-2.62905E-005	0.00000E+000	5.34840E-005	0.00000E+000	9	...........	1425.60
	20	1.6	6.94125E-005	-2.60199E-005	0.00000E+000	5.34840E-005	0.00000E+000	9	...........	1425.60
	21	1.7	6.87226E-005	-2.57722E-005	0.00000E+000	5.34840E-005	0.00000E+000	9	...........	1425.60
	22	1.8	7.06380E-005	-2.55384E-005	0.00000E+000	5.34840E-005	0.00000E+000	9	...........	1425.60
	23	1.9	7.03887E-005	-2.53343E-005	0.00000E+000	5.34840E-005	0.00000E+000	9	...........	1425.60
	24	2	6.88608E-005	-2.51240E-005	0.00000E+000	5.34840E-005	0.00000E+000	9	...........	1425.60
	25	2.1	6.99922E-005	-2.49255E-005	0.00000E+000	5.34840E-005	0.00000E+000	9	...........	1425.60
	26	2.2	6.98560E-005	-2.47459E-005	0.00000E+000	5.34840E-005	0.00000E+000	9	...........	1425.60
	27	2.3	6.98690E-005	-2.45645E-005	0.00000E+000	5.34840E-005	0.00000E+000	9	...........	1425.60
	28	2.4	6.91632E-005	-2.44152E-005	0.00000E+000	5.34840E-005	0.00000E+000	9	...........	1425.60
	29	2.5	6.97198E-005	-2.42630E-005	0.00000E+000	5.34840E-005	0.00000E+000	9	...........	1426.04
	30	2.6	7.09333E-005	-2.41267E-005	0.00000E+000	5.34840E-005	0.00000E+000	9	...........	1426.04
	31	2.7	6.96377E-005	-2.39894E-005	0.00000E+000	5.34840E-005	0.00000E+000	9	...........	1426.04
	32	2.8	7.02155E-005	-2.38632E-005	0.00000E+000	5.34840E-005	0.00000E+000	9	...........	1426.04
	33	2.9	7.05519E-005	-2.37292E-005	0.00000E+000	5.34840E-005	0.00000E+000	9	...........	1426.04
	34	3	6.90991E-005	-2.36138E-005	0.00000E+000	5.34840E-005	0.00000E+000	9	...........	1426.04
	35	3.1	7.02084E-005	-2.34971E-005	0.00000E+000	5.34840E-005	0.00000E+000	9	...........	1426.04
	36	3.2	7.08462E-005	-2.33859E-005	0.00000E+000	5.34840E-005	0.00000E+000	9	...........	1426.04
	37	3.3	6.98560E-005	-2.32749E-005	0.00000E+000	5.34840E-005	0.00000E+000	9	...........	1426.04
	38	3.4	7.10064E-005	-2.31623E-005	0.00000E+000	5.34840E-005	0.00000E+000	9	...........	1426.04
	39	3.5	7.04938E-005	-2.30504E-005	0.00000E+000	5.34840E-005	0.00000E+000	9	...........	1425.60
	40	3.6	7.08492E-005	-2.29350E-005	0.00000E+000	5.34840E-005	0.00000E+000	9	...........	1425.60
	41	3.7	7.13278E-005	-2.28234E-005	0.00000E+000	5.34840E-005	0.00000E+000	9	...........	1425.60
	42	3.8	7.06109E-005	-2.27110E-005	0.00000E+000	5.34840E-005	0.00000E+000	9	...........	1425.60
	43	3.9	6.99701E-005	-2.26030E-005	0.00000E+000	5.34840E-005	0.00000E+000	9	...........	1425.60
	44	4	7.01073E-005	-2.25053E-005	0.00000E+000	5.34840E-005	0.00000E+000	9	...........	1425.60
	45	4.1	7.00352E-005	-2.24037E-005	0.00000E+000	5.34840E-005	0.00000E+000	9	...........	1425.60
	46	4.2	7.02124E-005	-2.22948E-005	0.00000E+000	5.34840E-005	0.00000E+000	9	...........	1425.60
	47	4.3	7.03686E-005	-2.22009E-005	0.00000E+000	5.34840E-005	0.00000E+000	9	...........	1425.60
	48	4.4	6.93924E-005	-2.20978E-005	0.00000E+000	5.34840E-005	0.00000E+000	9	...........	1425.60
	49	4.5	7.01023E-005	-2.20067E-005	0.00000E+000	5.34840E-005	0.00000E+000	9	...........	1425.95
	50	4.6	7.01644E-005	-2.19204E-005	0.00000E+000	5.34840E-005	0.00000E+000	9	...........	1425.95
	51	4.7	7.08853E-005	-2.18308E-005	0.00000E+000	5.34840E-005	0.00000E+000	9	...........	1425.95
	52	4.8	7.06800E-005	-2.17391E-005	0.00000E+000	5.34840E-005	0.00000E+000	9	...........	1425.95
	53	4.9	7.11066E-005	-2.16500E-005	0.00000E+000	5.34840E-005	0.00000E+000	9	...........	1425.95
	54	5	7.10244E-005	-2.15583E-005	0.00000E+000	5.34840E-005	0.00000E+000	9	...........	1425.95
	55	5.1	6.95016E-005	-2.14734E-005	0.00000E+000	5.34840E-005	0.00000E+000	9	...........	1425.95
	56	5.2	7.04317E-005	-2.13800E-005	0.00000E+000	5.34840E-005	0.00000E+000	9	...........	1425.95
	57	5.3	6.96157E-005	-2.12915E-005	0.00000E+000	5.34840E-005	0.00000E+000	9	...........	1425.95
	58	5.4	6.99081E-005	-2.12119E-005	0.00000E+000	5.34840E-005	0.00000E+000	9	...........	1425.95
	59	5.5	6.94755E-005	-2.11422E-005	0.00000E+000	5.34840E-005	0.00000E+000	9	...........	1426.04
	60	5.6	7.00432E-005	-2.10568E-005	0.00000E+000	5.34840E-005	0.00000E+000	9	...........	1426.04
	61	5.7	7.00232E-005	-2.09819E-005	0.00000E+000	5.34840E-005	0.00000E+000	9	...........	1426.04
	62	5.8	6.96207E-005	-2.09185E-005	0.00000E+000	5.34840E-005	0.00000E+000	9	...........	1426.04
	63	5.9	7.08753E-005	-2.08494E-005	0.00000E+000	5.34840E-005	0.00000E+000	9	...........	1426.04
	64	6	7.02955E-005	-2.07905E-005	0.00000E+000	5.34840E-005	0.00000E+000	9	...........	1426.04
	65	6.1	6.97569E-005	-2.07426E-005	0.00000E+000	5.34840E-005	0.00000E+000	9	...........	1426.04
	66	7.1	6.94305E-005	-2.01570E-005	0.00000E+000	5.34840E-005	0.00000E+000	9	...........	1426.04
	67	8.1	6.84162E-005	-1.96437E-005	0.00000E+000	5.34840E-005	0.00000E+000	9	...........	1426.04
	68	9.1	6.91602E-005	-1.89822E-005	0.00000E+000	5.34840E-005	0.00000E+000	9	...........	1426.13
	69	10.1	6.88628E-005	-1.84081E-005	0.00000E+000	5.34840E-005	0.00000E+000	9	...........	1426.04
	70	11.1	6.86615E-005	-1.78733E-005	0.00000E+000	5.34840E-005	0.00000E+000	9	...........	1425.95
	71	12.1	6.83612E-005	-1.75260E-005	0.00000E+000	5.34840E-005	0.00000E+000	9	...........	1426.04
	72	13.1	6.78606E-005	-1.72207E-005	0.00000E+000	5.34840E-005	0.00000E+000	9	...........	1426.13
	73	14.1	6.80077E-005	-1.69318E-005	0.00000E+000	5.34840E-005	0.00000E+000	9	...........	1426.13
	74	15.1	6.87707E-005	-1.65630E-005	0.00000E+000	5.34840E-005	0.00000E+000	9	...........	1426.04
	75	16.1	7.10354E-005	-1.62933E-005	0.00000E+000	5.34840E-005	0.00000E+000	9	...........	1426.04
	76	26.1	6.89849E-005	-1.51675E-005	0.00000E+000	5.34840E-005	0.00000E+000	9	...........	1426.04
	77	36.1	6.88598E-005	-1.37374E-005	0.00000E+000	5.34840E-005	0.00000E+000	9	...........	1425.95
	78	46.1	6.83902E-005	-1.37069E-005	0.00000E+000	5.34840E-005	0.00000E+000	9	...........	1426.04
	79	56.1	6.98610E-005	-1.31467E-005	0.00000E+000	5.34840E-005	0.00000E+000	9	...........	1426.04
	80	66.1	6.91952E-005	-1.26207E-005	0.00000E+000	5.34840E-005	0.00000E+000	9	...........	1426.04
	81	76.1	6.96988E-005	-1.28159E-005	0.00000E+000	5.34840E-005	0.00000E+000	9	...........	1426.04
	82	86.1	6.79236E-005	-1.26924E-005	0.00000E+000	5.34840E-005	0.00000E+000	9	...........	1426.04
	83	96.1	6.85053E-005	-1.24550E-005	0.00000E+000	5.34840E-005	0.00000E+000	9	...........	1426.04
	84	106.1	6.96007E-005	-1.22048E-005	0.00000E+000	5.34840E-005	0.00000E+000	9	...........	1426.04
	85	116.1	6.86225E-005	-1.17910E-005	0.00000E+000	5.34840E-005	0.00000E+000	9	...........	1426.04
	86	216.1	6.71176E-005	-1.14873E-005	0.00000E+000	5.34840E-005	0.00000E+000	9	...........	1426.04
	87	316.1	6.82851E-005	-1.09756E-005	0.00000E+000	5.34840E-005	0.00000E+000	9	...........	1426.13
	88	360	6.52994E-005	-1.03775E-005	0.00000E+000	5.34840E-005	0.00000E+000	9	...........	1426.13
	89	360.1	-3.29021E-002	-3.39312E-004	0.00000E+000	-9.99460E-002	0.00000E+000	9	.........v.	1426.13
	90	360.2	-9.99540E-002	-2.17872E-004	0.00000E+000	-9.99460E-002	0.00000E+000	9	...........	1426.13
	91	360.3	-9.99530E-002	-1.58121E-004	0.00000E+000	-9.99460E-002	0.00000E+000	9	...........	1426.13
	92	360.4	-9.99516E-002	-1.24359E-004	0.00000E+000	-9.99460E-002	0.00000E+000	9	...........	1426.13
	93	360.5	-9.99533E-002	-1.03596E-004	0.00000E+000	-9.99460E-002	0.00000E+000	9	...........	1426.04
	94	360.6	-9.99518E-002	-8.99832E-005	0.00000E+000	-9.99460E-002	0.00000E+000	9	...........	1426.04
	95	360.7	-9.99512E-002	-8.06082E-005	0.00000E+000	-9.99460E-002	0.00000E+000	9	...........	1426.04
	96	360.8	-9.99516E-002	-7.38809E-005	0.00000E+000	-9.99460E-002	0.00000E+000	9	...........	1426.04
	97	360.9	-9.99538E-002	-6.88670E-005	0.00000E+000	-9.99460E-002	0.00000E+000	9	...........	1426.04
	98	361	-9.99518E-002	-6.49976E-005	0.00000E+000	-9.99460E-002	0.00000E+000	9	...........	1426.04
