EXPLAIN
TAG	CHRONOA
TITLE	LABEL	Chronoamperometry Scan	Test Identifier
DATE	LABEL	15/12/2021	Date
TIME	LABEL	17:45:55	Time
NOTES	NOTES	1	Notes...
	
PSTAT	PSTAT	IFC1010-21051	Potentiostat
VPRESTEP	POTEN	1.00000E-002	F	Pre-step Voltage (V)
TPRESTEP	QUANT	5.00000E-001	Pre-step Delay Time (s)
VSTEP1	POTEN	0.00000E+000	F	Step 1 Voltage (V)
TSTEP1	QUANT	3.60000E+002	Step 1 Time (s)
VSTEP2	POTEN	-1.00000E-001	T	Step 2 Voltage (V)
TSTEP2	QUANT	1.00000E+000	Step 2 Time (s)
SAMPLETIME	QUANT	1.00000E-001	Sample Period (s)
DECIMATE	TOGGLE	T	Decimate
ILIMIT	QUANT	1.00000E+000	Limit I (mA/cm^2)
IMODE	SELECTOR	1	I/E Range Mode
IRANGE	QUANT	3.00000E-001	Max Current (mA)
EQDELAY	QUANT	5.00000E+000	Equil. Time (s)
SAMPLINGMODE	SELECTOR	1	Sampling Mode
AREA	QUANT	1.00000E+000	Sample Area (cm^2)
IRCOMP	SELECTOR	0	IRComp
PFCOR	QUANT	5.00000E+001	PF Corr. (ohm)
SEQUENCER	TOGGLE	TRUE	Run as Sequence
PSTATMODEL	IQUANT	64	Pstat Model
PSTATSECTION	LABEL	IFC1010-21051	Pstat Section
PSTATSERIALNO	LABEL	21051	Pstat Serial Number
CTRLMODE	IQUANT	1	Control Mode
ELECTROMETER	IQUANT	0	RE=0 or CS=1
IESTAB	IQUANT	0	I/E Stability
CASPEED	IQUANT	4	Control Amp Speed
CONVENTION	IQUANT	1	Current Convention
ICHRANGE	IQUANT	2	Ich Range
ICHRANGEMODE	TOGGLE	T	Ich Auto Range
ICHOFFSETENABLE	TOGGLE	F	Ich Offset Enable
ICHOFFSET	QUANT	0	Ich Offset (V)
ICHFILTER	IQUANT	3	Ich Filter
VCHRANGE	IQUANT	3	Vch Range
VCHRANGEMODE	TOGGLE	T	Vch Auto Range
VCHOFFSETENABLE	TOGGLE	F	Vch Offset Enable
VCHOFFSET	QUANT	0	Vch Offset (V)
VCHFILTER	IQUANT	3	Vch Filter
IERANGELOWERLIMIT	IQUANT	4	I/E Range Lower Limit
IERANGEMODE	TOGGLE	F	I/E AutoRange
IERANGE	IQUANT	9	I/E Range
ACHSELECT	IQUANT	0	Ach Select
ACHRANGE	IQUANT	2	Ach Range
ACHOFFSETENABLE	TOGGLE	F	Ach Offset Enable
ACHOFFSET	QUANT	0	Ach Offset (V)
ACHFILTER	IQUANT	1	Ach Filter
SENSECABLEID	IQUANT	14	Sense Cable ID
PWRCABLEID	IQUANT	14	Power Cable ID
DCCALDATE	LABEL	10/1/2020	DC Calibration Date
ACCALDATE	LABEL	4/2/2018	AC Calibration Date
FRAMEWORKVERSION	QUANT	7.06	Framework Version
INSTRUMENTVERSION	LABEL	4.30	Instrument Version
CURVE	TABLE	99
	Pt	T	Vf	Im	Vu	Sig	Ach	IERange	Over	Temp
	#	s	V vs. Ref.	A	V	V	V	#	bits	deg C
	0	-0.4	9.75115E-003	-1.96975E-005	0.00000E+000	1.00559E-002	0.00000E+000	9	...........	1425.95
	1	-0.3	9.99980E-003	-1.95339E-005	0.00000E+000	1.00559E-002	0.00000E+000	9	...........	1425.95
	2	-0.2	1.00692E-002	-1.93606E-005	0.00000E+000	1.00559E-002	0.00000E+000	9	...........	1425.95
	3	-0.1	1.00757E-002	-1.92136E-005	0.00000E+000	1.00559E-002	0.00000E+000	9	...........	1425.95
	4	0	1.00765E-002	-1.90611E-005	0.00000E+000	1.00559E-002	0.00000E+000	9	...........	1425.95
	5	0.1	6.70766E-005	-4.76320E-005	0.00000E+000	5.34840E-005	0.00000E+000	9	...........	1425.95
	6	0.2	6.80368E-005	-3.59379E-005	0.00000E+000	5.34840E-005	0.00000E+000	9	...........	1425.95
	7	0.3	6.87857E-005	-3.07589E-005	0.00000E+000	5.34840E-005	0.00000E+000	9	...........	1425.95
	8	0.4	6.93684E-005	-2.79652E-005	0.00000E+000	5.34840E-005	0.00000E+000	9	...........	1425.95
	9	0.5	6.79627E-005	-2.62717E-005	0.00000E+000	5.34840E-005	0.00000E+000	9	...........	1425.95
	10	0.6	6.88017E-005	-2.51218E-005	0.00000E+000	5.34840E-005	0.00000E+000	9	...........	1425.95
	11	0.7	6.79126E-005	-2.42945E-005	0.00000E+000	5.34840E-005	0.00000E+000	9	...........	1425.95
	12	0.8	6.83522E-005	-2.36586E-005	0.00000E+000	5.34840E-005	0.00000E+000	9	...........	1425.95
	13	0.9	6.66771E-005	-2.31608E-005	0.00000E+000	5.34840E-005	0.00000E+000	9	...........	1425.95
	14	1	6.80448E-005	-2.27269E-005	0.00000E+000	5.34840E-005	0.00000E+000	9	...........	1426.31
	15	1.1	6.80328E-005	-2.23752E-005	0.00000E+000	5.34840E-005	0.00000E+000	9	...........	1426.31
	16	1.2	6.68703E-005	-2.20566E-005	0.00000E+000	5.34840E-005	0.00000E+000	9	...........	1426.31
	17	1.3	6.78355E-005	-2.17675E-005	0.00000E+000	5.34840E-005	0.00000E+000	9	...........	1426.31
	18	1.4	6.75522E-005	-2.15033E-005	0.00000E+000	5.34840E-005	0.00000E+000	9	...........	1426.31
	19	1.5	6.77084E-005	-2.12546E-005	0.00000E+000	5.34840E-005	0.00000E+000	9	...........	1426.31
	20	1.6	6.65169E-005	-2.10318E-005	0.00000E+000	5.34840E-005	0.00000E+000	9	...........	1426.31
	21	1.7	6.76593E-005	-2.08082E-005	0.00000E+000	5.34840E-005	0.00000E+000	9	...........	1426.31
	22	1.8	6.85714E-005	-2.06018E-005	0.00000E+000	5.34840E-005	0.00000E+000	9	...........	1426.31
	23	1.9	6.82971E-005	-2.04091E-005	0.00000E+000	5.34840E-005	0.00000E+000	9	...........	1426.31
	24	2	6.72128E-005	-2.02177E-005	0.00000E+000	5.34840E-005	0.00000E+000	9	...........	1425.87
	25	2.1	6.74541E-005	-2.00370E-005	0.00000E+000	5.34840E-005	0.00000E+000	9	...........	1425.87
	26	2.2	6.66501E-005	-1.98753E-005	0.00000E+000	5.34840E-005	0.00000E+000	9	...........	1425.87
	27	2.3	6.67952E-005	-1.97052E-005	0.00000E+000	5.34840E-005	0.00000E+000	9	...........	1425.87
	28	2.4	6.63016E-005	-1.95620E-005	0.00000E+000	5.34840E-005	0.00000E+000	9	...........	1425.87
	29	2.5	6.67872E-005	-1.94244E-005	0.00000E+000	5.34840E-005	0.00000E+000	9	...........	1425.87
	30	2.6	6.66521E-005	-1.92838E-005	0.00000E+000	5.34840E-005	0.00000E+000	9	...........	1425.87
	31	2.7	6.66020E-005	-1.91606E-005	0.00000E+000	5.34840E-005	0.00000E+000	9	...........	1425.87
	32	2.8	6.70395E-005	-1.90229E-005	0.00000E+000	5.34840E-005	0.00000E+000	9	...........	1425.87
	33	2.9	6.85684E-005	-1.88857E-005	0.00000E+000	5.34840E-005	0.00000E+000	9	...........	1425.87
	34	3	6.68233E-005	-1.87809E-005	0.00000E+000	5.34840E-005	0.00000E+000	9	...........	1425.95
	35	3.1	6.76453E-005	-1.86554E-005	0.00000E+000	5.34840E-005	0.00000E+000	9	...........	1425.95
	36	3.2	6.74721E-005	-1.85452E-005	0.00000E+000	5.34840E-005	0.00000E+000	9	...........	1425.95
	37	3.3	6.72868E-005	-1.84290E-005	0.00000E+000	5.34840E-005	0.00000E+000	9	...........	1425.95
	38	3.4	6.70686E-005	-1.83340E-005	0.00000E+000	5.34840E-005	0.00000E+000	9	...........	1425.95
	39	3.5	6.75882E-005	-1.82263E-005	0.00000E+000	5.34840E-005	0.00000E+000	9	...........	1425.95
	40	3.6	6.66521E-005	-1.81191E-005	0.00000E+000	5.34840E-005	0.00000E+000	9	...........	1425.95
	41	3.7	6.72048E-005	-1.80377E-005	0.00000E+000	5.34840E-005	0.00000E+000	9	...........	1425.95
	42	3.8	6.71717E-005	-1.79483E-005	0.00000E+000	5.34840E-005	0.00000E+000	9	...........	1425.95
	43	3.9	6.69274E-005	-1.78739E-005	0.00000E+000	5.34840E-005	0.00000E+000	9	...........	1425.95
	44	4	6.69925E-005	-1.78024E-005	0.00000E+000	5.34840E-005	0.00000E+000	9	...........	1425.87
	45	4.1	6.62466E-005	-1.77347E-005	0.00000E+000	5.34840E-005	0.00000E+000	9	...........	1425.87
	46	4.2	6.58481E-005	-1.76622E-005	0.00000E+000	5.34840E-005	0.00000E+000	9	...........	1425.87
	47	4.3	6.66240E-005	-1.75904E-005	0.00000E+000	5.34840E-005	0.00000E+000	9	...........	1425.87
	48	4.4	6.63257E-005	-1.75249E-005	0.00000E+000	5.34840E-005	0.00000E+000	9	...........	1425.87
	49	4.5	6.70496E-005	-1.74684E-005	0.00000E+000	5.34840E-005	0.00000E+000	9	...........	1425.87
	50	4.6	6.77644E-005	-1.74025E-005	0.00000E+000	5.34840E-005	0.00000E+000	9	...........	1425.87
	51	4.7	6.74811E-005	-1.73495E-005	0.00000E+000	5.34840E-005	0.00000E+000	9	...........	1425.87
	52	4.8	6.67071E-005	-1.73065E-005	0.00000E+000	5.34840E-005	0.00000E+000	9	...........	1425.87
	53	4.9	6.79677E-005	-1.72388E-005	0.00000E+000	5.34840E-005	0.00000E+000	9	...........	1425.87
	54	5	6.82821E-005	-1.71765E-005	0.00000E+000	5.34840E-005	0.00000E+000	9	...........	1426.31
	55	5.1	6.76353E-005	-1.71130E-005	0.00000E+000	5.34840E-005	0.00000E+000	9	...........	1426.31
	56	5.2	6.72889E-005	-1.70593E-005	0.00000E+000	5.34840E-005	0.00000E+000	9	...........	1426.31
	57	5.3	6.68904E-005	-1.70073E-005	0.00000E+000	5.34840E-005	0.00000E+000	9	...........	1426.31
	58	5.4	6.71437E-005	-1.69649E-005	0.00000E+000	5.34840E-005	0.00000E+000	9	...........	1426.31
	59	5.5	6.67422E-005	-1.69214E-005	0.00000E+000	5.34840E-005	0.00000E+000	9	...........	1426.31
	60	5.6	6.83692E-005	-1.68774E-005	0.00000E+000	5.34840E-005	0.00000E+000	9	...........	1426.31
	61	5.7	6.73910E-005	-1.68448E-005	0.00000E+000	5.34840E-005	0.00000E+000	9	...........	1426.31
	62	5.8	6.76182E-005	-1.68037E-005	0.00000E+000	5.34840E-005	0.00000E+000	9	...........	1426.31
	63	5.9	6.80318E-005	-1.67564E-005	0.00000E+000	5.34840E-005	0.00000E+000	9	...........	1426.31
	64	6	6.91411E-005	-1.67092E-005	0.00000E+000	5.34840E-005	0.00000E+000	9	...........	1425.87
	65	6.1	6.77384E-005	-1.66481E-005	0.00000E+000	5.34840E-005	0.00000E+000	9	...........	1425.87
	66	7.1	6.87096E-005	-1.60411E-005	0.00000E+000	5.34840E-005	0.00000E+000	9	...........	1426.22
	67	8.1	6.75301E-005	-1.54473E-005	0.00000E+000	5.34840E-005	0.00000E+000	9	...........	1426.31
	68	9.1	6.60613E-005	-1.50583E-005	0.00000E+000	5.34840E-005	0.00000E+000	9	...........	1426.31
	69	10.1	6.80678E-005	-1.46682E-005	0.00000E+000	5.34840E-005	0.00000E+000	9	...........	1426.31
	70	11.1	6.80117E-005	-1.41323E-005	0.00000E+000	5.34840E-005	0.00000E+000	9	...........	1426.31
	71	12.1	6.69845E-005	-1.36076E-005	0.00000E+000	5.34840E-005	0.00000E+000	9	...........	1426.31
	72	13.1	6.73439E-005	-1.33083E-005	0.00000E+000	5.34840E-005	0.00000E+000	9	...........	1426.31
	73	14.1	6.87056E-005	-1.31578E-005	0.00000E+000	5.34840E-005	0.00000E+000	9	...........	1426.31
	74	15.1	6.90590E-005	-1.29435E-005	0.00000E+000	5.34840E-005	0.00000E+000	9	...........	1426.31
	75	16.1	6.86495E-005	-1.27615E-005	0.00000E+000	5.34840E-005	0.00000E+000	9	...........	1426.31
	76	26.1	6.74280E-005	-1.13217E-005	0.00000E+000	5.34840E-005	0.00000E+000	9	...........	1426.31
	77	36.1	6.65169E-005	-1.05663E-005	0.00000E+000	5.34840E-005	0.00000E+000	9	...........	1426.31
	78	46.1	6.85053E-005	-1.04435E-005	0.00000E+000	5.34840E-005	0.00000E+000	9	...........	1426.31
	79	56.1	6.78696E-005	-1.00297E-005	0.00000E+000	5.34840E-005	0.00000E+000	9	...........	1426.31
	80	66.1	6.63857E-005	-9.39650E-006	0.00000E+000	5.34840E-005	0.00000E+000	9	...........	1426.31
	81	76.1	6.56588E-005	-9.63284E-006	0.00000E+000	5.34840E-005	0.00000E+000	9	...........	1426.31
	82	86.1	6.51963E-005	-9.50171E-006	0.00000E+000	5.34840E-005	0.00000E+000	9	...........	1426.31
	83	96.1	6.55247E-005	-9.37691E-006	0.00000E+000	5.34840E-005	0.00000E+000	9	...........	1426.31
	84	106.1	6.75392E-005	-9.29639E-006	0.00000E+000	5.34840E-005	0.00000E+000	9	...........	1426.31
	85	116.1	6.50471E-005	-8.80669E-006	0.00000E+000	5.34840E-005	0.00000E+000	9	...........	1426.31
	86	216.1	6.70446E-005	-8.07116E-006	0.00000E+000	5.34840E-005	0.00000E+000	9	...........	1426.31
	87	316.1	6.74020E-005	-7.68887E-006	0.00000E+000	5.34840E-005	0.00000E+000	9	...........	1426.31
	88	360	6.81569E-005	-7.11978E-006	0.00000E+000	5.34840E-005	0.00000E+000	9	...........	1426.40
	89	360.1	-3.29021E-002	-2.23382E-004	0.00000E+000	-9.99460E-002	0.00000E+000	9	.........v.	1426.40
	90	360.2	-9.99526E-002	-1.34242E-004	0.00000E+000	-9.99460E-002	0.00000E+000	9	...........	1426.40
	91	360.3	-9.99505E-002	-1.05158E-004	0.00000E+000	-9.99460E-002	0.00000E+000	9	...........	1426.40
	92	360.4	-9.99503E-002	-9.14804E-005	0.00000E+000	-9.99460E-002	0.00000E+000	9	...........	1426.40
	93	360.5	-9.99506E-002	-8.33642E-005	0.00000E+000	-9.99460E-002	0.00000E+000	9	...........	1426.40
	94	360.6	-9.99503E-002	-7.78217E-005	0.00000E+000	-9.99460E-002	0.00000E+000	9	...........	1426.40
	95	360.7	-9.99500E-002	-7.37062E-005	0.00000E+000	-9.99460E-002	0.00000E+000	9	...........	1426.40
	96	360.8	-9.99495E-002	-7.04742E-005	0.00000E+000	-9.99460E-002	0.00000E+000	9	...........	1426.40
	97	360.9	-9.99501E-002	-6.78473E-005	0.00000E+000	-9.99460E-002	0.00000E+000	9	...........	1426.40
	98	361	-9.99512E-002	-6.56106E-005	0.00000E+000	-9.99460E-002	0.00000E+000	9	...........	1426.31
