EXPLAIN
TAG	CHRONOA
TITLE	LABEL	Chronoamperometry Scan	Test Identifier
DATE	LABEL	15/12/2021	Date
TIME	LABEL	18:43:07	Time
NOTES	NOTES	1	Notes...
	
PSTAT	PSTAT	IFC1010-21051	Potentiostat
VPRESTEP	POTEN	3.00000E-001	F	Pre-step Voltage (V)
TPRESTEP	QUANT	5.00000E-001	Pre-step Delay Time (s)
VSTEP1	POTEN	4.00000E-001	F	Step 1 Voltage (V)
TSTEP1	QUANT	3.60000E+002	Step 1 Time (s)
VSTEP2	POTEN	3.00000E-001	F	Step 2 Voltage (V)
TSTEP2	QUANT	1.00000E+000	Step 2 Time (s)
SAMPLETIME	QUANT	1.00000E-001	Sample Period (s)
DECIMATE	TOGGLE	T	Decimate
ILIMIT	QUANT	1.00000E+000	Limit I (mA/cm^2)
IMODE	SELECTOR	1	I/E Range Mode
IRANGE	QUANT	3.00000E-001	Max Current (mA)
EQDELAY	QUANT	5.00000E+000	Equil. Time (s)
SAMPLINGMODE	SELECTOR	1	Sampling Mode
AREA	QUANT	1.00000E+000	Sample Area (cm^2)
IRCOMP	SELECTOR	0	IRComp
PFCOR	QUANT	5.00000E+001	PF Corr. (ohm)
SEQUENCER	TOGGLE	TRUE	Run as Sequence
PSTATMODEL	IQUANT	64	Pstat Model
PSTATSECTION	LABEL	IFC1010-21051	Pstat Section
PSTATSERIALNO	LABEL	21051	Pstat Serial Number
CTRLMODE	IQUANT	1	Control Mode
ELECTROMETER	IQUANT	0	RE=0 or CS=1
IESTAB	IQUANT	0	I/E Stability
CASPEED	IQUANT	4	Control Amp Speed
CONVENTION	IQUANT	1	Current Convention
ICHRANGE	IQUANT	2	Ich Range
ICHRANGEMODE	TOGGLE	T	Ich Auto Range
ICHOFFSETENABLE	TOGGLE	F	Ich Offset Enable
ICHOFFSET	QUANT	0	Ich Offset (V)
ICHFILTER	IQUANT	3	Ich Filter
VCHRANGE	IQUANT	3	Vch Range
VCHRANGEMODE	TOGGLE	T	Vch Auto Range
VCHOFFSETENABLE	TOGGLE	F	Vch Offset Enable
VCHOFFSET	QUANT	0	Vch Offset (V)
VCHFILTER	IQUANT	3	Vch Filter
IERANGELOWERLIMIT	IQUANT	4	I/E Range Lower Limit
IERANGEMODE	TOGGLE	F	I/E AutoRange
IERANGE	IQUANT	9	I/E Range
ACHSELECT	IQUANT	0	Ach Select
ACHRANGE	IQUANT	2	Ach Range
ACHOFFSETENABLE	TOGGLE	F	Ach Offset Enable
ACHOFFSET	QUANT	0	Ach Offset (V)
ACHFILTER	IQUANT	1	Ach Filter
SENSECABLEID	IQUANT	14	Sense Cable ID
PWRCABLEID	IQUANT	14	Power Cable ID
DCCALDATE	LABEL	10/1/2020	DC Calibration Date
ACCALDATE	LABEL	4/2/2018	AC Calibration Date
FRAMEWORKVERSION	QUANT	7.06	Framework Version
INSTRUMENTVERSION	LABEL	4.30	Instrument Version
CURVE	TABLE	99
	Pt	T	Vf	Im	Vu	Sig	Ach	IERange	Over	Temp
	#	s	V vs. Ref.	A	V	V	V	#	bits	deg C
	0	-0.4	3.00099E-001	1.74755E-005	0.00000E+000	3.00072E-001	0.00000E+000	9	...........	1426.04
	1	-0.3	3.00441E-001	1.72950E-005	0.00000E+000	3.00072E-001	0.00000E+000	9	...........	1426.04
	2	-0.2	3.00433E-001	1.71245E-005	0.00000E+000	3.00072E-001	0.00000E+000	9	...........	1426.04
	3	-0.1	3.00428E-001	1.69521E-005	0.00000E+000	3.00072E-001	0.00000E+000	9	...........	1426.04
	4	0	3.00443E-001	1.67932E-005	0.00000E+000	3.00072E-001	0.00000E+000	9	...........	1425.95
	5	0.1	4.00490E-001	6.45995E-004	0.00000E+000	4.00072E-001	0.00000E+000	9	...........	1425.95
	6	0.2	4.00489E-001	5.49760E-004	0.00000E+000	4.00072E-001	0.00000E+000	9	...........	1425.95
	7	0.3	4.00480E-001	4.84080E-004	0.00000E+000	4.00072E-001	0.00000E+000	9	...........	1425.95
	8	0.4	4.00482E-001	4.35173E-004	0.00000E+000	4.00072E-001	0.00000E+000	9	...........	1425.95
	9	0.5	4.00486E-001	3.96400E-004	0.00000E+000	4.00072E-001	0.00000E+000	9	...........	1425.95
	10	0.6	4.00492E-001	3.63983E-004	0.00000E+000	4.00072E-001	0.00000E+000	9	...........	1425.95
	11	0.7	4.00477E-001	3.36235E-004	0.00000E+000	4.00072E-001	0.00000E+000	9	...........	1425.95
	12	0.8	4.00478E-001	3.12048E-004	0.00000E+000	4.00072E-001	0.00000E+000	9	...........	1425.95
	13	0.9	4.00492E-001	2.90828E-004	0.00000E+000	4.00072E-001	0.00000E+000	9	...........	1425.95
	14	1	4.00479E-001	2.72010E-004	0.00000E+000	4.00072E-001	0.00000E+000	9	...........	1425.95
	15	1.1	4.00482E-001	2.55369E-004	0.00000E+000	4.00072E-001	0.00000E+000	9	...........	1425.95
	16	1.2	4.00493E-001	2.40366E-004	0.00000E+000	4.00072E-001	0.00000E+000	9	...........	1425.95
	17	1.3	4.00480E-001	2.26875E-004	0.00000E+000	4.00072E-001	0.00000E+000	9	...........	1425.95
	18	1.4	4.00484E-001	2.14699E-004	0.00000E+000	4.00072E-001	0.00000E+000	9	...........	1425.95
	19	1.5	4.00489E-001	2.03630E-004	0.00000E+000	4.00072E-001	0.00000E+000	9	...........	1425.95
	20	1.6	4.00485E-001	1.93581E-004	0.00000E+000	4.00072E-001	0.00000E+000	9	...........	1425.95
	21	1.7	4.00487E-001	1.84151E-004	0.00000E+000	4.00072E-001	0.00000E+000	9	...........	1425.95
	22	1.8	4.00478E-001	1.75721E-004	0.00000E+000	4.00072E-001	0.00000E+000	9	...........	1425.95
	23	1.9	4.00487E-001	1.67957E-004	0.00000E+000	4.00072E-001	0.00000E+000	9	...........	1425.95
	24	2	4.00469E-001	1.60849E-004	0.00000E+000	4.00072E-001	0.00000E+000	9	...........	1425.95
	25	2.1	4.00483E-001	1.54280E-004	0.00000E+000	4.00072E-001	0.00000E+000	9	...........	1425.95
	26	2.2	4.00483E-001	1.48247E-004	0.00000E+000	4.00072E-001	0.00000E+000	9	...........	1425.95
	27	2.3	4.00475E-001	1.42589E-004	0.00000E+000	4.00072E-001	0.00000E+000	9	...........	1425.95
	28	2.4	4.00478E-001	1.37351E-004	0.00000E+000	4.00072E-001	0.00000E+000	9	...........	1425.95
	29	2.5	4.00487E-001	1.32426E-004	0.00000E+000	4.00072E-001	0.00000E+000	9	...........	1425.95
	30	2.6	4.00469E-001	1.27920E-004	0.00000E+000	4.00072E-001	0.00000E+000	9	...........	1425.95
	31	2.7	4.00478E-001	1.23682E-004	0.00000E+000	4.00072E-001	0.00000E+000	9	...........	1425.95
	32	2.8	4.00478E-001	1.19674E-004	0.00000E+000	4.00072E-001	0.00000E+000	9	...........	1425.95
	33	2.9	4.00494E-001	1.15982E-004	0.00000E+000	4.00072E-001	0.00000E+000	9	...........	1425.95
	34	3	4.00486E-001	1.12521E-004	0.00000E+000	4.00072E-001	0.00000E+000	9	...........	1425.95
	35	3.1	4.00487E-001	1.09235E-004	0.00000E+000	4.00072E-001	0.00000E+000	9	...........	1425.95
	36	3.2	4.00483E-001	1.06142E-004	0.00000E+000	4.00072E-001	0.00000E+000	9	...........	1425.95
	37	3.3	4.00477E-001	1.03184E-004	0.00000E+000	4.00072E-001	0.00000E+000	9	...........	1425.95
	38	3.4	4.00475E-001	1.00421E-004	0.00000E+000	4.00072E-001	0.00000E+000	9	...........	1425.95
	39	3.5	4.00479E-001	9.77895E-005	0.00000E+000	4.00072E-001	0.00000E+000	9	...........	1425.95
	40	3.6	4.00472E-001	9.52495E-005	0.00000E+000	4.00072E-001	0.00000E+000	9	...........	1425.95
	41	3.7	4.00471E-001	9.29558E-005	0.00000E+000	4.00072E-001	0.00000E+000	9	...........	1425.95
	42	3.8	4.00485E-001	9.06714E-005	0.00000E+000	4.00072E-001	0.00000E+000	9	...........	1425.95
	43	3.9	4.00480E-001	8.86036E-005	0.00000E+000	4.00072E-001	0.00000E+000	9	...........	1425.95
	44	4	4.00480E-001	8.66002E-005	0.00000E+000	4.00072E-001	0.00000E+000	9	...........	1425.95
	45	4.1	4.00478E-001	8.47141E-005	0.00000E+000	4.00072E-001	0.00000E+000	9	...........	1425.95
	46	4.2	4.00472E-001	8.29235E-005	0.00000E+000	4.00072E-001	0.00000E+000	9	...........	1425.95
	47	4.3	4.00486E-001	8.12438E-005	0.00000E+000	4.00072E-001	0.00000E+000	9	...........	1425.95
	48	4.4	4.00479E-001	7.96753E-005	0.00000E+000	4.00072E-001	0.00000E+000	9	...........	1425.95
	49	4.5	4.00478E-001	7.81335E-005	0.00000E+000	4.00072E-001	0.00000E+000	9	...........	1425.95
	50	4.6	4.00477E-001	7.66986E-005	0.00000E+000	4.00072E-001	0.00000E+000	9	...........	1425.95
	51	4.7	4.00485E-001	7.53459E-005	0.00000E+000	4.00072E-001	0.00000E+000	9	...........	1425.95
	52	4.8	4.00482E-001	7.40649E-005	0.00000E+000	4.00072E-001	0.00000E+000	9	...........	1425.95
	53	4.9	4.00482E-001	7.27929E-005	0.00000E+000	4.00072E-001	0.00000E+000	9	...........	1425.95
	54	5	4.00475E-001	7.16333E-005	0.00000E+000	4.00072E-001	0.00000E+000	9	...........	1425.95
	55	5.1	4.00474E-001	7.05286E-005	0.00000E+000	4.00072E-001	0.00000E+000	9	...........	1425.95
	56	5.2	4.00481E-001	6.94458E-005	0.00000E+000	4.00072E-001	0.00000E+000	9	...........	1425.95
	57	5.3	4.00480E-001	6.83962E-005	0.00000E+000	4.00072E-001	0.00000E+000	9	...........	1425.95
	58	5.4	4.00493E-001	6.73978E-005	0.00000E+000	4.00072E-001	0.00000E+000	9	...........	1425.95
	59	5.5	4.00479E-001	6.64017E-005	0.00000E+000	4.00072E-001	0.00000E+000	9	...........	1425.95
	60	5.6	4.00472E-001	6.54687E-005	0.00000E+000	4.00072E-001	0.00000E+000	9	...........	1425.95
	61	5.7	4.00485E-001	6.46190E-005	0.00000E+000	4.00072E-001	0.00000E+000	9	...........	1425.95
	62	5.8	4.00485E-001	6.37515E-005	0.00000E+000	4.00072E-001	0.00000E+000	9	...........	1425.95
	63	5.9	4.00489E-001	6.29311E-005	0.00000E+000	4.00072E-001	0.00000E+000	9	...........	1425.95
	64	6	4.00478E-001	6.21282E-005	0.00000E+000	4.00072E-001	0.00000E+000	9	...........	1425.95
	65	6.1	4.00488E-001	6.13600E-005	0.00000E+000	4.00072E-001	0.00000E+000	9	...........	1425.95
	66	7.1	4.00487E-001	5.47056E-005	0.00000E+000	4.00072E-001	0.00000E+000	9	...........	1425.95
	67	8.1	4.00483E-001	4.97553E-005	0.00000E+000	4.00072E-001	0.00000E+000	9	...........	1425.95
	68	9.1	4.00471E-001	4.58775E-005	0.00000E+000	4.00072E-001	0.00000E+000	9	...........	1425.95
	69	10.1	4.00490E-001	4.26020E-005	0.00000E+000	4.00072E-001	0.00000E+000	9	...........	1425.95
	70	11.1	4.00481E-001	3.98746E-005	0.00000E+000	4.00072E-001	0.00000E+000	9	...........	1425.95
	71	12.1	4.00497E-001	3.75221E-005	0.00000E+000	4.00072E-001	0.00000E+000	9	...........	1425.95
	72	13.1	4.00487E-001	3.56615E-005	0.00000E+000	4.00072E-001	0.00000E+000	9	...........	1425.95
	73	14.1	4.00484E-001	3.40121E-005	0.00000E+000	4.00072E-001	0.00000E+000	9	...........	1425.95
	74	15.1	4.00481E-001	3.26522E-005	0.00000E+000	4.00072E-001	0.00000E+000	9	...........	1426.04
	75	16.1	4.00481E-001	3.14283E-005	0.00000E+000	4.00072E-001	0.00000E+000	9	...........	1425.95
	76	26.1	4.00495E-001	2.39939E-005	0.00000E+000	4.00072E-001	0.00000E+000	9	...........	1426.04
	77	36.1	4.00484E-001	2.01580E-005	0.00000E+000	4.00072E-001	0.00000E+000	9	...........	1426.04
	78	46.1	4.00498E-001	1.83401E-005	0.00000E+000	4.00072E-001	0.00000E+000	9	...........	1426.04
	79	56.1	4.00494E-001	1.67526E-005	0.00000E+000	4.00072E-001	0.00000E+000	9	...........	1426.04
	80	66.1	4.00492E-001	1.57770E-005	0.00000E+000	4.00072E-001	0.00000E+000	9	...........	1426.04
	81	76.1	4.00487E-001	1.54427E-005	0.00000E+000	4.00072E-001	0.00000E+000	9	...........	1426.04
	82	86.1	4.00483E-001	1.47533E-005	0.00000E+000	4.00072E-001	0.00000E+000	9	...........	1425.95
	83	96.1	4.00481E-001	1.43311E-005	0.00000E+000	4.00072E-001	0.00000E+000	9	...........	1426.04
	84	106.1	4.00497E-001	1.43029E-005	0.00000E+000	4.00072E-001	0.00000E+000	9	...........	1426.04
	85	116.1	4.00494E-001	1.38870E-005	0.00000E+000	4.00072E-001	0.00000E+000	9	...........	1426.04
	86	216.1	4.00486E-001	1.28912E-005	0.00000E+000	4.00072E-001	0.00000E+000	9	...........	1425.95
	87	316.1	4.00501E-001	1.25451E-005	0.00000E+000	4.00072E-001	0.00000E+000	9	...........	1425.95
	88	360	4.00489E-001	1.25191E-005	0.00000E+000	4.00072E-001	0.00000E+000	9	...........	1425.95
	89	360.1	3.00440E-001	-2.92805E-004	0.00000E+000	3.00072E-001	0.00000E+000	9	...........	1425.95
	90	360.2	3.00436E-001	-1.91141E-004	0.00000E+000	3.00072E-001	0.00000E+000	9	...........	1425.95
	91	360.3	3.00433E-001	-1.42210E-004	0.00000E+000	3.00072E-001	0.00000E+000	9	...........	1425.95
	92	360.4	3.00436E-001	-1.14499E-004	0.00000E+000	3.00072E-001	0.00000E+000	9	...........	1425.95
	93	360.5	3.00450E-001	-9.69047E-005	0.00000E+000	3.00072E-001	0.00000E+000	9	...........	1425.95
	94	360.6	3.00421E-001	-8.46995E-005	0.00000E+000	3.00072E-001	0.00000E+000	9	...........	1425.95
	95	360.7	3.00433E-001	-7.57308E-005	0.00000E+000	3.00072E-001	0.00000E+000	9	...........	1425.95
	96	360.8	3.00449E-001	-6.88524E-005	0.00000E+000	3.00072E-001	0.00000E+000	9	...........	1425.95
	97	360.9	3.00443E-001	-6.33149E-005	0.00000E+000	3.00072E-001	0.00000E+000	9	...........	1425.95
	98	361	3.00443E-001	-5.87865E-005	0.00000E+000	3.00072E-001	0.00000E+000	9	...........	1425.95
