EXPLAIN
TAG	CHRONOA
TITLE	LABEL	Chronoamperometry Scan	Test Identifier
DATE	LABEL	15/12/2021	Date
TIME	LABEL	12:16:09	Time
NOTES	NOTES	1	Notes...
	
PSTAT	PSTAT	IFC1010-21051	Potentiostat
VPRESTEP	POTEN	1.00000E-002	F	Pre-step Voltage (V)
TPRESTEP	QUANT	5.00000E-001	Pre-step Delay Time (s)
VSTEP1	POTEN	0.00000E+000	F	Step 1 Voltage (V)
TSTEP1	QUANT	3.60000E+002	Step 1 Time (s)
VSTEP2	POTEN	-1.00000E-001	T	Step 2 Voltage (V)
TSTEP2	QUANT	1.00000E+000	Step 2 Time (s)
SAMPLETIME	QUANT	1.00000E-001	Sample Period (s)
DECIMATE	TOGGLE	T	Decimate
ILIMIT	QUANT	1.00000E+000	Limit I (mA/cm^2)
IMODE	SELECTOR	1	I/E Range Mode
IRANGE	QUANT	3.00000E-001	Max Current (mA)
EQDELAY	QUANT	5.00000E+000	Equil. Time (s)
SAMPLINGMODE	SELECTOR	1	Sampling Mode
AREA	QUANT	1.00000E+000	Sample Area (cm^2)
IRCOMP	SELECTOR	0	IRComp
PFCOR	QUANT	5.00000E+001	PF Corr. (ohm)
SEQUENCER	TOGGLE	TRUE	Run as Sequence
PSTATMODEL	IQUANT	64	Pstat Model
PSTATSECTION	LABEL	IFC1010-21051	Pstat Section
PSTATSERIALNO	LABEL	21051	Pstat Serial Number
CTRLMODE	IQUANT	1	Control Mode
ELECTROMETER	IQUANT	0	RE=0 or CS=1
IESTAB	IQUANT	0	I/E Stability
CASPEED	IQUANT	4	Control Amp Speed
CONVENTION	IQUANT	1	Current Convention
ICHRANGE	IQUANT	2	Ich Range
ICHRANGEMODE	TOGGLE	T	Ich Auto Range
ICHOFFSETENABLE	TOGGLE	F	Ich Offset Enable
ICHOFFSET	QUANT	0	Ich Offset (V)
ICHFILTER	IQUANT	3	Ich Filter
VCHRANGE	IQUANT	3	Vch Range
VCHRANGEMODE	TOGGLE	T	Vch Auto Range
VCHOFFSETENABLE	TOGGLE	F	Vch Offset Enable
VCHOFFSET	QUANT	0	Vch Offset (V)
VCHFILTER	IQUANT	3	Vch Filter
IERANGELOWERLIMIT	IQUANT	4	I/E Range Lower Limit
IERANGEMODE	TOGGLE	F	I/E AutoRange
IERANGE	IQUANT	9	I/E Range
ACHSELECT	IQUANT	0	Ach Select
ACHRANGE	IQUANT	2	Ach Range
ACHOFFSETENABLE	TOGGLE	F	Ach Offset Enable
ACHOFFSET	QUANT	0	Ach Offset (V)
ACHFILTER	IQUANT	1	Ach Filter
SENSECABLEID	IQUANT	14	Sense Cable ID
PWRCABLEID	IQUANT	14	Power Cable ID
DCCALDATE	LABEL	10/1/2020	DC Calibration Date
ACCALDATE	LABEL	4/2/2018	AC Calibration Date
FRAMEWORKVERSION	QUANT	7.06	Framework Version
INSTRUMENTVERSION	LABEL	4.30	Instrument Version
CURVE	TABLE	99
	Pt	T	Vf	Im	Vu	Sig	Ach	IERange	Over	Temp
	#	s	V vs. Ref.	A	V	V	V	#	bits	deg C
	0	-0.4	9.86286E-003	-1.60252E-005	0.00000E+000	1.00559E-002	0.00000E+000	9	...........	1425.16
	1	-0.3	1.00404E-002	-1.58683E-005	0.00000E+000	1.00559E-002	0.00000E+000	9	...........	1425.16
	2	-0.2	1.00811E-002	-1.57233E-005	0.00000E+000	1.00559E-002	0.00000E+000	9	...........	1425.16
	3	-0.1	1.00871E-002	-1.55697E-005	0.00000E+000	1.00559E-002	0.00000E+000	9	...........	1425.16
	4	0	1.00864E-002	-1.54297E-005	0.00000E+000	1.00559E-002	0.00000E+000	9	...........	1425.16
	5	0.1	8.01266E-005	-5.33897E-005	0.00000E+000	5.34840E-005	0.00000E+000	9	...........	1425.16
	6	0.2	7.90523E-005	-4.28474E-005	0.00000E+000	5.34840E-005	0.00000E+000	9	...........	1425.16
	7	0.3	8.04811E-005	-3.63016E-005	0.00000E+000	5.34840E-005	0.00000E+000	9	...........	1425.16
	8	0.4	8.00515E-005	-3.18381E-005	0.00000E+000	5.34840E-005	0.00000E+000	9	...........	1425.16
	9	0.5	8.06823E-005	-2.86410E-005	0.00000E+000	5.34840E-005	0.00000E+000	9	...........	1425.16
	10	0.6	7.93577E-005	-2.62655E-005	0.00000E+000	5.34840E-005	0.00000E+000	9	...........	1425.16
	11	0.7	8.04630E-005	-2.44347E-005	0.00000E+000	5.34840E-005	0.00000E+000	9	...........	1425.16
	12	0.8	7.95509E-005	-2.30227E-005	0.00000E+000	5.34840E-005	0.00000E+000	9	...........	1425.16
	13	0.9	8.03629E-005	-2.18851E-005	0.00000E+000	5.34840E-005	0.00000E+000	9	...........	1425.16
	14	1	7.88180E-005	-2.09541E-005	0.00000E+000	5.34840E-005	0.00000E+000	9	...........	1425.16
	15	1.1	7.85898E-005	-2.01890E-005	0.00000E+000	5.34840E-005	0.00000E+000	9	...........	1425.16
	16	1.2	7.96410E-005	-1.95393E-005	0.00000E+000	5.34840E-005	0.00000E+000	9	...........	1425.34
	17	1.3	7.89572E-005	-1.89910E-005	0.00000E+000	5.34840E-005	0.00000E+000	9	...........	1425.34
	18	1.4	7.78508E-005	-1.85104E-005	0.00000E+000	5.34840E-005	0.00000E+000	9	...........	1425.34
	19	1.5	7.92235E-005	-1.80965E-005	0.00000E+000	5.34840E-005	0.00000E+000	9	...........	1425.34
	20	1.6	7.85887E-005	-1.77285E-005	0.00000E+000	5.34840E-005	0.00000E+000	9	...........	1425.34
	21	1.7	7.94909E-005	-1.74082E-005	0.00000E+000	5.34840E-005	0.00000E+000	9	...........	1425.34
	22	1.8	7.76156E-005	-1.71205E-005	0.00000E+000	5.34840E-005	0.00000E+000	9	...........	1425.34
	23	1.9	7.75435E-005	-1.68522E-005	0.00000E+000	5.34840E-005	0.00000E+000	9	...........	1425.34
	24	2	7.89602E-005	-1.65984E-005	0.00000E+000	5.34840E-005	0.00000E+000	9	...........	1425.34
	25	2.1	7.85857E-005	-1.63846E-005	0.00000E+000	5.34840E-005	0.00000E+000	9	...........	1425.34
	26	2.2	7.85126E-005	-1.61788E-005	0.00000E+000	5.34840E-005	0.00000E+000	9	...........	1425.07
	27	2.3	7.82463E-005	-1.59914E-005	0.00000E+000	5.34840E-005	0.00000E+000	9	...........	1425.07
	28	2.4	7.93387E-005	-1.58170E-005	0.00000E+000	5.34840E-005	0.00000E+000	9	...........	1425.07
	29	2.5	7.79299E-005	-1.56584E-005	0.00000E+000	5.34840E-005	0.00000E+000	9	...........	1425.07
	30	2.6	7.96961E-005	-1.55041E-005	0.00000E+000	5.34840E-005	0.00000E+000	9	...........	1425.07
	31	2.7	7.83625E-005	-1.53527E-005	0.00000E+000	5.34840E-005	0.00000E+000	9	...........	1425.07
	32	2.8	7.87770E-005	-1.52079E-005	0.00000E+000	5.34840E-005	0.00000E+000	9	...........	1425.07
	33	2.9	7.81432E-005	-1.50841E-005	0.00000E+000	5.34840E-005	0.00000E+000	9	...........	1425.07
	34	3	7.84216E-005	-1.49593E-005	0.00000E+000	5.34840E-005	0.00000E+000	9	...........	1425.07
	35	3.1	7.90173E-005	-1.48366E-005	0.00000E+000	5.34840E-005	0.00000E+000	9	...........	1425.07
	36	3.2	7.79189E-005	-1.47260E-005	0.00000E+000	5.34840E-005	0.00000E+000	9	...........	1425.51
	37	3.3	7.97992E-005	-1.46205E-005	0.00000E+000	5.34840E-005	0.00000E+000	9	...........	1425.51
	38	3.4	7.78128E-005	-1.45184E-005	0.00000E+000	5.34840E-005	0.00000E+000	9	...........	1425.51
	39	3.5	7.85737E-005	-1.44159E-005	0.00000E+000	5.34840E-005	0.00000E+000	9	...........	1425.51
	40	3.6	7.93517E-005	-1.43233E-005	0.00000E+000	5.34840E-005	0.00000E+000	9	...........	1425.51
	41	3.7	7.83515E-005	-1.42305E-005	0.00000E+000	5.34840E-005	0.00000E+000	9	...........	1425.51
	42	3.8	7.77918E-005	-1.41392E-005	0.00000E+000	5.34840E-005	0.00000E+000	9	...........	1425.51
	43	3.9	7.85727E-005	-1.40612E-005	0.00000E+000	5.34840E-005	0.00000E+000	9	...........	1425.51
	44	4	7.64701E-005	-1.39822E-005	0.00000E+000	5.34840E-005	0.00000E+000	9	...........	1425.51
	45	4.1	7.65642E-005	-1.39085E-005	0.00000E+000	5.34840E-005	0.00000E+000	9	...........	1425.51
	46	4.2	7.79139E-005	-1.38167E-005	0.00000E+000	5.34840E-005	0.00000E+000	9	...........	1425.07
	47	4.3	7.70909E-005	-1.37428E-005	0.00000E+000	5.34840E-005	0.00000E+000	9	...........	1425.07
	48	4.4	7.71730E-005	-1.36733E-005	0.00000E+000	5.34840E-005	0.00000E+000	9	...........	1425.07
	49	4.5	7.83835E-005	-1.36010E-005	0.00000E+000	5.34840E-005	0.00000E+000	9	...........	1425.07
	50	4.6	7.88901E-005	-1.35341E-005	0.00000E+000	5.34840E-005	0.00000E+000	9	...........	1425.07
	51	4.7	7.84736E-005	-1.34739E-005	0.00000E+000	5.34840E-005	0.00000E+000	9	...........	1425.07
	52	4.8	7.94048E-005	-1.34022E-005	0.00000E+000	5.34840E-005	0.00000E+000	9	...........	1425.07
	53	4.9	7.91624E-005	-1.33460E-005	0.00000E+000	5.34840E-005	0.00000E+000	9	...........	1425.07
	54	5	7.83595E-005	-1.32930E-005	0.00000E+000	5.34840E-005	0.00000E+000	9	...........	1425.07
	55	5.1	7.89242E-005	-1.32282E-005	0.00000E+000	5.34840E-005	0.00000E+000	9	...........	1425.07
	56	5.2	7.94368E-005	-1.31624E-005	0.00000E+000	5.34840E-005	0.00000E+000	9	...........	1425.51
	57	5.3	7.88991E-005	-1.31067E-005	0.00000E+000	5.34840E-005	0.00000E+000	9	...........	1425.51
	58	5.4	7.74223E-005	-1.30584E-005	0.00000E+000	5.34840E-005	0.00000E+000	9	...........	1425.51
	59	5.5	7.77037E-005	-1.30140E-005	0.00000E+000	5.34840E-005	0.00000E+000	9	...........	1425.51
	60	5.6	7.75985E-005	-1.29555E-005	0.00000E+000	5.34840E-005	0.00000E+000	9	...........	1425.51
	61	5.7	7.67745E-005	-1.29102E-005	0.00000E+000	5.34840E-005	0.00000E+000	9	...........	1425.51
	62	5.8	7.83975E-005	-1.28592E-005	0.00000E+000	5.34840E-005	0.00000E+000	9	...........	1425.51
	63	5.9	7.80631E-005	-1.28087E-005	0.00000E+000	5.34840E-005	0.00000E+000	9	...........	1425.51
	64	6	7.93637E-005	-1.27555E-005	0.00000E+000	5.34840E-005	0.00000E+000	9	...........	1425.51
	65	6.1	7.97852E-005	-1.27065E-005	0.00000E+000	5.34840E-005	0.00000E+000	9	...........	1425.51
	66	7.1	7.90333E-005	-1.23205E-005	0.00000E+000	5.34840E-005	0.00000E+000	9	...........	1425.07
	67	8.1	7.88801E-005	-1.19989E-005	0.00000E+000	5.34840E-005	0.00000E+000	9	...........	1425.34
	68	9.1	7.82023E-005	-1.17166E-005	0.00000E+000	5.34840E-005	0.00000E+000	9	...........	1425.16
	69	10.1	7.88751E-005	-1.14716E-005	0.00000E+000	5.34840E-005	0.00000E+000	9	...........	1425.51
	70	11.1	7.88551E-005	-1.12648E-005	0.00000E+000	5.34840E-005	0.00000E+000	9	...........	1425.16
	71	12.1	7.98593E-005	-1.10625E-005	0.00000E+000	5.34840E-005	0.00000E+000	9	...........	1425.60
	72	13.1	7.84115E-005	-1.08971E-005	0.00000E+000	5.34840E-005	0.00000E+000	9	...........	1425.16
	73	14.1	7.85647E-005	-1.07467E-005	0.00000E+000	5.34840E-005	0.00000E+000	9	...........	1425.16
	74	15.1	7.79840E-005	-1.06191E-005	0.00000E+000	5.34840E-005	0.00000E+000	9	...........	1425.16
	75	16.1	7.79179E-005	-1.04910E-005	0.00000E+000	5.34840E-005	0.00000E+000	9	...........	1425.51
	76	26.1	7.91004E-005	-9.83175E-006	0.00000E+000	5.34840E-005	0.00000E+000	9	...........	1425.51
	77	36.1	8.00435E-005	-9.41592E-006	0.00000E+000	5.34840E-005	0.00000E+000	9	...........	1425.60
	78	46.1	7.90573E-005	-9.55283E-006	0.00000E+000	5.34840E-005	0.00000E+000	9	...........	1425.51
	79	56.1	7.75014E-005	-9.67969E-006	0.00000E+000	5.34840E-005	0.00000E+000	9	...........	1425.60
	80	66.1	7.75345E-005	-9.84036E-006	0.00000E+000	5.34840E-005	0.00000E+000	9	...........	1425.60
	81	76.1	7.67745E-005	-9.91887E-006	0.00000E+000	5.34840E-005	0.00000E+000	9	...........	1425.51
	82	86.1	7.80991E-005	-1.00231E-005	0.00000E+000	5.34840E-005	0.00000E+000	9	...........	1425.42
	83	96.1	7.60957E-005	-1.01558E-005	0.00000E+000	5.34840E-005	0.00000E+000	9	...........	1425.60
	84	106.1	7.86578E-005	-1.01870E-005	0.00000E+000	5.34840E-005	0.00000E+000	9	...........	1425.60
	85	116.1	7.68746E-005	-1.02533E-005	0.00000E+000	5.34840E-005	0.00000E+000	9	...........	1425.51
	86	216.1	7.56301E-005	-1.02654E-005	0.00000E+000	5.34840E-005	0.00000E+000	9	...........	1425.60
	87	316.1	7.78468E-005	-1.03396E-005	0.00000E+000	5.34840E-005	0.00000E+000	9	...........	1425.60
	88	360	7.62018E-005	-9.95377E-006	0.00000E+000	5.34840E-005	0.00000E+000	9	...........	1425.60
	89	360.1	-3.29021E-002	-3.55760E-004	0.00000E+000	-9.99460E-002	0.00000E+000	9	.........v.	1425.60
	90	360.2	-9.99385E-002	-2.47196E-004	0.00000E+000	-9.99460E-002	0.00000E+000	9	...........	1425.60
	91	360.3	-9.99388E-002	-1.86058E-004	0.00000E+000	-9.99460E-002	0.00000E+000	9	...........	1425.60
	92	360.4	-9.99405E-002	-1.47165E-004	0.00000E+000	-9.99460E-002	0.00000E+000	9	...........	1425.60
	93	360.5	-9.99404E-002	-1.20678E-004	0.00000E+000	-9.99460E-002	0.00000E+000	9	...........	1425.60
	94	360.6	-9.99405E-002	-1.01828E-004	0.00000E+000	-9.99460E-002	0.00000E+000	9	...........	1425.60
	95	360.7	-9.99388E-002	-8.79591E-005	0.00000E+000	-9.99460E-002	0.00000E+000	9	...........	1425.60
	96	360.8	-9.99387E-002	-7.74942E-005	0.00000E+000	-9.99460E-002	0.00000E+000	9	...........	1425.60
	97	360.9	-9.99389E-002	-6.94278E-005	0.00000E+000	-9.99460E-002	0.00000E+000	9	...........	1425.60
	98	361	-9.99391E-002	-6.30783E-005	0.00000E+000	-9.99460E-002	0.00000E+000	9	...........	1425.60
