EXPLAIN
TAG	CHRONOA
TITLE	LABEL	Chronoamperometry Scan	Test Identifier
DATE	LABEL	15/12/2021	Date
TIME	LABEL	17:12:35	Time
NOTES	NOTES	1	Notes...
	
PSTAT	PSTAT	IFC1010-21051	Potentiostat
VPRESTEP	POTEN	3.00000E-001	F	Pre-step Voltage (V)
TPRESTEP	QUANT	5.00000E-001	Pre-step Delay Time (s)
VSTEP1	POTEN	4.00000E-001	F	Step 1 Voltage (V)
TSTEP1	QUANT	3.60000E+002	Step 1 Time (s)
VSTEP2	POTEN	3.00000E-001	F	Step 2 Voltage (V)
TSTEP2	QUANT	1.00000E+000	Step 2 Time (s)
SAMPLETIME	QUANT	1.00000E-001	Sample Period (s)
DECIMATE	TOGGLE	T	Decimate
ILIMIT	QUANT	1.00000E+000	Limit I (mA/cm^2)
IMODE	SELECTOR	1	I/E Range Mode
IRANGE	QUANT	3.00000E-001	Max Current (mA)
EQDELAY	QUANT	5.00000E+000	Equil. Time (s)
SAMPLINGMODE	SELECTOR	1	Sampling Mode
AREA	QUANT	1.00000E+000	Sample Area (cm^2)
IRCOMP	SELECTOR	0	IRComp
PFCOR	QUANT	5.00000E+001	PF Corr. (ohm)
SEQUENCER	TOGGLE	TRUE	Run as Sequence
PSTATMODEL	IQUANT	64	Pstat Model
PSTATSECTION	LABEL	IFC1010-21051	Pstat Section
PSTATSERIALNO	LABEL	21051	Pstat Serial Number
CTRLMODE	IQUANT	1	Control Mode
ELECTROMETER	IQUANT	0	RE=0 or CS=1
IESTAB	IQUANT	0	I/E Stability
CASPEED	IQUANT	4	Control Amp Speed
CONVENTION	IQUANT	1	Current Convention
ICHRANGE	IQUANT	2	Ich Range
ICHRANGEMODE	TOGGLE	T	Ich Auto Range
ICHOFFSETENABLE	TOGGLE	F	Ich Offset Enable
ICHOFFSET	QUANT	0	Ich Offset (V)
ICHFILTER	IQUANT	3	Ich Filter
VCHRANGE	IQUANT	3	Vch Range
VCHRANGEMODE	TOGGLE	T	Vch Auto Range
VCHOFFSETENABLE	TOGGLE	F	Vch Offset Enable
VCHOFFSET	QUANT	0	Vch Offset (V)
VCHFILTER	IQUANT	3	Vch Filter
IERANGELOWERLIMIT	IQUANT	4	I/E Range Lower Limit
IERANGEMODE	TOGGLE	F	I/E AutoRange
IERANGE	IQUANT	9	I/E Range
ACHSELECT	IQUANT	0	Ach Select
ACHRANGE	IQUANT	2	Ach Range
ACHOFFSETENABLE	TOGGLE	F	Ach Offset Enable
ACHOFFSET	QUANT	0	Ach Offset (V)
ACHFILTER	IQUANT	1	Ach Filter
SENSECABLEID	IQUANT	14	Sense Cable ID
PWRCABLEID	IQUANT	14	Power Cable ID
DCCALDATE	LABEL	10/1/2020	DC Calibration Date
ACCALDATE	LABEL	4/2/2018	AC Calibration Date
FRAMEWORKVERSION	QUANT	7.06	Framework Version
INSTRUMENTVERSION	LABEL	4.30	Instrument Version
CURVE	TABLE	99
	Pt	T	Vf	Im	Vu	Sig	Ach	IERange	Over	Temp
	#	s	V vs. Ref.	A	V	V	V	#	bits	deg C
	0	-0.4	3.00091E-001	1.77953E-005	0.00000E+000	3.00072E-001	0.00000E+000	9	...........	1425.95
	1	-0.3	3.00432E-001	1.75942E-005	0.00000E+000	3.00072E-001	0.00000E+000	9	...........	1425.95
	2	-0.2	3.00430E-001	1.74398E-005	0.00000E+000	3.00072E-001	0.00000E+000	9	...........	1425.95
	3	-0.1	3.00436E-001	1.72746E-005	0.00000E+000	3.00072E-001	0.00000E+000	9	...........	1425.95
	4	0	3.00446E-001	1.70703E-005	0.00000E+000	3.00072E-001	0.00000E+000	9	...........	1425.95
	5	0.1	4.00482E-001	6.88602E-004	0.00000E+000	4.00072E-001	0.00000E+000	9	...........	1425.95
	6	0.2	4.00482E-001	5.87587E-004	0.00000E+000	4.00072E-001	0.00000E+000	9	...........	1425.95
	7	0.3	4.00484E-001	5.23269E-004	0.00000E+000	4.00072E-001	0.00000E+000	9	...........	1425.95
	8	0.4	4.00480E-001	4.74857E-004	0.00000E+000	4.00072E-001	0.00000E+000	9	...........	1425.95
	9	0.5	4.00476E-001	4.35941E-004	0.00000E+000	4.00072E-001	0.00000E+000	9	...........	1425.95
	10	0.6	4.00483E-001	4.03265E-004	0.00000E+000	4.00072E-001	0.00000E+000	9	...........	1425.95
	11	0.7	4.00488E-001	3.75149E-004	0.00000E+000	4.00072E-001	0.00000E+000	9	...........	1425.95
	12	0.8	4.00485E-001	3.50633E-004	0.00000E+000	4.00072E-001	0.00000E+000	9	...........	1425.82
	13	0.9	4.00486E-001	3.29236E-004	0.00000E+000	4.00072E-001	0.00000E+000	9	...........	1425.78
	14	1	4.00478E-001	3.10487E-004	0.00000E+000	4.00072E-001	0.00000E+000	9	...........	1425.78
	15	1.1	4.00480E-001	2.94031E-004	0.00000E+000	4.00072E-001	0.00000E+000	9	...........	1425.78
	16	1.2	4.00482E-001	2.79500E-004	0.00000E+000	4.00072E-001	0.00000E+000	9	...........	1425.78
	17	1.3	4.00486E-001	2.66478E-004	0.00000E+000	4.00072E-001	0.00000E+000	9	...........	1425.78
	18	1.4	4.00482E-001	2.54928E-004	0.00000E+000	4.00072E-001	0.00000E+000	9	...........	1425.78
	19	1.5	4.00480E-001	2.44310E-004	0.00000E+000	4.00072E-001	0.00000E+000	9	...........	1425.78
	20	1.6	4.00475E-001	2.34571E-004	0.00000E+000	4.00072E-001	0.00000E+000	9	...........	1425.78
	21	1.7	4.00473E-001	2.25733E-004	0.00000E+000	4.00072E-001	0.00000E+000	9	...........	1425.78
	22	1.8	4.00482E-001	2.17409E-004	0.00000E+000	4.00072E-001	0.00000E+000	9	...........	1425.78
	23	1.9	4.00479E-001	2.09590E-004	0.00000E+000	4.00072E-001	0.00000E+000	9	...........	1425.78
	24	2	4.00477E-001	2.02290E-004	0.00000E+000	4.00072E-001	0.00000E+000	9	...........	1425.78
	25	2.1	4.00474E-001	1.95514E-004	0.00000E+000	4.00072E-001	0.00000E+000	9	...........	1425.78
	26	2.2	4.00479E-001	1.89115E-004	0.00000E+000	4.00072E-001	0.00000E+000	9	...........	1425.78
	27	2.3	4.00473E-001	1.82872E-004	0.00000E+000	4.00072E-001	0.00000E+000	9	...........	1425.78
	28	2.4	4.00487E-001	1.76937E-004	0.00000E+000	4.00072E-001	0.00000E+000	9	...........	1425.78
	29	2.5	4.00486E-001	1.71476E-004	0.00000E+000	4.00072E-001	0.00000E+000	9	...........	1425.78
	30	2.6	4.00497E-001	1.66349E-004	0.00000E+000	4.00072E-001	0.00000E+000	9	...........	1425.78
	31	2.7	4.00491E-001	1.61583E-004	0.00000E+000	4.00072E-001	0.00000E+000	9	...........	1425.78
	32	2.8	4.00488E-001	1.57041E-004	0.00000E+000	4.00072E-001	0.00000E+000	9	...........	1425.78
	33	2.9	4.00478E-001	1.52790E-004	0.00000E+000	4.00072E-001	0.00000E+000	9	...........	1425.78
	34	3	4.00474E-001	1.48769E-004	0.00000E+000	4.00072E-001	0.00000E+000	9	...........	1425.78
	35	3.1	4.00471E-001	1.44983E-004	0.00000E+000	4.00072E-001	0.00000E+000	9	...........	1425.78
	36	3.2	4.00479E-001	1.41399E-004	0.00000E+000	4.00072E-001	0.00000E+000	9	...........	1425.78
	37	3.3	4.00489E-001	1.37940E-004	0.00000E+000	4.00072E-001	0.00000E+000	9	...........	1425.78
	38	3.4	4.00486E-001	1.34723E-004	0.00000E+000	4.00072E-001	0.00000E+000	9	...........	1425.78
	39	3.5	4.00483E-001	1.31624E-004	0.00000E+000	4.00072E-001	0.00000E+000	9	...........	1425.78
	40	3.6	4.00477E-001	1.28686E-004	0.00000E+000	4.00072E-001	0.00000E+000	9	...........	1425.78
	41	3.7	4.00482E-001	1.25850E-004	0.00000E+000	4.00072E-001	0.00000E+000	9	...........	1425.78
	42	3.8	4.00483E-001	1.23219E-004	0.00000E+000	4.00072E-001	0.00000E+000	9	...........	1425.71
	43	3.9	4.00482E-001	1.20678E-004	0.00000E+000	4.00072E-001	0.00000E+000	9	...........	1425.69
	44	4	4.00487E-001	1.18183E-004	0.00000E+000	4.00072E-001	0.00000E+000	9	...........	1425.69
	45	4.1	4.00487E-001	1.15836E-004	0.00000E+000	4.00072E-001	0.00000E+000	9	...........	1425.69
	46	4.2	4.00483E-001	1.13613E-004	0.00000E+000	4.00072E-001	0.00000E+000	9	...........	1425.69
	47	4.3	4.00486E-001	1.11455E-004	0.00000E+000	4.00072E-001	0.00000E+000	9	...........	1425.69
	48	4.4	4.00487E-001	1.09365E-004	0.00000E+000	4.00072E-001	0.00000E+000	9	...........	1425.69
	49	4.5	4.00478E-001	1.07370E-004	0.00000E+000	4.00072E-001	0.00000E+000	9	...........	1425.69
	50	4.6	4.00489E-001	1.05434E-004	0.00000E+000	4.00072E-001	0.00000E+000	9	...........	1425.69
	51	4.7	4.00481E-001	1.03576E-004	0.00000E+000	4.00072E-001	0.00000E+000	9	...........	1425.69
	52	4.8	4.00480E-001	1.01836E-004	0.00000E+000	4.00072E-001	0.00000E+000	9	...........	1425.69
	53	4.9	4.00483E-001	1.00091E-004	0.00000E+000	4.00072E-001	0.00000E+000	9	...........	1425.69
	54	5	4.00486E-001	9.84323E-005	0.00000E+000	4.00072E-001	0.00000E+000	9	...........	1425.69
	55	5.1	4.00480E-001	9.68086E-005	0.00000E+000	4.00072E-001	0.00000E+000	9	...........	1425.69
	56	5.2	4.00484E-001	9.52401E-005	0.00000E+000	4.00072E-001	0.00000E+000	9	...........	1425.69
	57	5.3	4.00479E-001	9.37676E-005	0.00000E+000	4.00072E-001	0.00000E+000	9	...........	1425.69
	58	5.4	4.00488E-001	9.22996E-005	0.00000E+000	4.00072E-001	0.00000E+000	9	...........	1425.69
	59	5.5	4.00484E-001	9.08563E-005	0.00000E+000	4.00072E-001	0.00000E+000	9	...........	1425.69
	60	5.6	4.00484E-001	8.95082E-005	0.00000E+000	4.00072E-001	0.00000E+000	9	...........	1425.69
	61	5.7	4.00489E-001	8.81732E-005	0.00000E+000	4.00072E-001	0.00000E+000	9	...........	1425.69
	62	5.8	4.00481E-001	8.68593E-005	0.00000E+000	4.00072E-001	0.00000E+000	9	...........	1425.69
	63	5.9	4.00485E-001	8.56149E-005	0.00000E+000	4.00072E-001	0.00000E+000	9	...........	1425.69
	64	6	4.00466E-001	8.43929E-005	0.00000E+000	4.00072E-001	0.00000E+000	9	...........	1425.69
	65	6.1	4.00473E-001	8.31697E-005	0.00000E+000	4.00072E-001	0.00000E+000	9	...........	1425.69
	66	7.1	4.00487E-001	7.30204E-005	0.00000E+000	4.00072E-001	0.00000E+000	9	...........	1425.69
	67	8.1	4.00474E-001	6.51622E-005	0.00000E+000	4.00072E-001	0.00000E+000	9	...........	1425.78
	68	9.1	4.00477E-001	5.89264E-005	0.00000E+000	4.00072E-001	0.00000E+000	9	...........	1425.78
	69	10.1	4.00487E-001	5.40246E-005	0.00000E+000	4.00072E-001	0.00000E+000	9	...........	1425.87
	70	11.1	4.00481E-001	5.01388E-005	0.00000E+000	4.00072E-001	0.00000E+000	9	...........	1425.78
	71	12.1	4.00487E-001	4.70037E-005	0.00000E+000	4.00072E-001	0.00000E+000	9	...........	1425.87
	72	13.1	4.00495E-001	4.42885E-005	0.00000E+000	4.00072E-001	0.00000E+000	9	...........	1425.87
	73	14.1	4.00491E-001	4.20268E-005	0.00000E+000	4.00072E-001	0.00000E+000	9	...........	1425.87
	74	15.1	4.00504E-001	4.01442E-005	0.00000E+000	4.00072E-001	0.00000E+000	9	...........	1425.87
	75	16.1	4.00486E-001	3.84834E-005	0.00000E+000	4.00072E-001	0.00000E+000	9	...........	1425.87
	76	26.1	4.00475E-001	2.85105E-005	0.00000E+000	4.00072E-001	0.00000E+000	9	...........	1425.87
	77	36.1	4.00480E-001	2.42404E-005	0.00000E+000	4.00072E-001	0.00000E+000	9	...........	1425.87
	78	46.1	4.00486E-001	2.16640E-005	0.00000E+000	4.00072E-001	0.00000E+000	9	...........	1425.87
	79	56.1	4.00485E-001	2.04530E-005	0.00000E+000	4.00072E-001	0.00000E+000	9	...........	1425.87
	80	66.1	4.00483E-001	1.91757E-005	0.00000E+000	4.00072E-001	0.00000E+000	9	...........	1425.87
	81	76.1	4.00486E-001	1.82385E-005	0.00000E+000	4.00072E-001	0.00000E+000	9	...........	1425.87
	82	86.1	4.00483E-001	1.77574E-005	0.00000E+000	4.00072E-001	0.00000E+000	9	...........	1425.87
	83	96.1	4.00497E-001	1.75405E-005	0.00000E+000	4.00072E-001	0.00000E+000	9	...........	1425.87
	84	106.1	4.00487E-001	1.71911E-005	0.00000E+000	4.00072E-001	0.00000E+000	9	...........	1425.87
	85	116.1	4.00490E-001	1.67738E-005	0.00000E+000	4.00072E-001	0.00000E+000	9	...........	1425.87
	86	216.1	4.00478E-001	1.55704E-005	0.00000E+000	4.00072E-001	0.00000E+000	9	...........	1425.87
	87	316.1	4.00483E-001	1.53199E-005	0.00000E+000	4.00072E-001	0.00000E+000	9	...........	1425.87
	88	360	4.00477E-001	1.51469E-005	0.00000E+000	4.00072E-001	0.00000E+000	9	...........	1425.87
	89	360.1	3.00433E-001	-3.84791E-004	0.00000E+000	3.00072E-001	0.00000E+000	9	...........	1425.87
	90	360.2	3.00445E-001	-2.91322E-004	0.00000E+000	3.00072E-001	0.00000E+000	9	...........	1425.87
	91	360.3	3.00437E-001	-2.32239E-004	0.00000E+000	3.00072E-001	0.00000E+000	9	...........	1425.87
	92	360.4	3.00441E-001	-1.92080E-004	0.00000E+000	3.00072E-001	0.00000E+000	9	...........	1425.87
	93	360.5	3.00430E-001	-1.63619E-004	0.00000E+000	3.00072E-001	0.00000E+000	9	...........	1425.87
	94	360.6	3.00431E-001	-1.42647E-004	0.00000E+000	3.00072E-001	0.00000E+000	9	...........	1425.87
	95	360.7	3.00430E-001	-1.26733E-004	0.00000E+000	3.00072E-001	0.00000E+000	9	...........	1425.87
	96	360.8	3.00419E-001	-1.14247E-004	0.00000E+000	3.00072E-001	0.00000E+000	9	...........	1425.87
	97	360.9	3.00430E-001	-1.04216E-004	0.00000E+000	3.00072E-001	0.00000E+000	9	...........	1425.87
	98	361	3.00438E-001	-9.60126E-005	0.00000E+000	3.00072E-001	0.00000E+000	9	...........	1425.87
