EXPLAIN
TAG	CHRONOA
TITLE	LABEL	Chronoamperometry Scan	Test Identifier
DATE	LABEL	15/12/2021	Date
TIME	LABEL	19:40:32	Time
NOTES	NOTES	1	Notes...
	
PSTAT	PSTAT	IFC1010-21051	Potentiostat
VPRESTEP	POTEN	-3.00000E-001	F	Pre-step Voltage (V)
TPRESTEP	QUANT	5.00000E-001	Pre-step Delay Time (s)
VSTEP1	POTEN	-4.00000E-001	F	Step 1 Voltage (V)
TSTEP1	QUANT	3.60000E+002	Step 1 Time (s)
VSTEP2	POTEN	-5.00000E-001	F	Step 2 Voltage (V)
TSTEP2	QUANT	1.00000E+000	Step 2 Time (s)
SAMPLETIME	QUANT	1.00000E-001	Sample Period (s)
DECIMATE	TOGGLE	T	Decimate
ILIMIT	QUANT	1.00000E+000	Limit I (mA/cm^2)
IMODE	SELECTOR	1	I/E Range Mode
IRANGE	QUANT	3.00000E-001	Max Current (mA)
EQDELAY	QUANT	5.00000E+000	Equil. Time (s)
SAMPLINGMODE	SELECTOR	1	Sampling Mode
AREA	QUANT	1.00000E+000	Sample Area (cm^2)
IRCOMP	SELECTOR	0	IRComp
PFCOR	QUANT	5.00000E+001	PF Corr. (ohm)
SEQUENCER	TOGGLE	TRUE	Run as Sequence
PSTATMODEL	IQUANT	64	Pstat Model
PSTATSECTION	LABEL	IFC1010-21051	Pstat Section
PSTATSERIALNO	LABEL	21051	Pstat Serial Number
CTRLMODE	IQUANT	1	Control Mode
ELECTROMETER	IQUANT	0	RE=0 or CS=1
IESTAB	IQUANT	0	I/E Stability
CASPEED	IQUANT	4	Control Amp Speed
CONVENTION	IQUANT	1	Current Convention
ICHRANGE	IQUANT	2	Ich Range
ICHRANGEMODE	TOGGLE	T	Ich Auto Range
ICHOFFSETENABLE	TOGGLE	F	Ich Offset Enable
ICHOFFSET	QUANT	0	Ich Offset (V)
ICHFILTER	IQUANT	3	Ich Filter
VCHRANGE	IQUANT	3	Vch Range
VCHRANGEMODE	TOGGLE	T	Vch Auto Range
VCHOFFSETENABLE	TOGGLE	F	Vch Offset Enable
VCHOFFSET	QUANT	0	Vch Offset (V)
VCHFILTER	IQUANT	3	Vch Filter
IERANGELOWERLIMIT	IQUANT	4	I/E Range Lower Limit
IERANGEMODE	TOGGLE	F	I/E AutoRange
IERANGE	IQUANT	9	I/E Range
ACHSELECT	IQUANT	0	Ach Select
ACHRANGE	IQUANT	2	Ach Range
ACHOFFSETENABLE	TOGGLE	F	Ach Offset Enable
ACHOFFSET	QUANT	0	Ach Offset (V)
ACHFILTER	IQUANT	1	Ach Filter
SENSECABLEID	IQUANT	14	Sense Cable ID
PWRCABLEID	IQUANT	14	Power Cable ID
DCCALDATE	LABEL	10/1/2020	DC Calibration Date
ACCALDATE	LABEL	4/2/2018	AC Calibration Date
FRAMEWORKVERSION	QUANT	7.06	Framework Version
INSTRUMENTVERSION	LABEL	4.30	Instrument Version
CURVE	TABLE	99
	Pt	T	Vf	Im	Vu	Sig	Ach	IERange	Over	Temp
	#	s	V vs. Ref.	A	V	V	V	#	bits	deg C
	0	-0.4	-3.00760E-001	-1.51752E-004	0.00000E+000	-3.00011E-001	0.00000E+000	9	...........	1426.04
	1	-0.3	-3.00559E-001	-1.51462E-004	0.00000E+000	-3.00011E-001	0.00000E+000	9	...........	1426.04
	2	-0.2	-3.00564E-001	-1.51179E-004	0.00000E+000	-3.00011E-001	0.00000E+000	9	...........	1426.04
	3	-0.1	-3.00557E-001	-1.50869E-004	0.00000E+000	-3.00011E-001	0.00000E+000	9	...........	1426.04
	4	0	-3.00560E-001	-1.50584E-004	0.00000E+000	-3.00011E-001	0.00000E+000	9	...........	1426.04
	5	0.1	-4.00599E-001	-5.13410E-004	0.00000E+000	-4.00011E-001	0.00000E+000	9	...........	1426.04
	6	0.2	-4.00601E-001	-4.66314E-004	0.00000E+000	-4.00011E-001	0.00000E+000	9	...........	1426.04
	7	0.3	-4.00606E-001	-4.51795E-004	0.00000E+000	-4.00011E-001	0.00000E+000	9	...........	1426.04
	8	0.4	-4.00607E-001	-4.42474E-004	0.00000E+000	-4.00011E-001	0.00000E+000	9	...........	1426.04
	9	0.5	-4.00605E-001	-4.34841E-004	0.00000E+000	-4.00011E-001	0.00000E+000	9	...........	1426.04
	10	0.6	-4.00605E-001	-4.28224E-004	0.00000E+000	-4.00011E-001	0.00000E+000	9	...........	1426.04
	11	0.7	-4.00601E-001	-4.22178E-004	0.00000E+000	-4.00011E-001	0.00000E+000	9	...........	1426.04
	12	0.8	-4.00602E-001	-4.16622E-004	0.00000E+000	-4.00011E-001	0.00000E+000	9	...........	1426.04
	13	0.9	-4.00599E-001	-4.11476E-004	0.00000E+000	-4.00011E-001	0.00000E+000	9	...........	1426.04
	14	1	-4.00598E-001	-4.06616E-004	0.00000E+000	-4.00011E-001	0.00000E+000	9	...........	1426.04
	15	1.1	-4.00603E-001	-4.02122E-004	0.00000E+000	-4.00011E-001	0.00000E+000	9	...........	1426.04
	16	1.2	-4.00615E-001	-3.97837E-004	0.00000E+000	-4.00011E-001	0.00000E+000	9	...........	1426.04
	17	1.3	-4.00608E-001	-3.93719E-004	0.00000E+000	-4.00011E-001	0.00000E+000	9	...........	1425.69
	18	1.4	-4.00603E-001	-3.89831E-004	0.00000E+000	-4.00011E-001	0.00000E+000	9	...........	1425.69
	19	1.5	-4.00601E-001	-3.86093E-004	0.00000E+000	-4.00011E-001	0.00000E+000	9	...........	1425.69
	20	1.6	-4.00607E-001	-3.82550E-004	0.00000E+000	-4.00011E-001	0.00000E+000	9	...........	1425.69
	21	1.7	-4.00605E-001	-3.79149E-004	0.00000E+000	-4.00011E-001	0.00000E+000	9	...........	1425.69
	22	1.8	-4.00603E-001	-3.75838E-004	0.00000E+000	-4.00011E-001	0.00000E+000	9	...........	1425.69
	23	1.9	-4.00609E-001	-3.72684E-004	0.00000E+000	-4.00011E-001	0.00000E+000	9	...........	1425.69
	24	2	-4.00600E-001	-3.69583E-004	0.00000E+000	-4.00011E-001	0.00000E+000	9	...........	1425.69
	25	2.1	-4.00613E-001	-3.66711E-004	0.00000E+000	-4.00011E-001	0.00000E+000	9	...........	1425.69
	26	2.2	-4.00598E-001	-3.63818E-004	0.00000E+000	-4.00011E-001	0.00000E+000	9	...........	1425.69
	27	2.3	-4.00590E-001	-3.61041E-004	0.00000E+000	-4.00011E-001	0.00000E+000	9	...........	1426.04
	28	2.4	-4.00605E-001	-3.58460E-004	0.00000E+000	-4.00011E-001	0.00000E+000	9	...........	1426.04
	29	2.5	-4.00610E-001	-3.55830E-004	0.00000E+000	-4.00011E-001	0.00000E+000	9	...........	1426.04
	30	2.6	-4.00591E-001	-3.53301E-004	0.00000E+000	-4.00011E-001	0.00000E+000	9	...........	1426.04
	31	2.7	-4.00589E-001	-3.50858E-004	0.00000E+000	-4.00011E-001	0.00000E+000	9	...........	1426.04
	32	2.8	-4.00593E-001	-3.48525E-004	0.00000E+000	-4.00011E-001	0.00000E+000	9	...........	1426.04
	33	2.9	-4.00607E-001	-3.46246E-004	0.00000E+000	-4.00011E-001	0.00000E+000	9	...........	1426.04
	34	3	-4.00604E-001	-3.43996E-004	0.00000E+000	-4.00011E-001	0.00000E+000	9	...........	1426.04
	35	3.1	-4.00599E-001	-3.41800E-004	0.00000E+000	-4.00011E-001	0.00000E+000	9	...........	1426.04
	36	3.2	-4.00606E-001	-3.39647E-004	0.00000E+000	-4.00011E-001	0.00000E+000	9	...........	1426.04
	37	3.3	-4.00603E-001	-3.37560E-004	0.00000E+000	-4.00011E-001	0.00000E+000	9	...........	1425.95
	38	3.4	-4.00611E-001	-3.35531E-004	0.00000E+000	-4.00011E-001	0.00000E+000	9	...........	1425.95
	39	3.5	-4.00600E-001	-3.33505E-004	0.00000E+000	-4.00011E-001	0.00000E+000	9	...........	1425.95
	40	3.6	-4.00603E-001	-3.31581E-004	0.00000E+000	-4.00011E-001	0.00000E+000	9	...........	1425.95
	41	3.7	-4.00607E-001	-3.29691E-004	0.00000E+000	-4.00011E-001	0.00000E+000	9	...........	1425.95
	42	3.8	-4.00617E-001	-3.27834E-004	0.00000E+000	-4.00011E-001	0.00000E+000	9	...........	1425.95
	43	3.9	-4.00600E-001	-3.26013E-004	0.00000E+000	-4.00011E-001	0.00000E+000	9	...........	1425.95
	44	4	-4.00599E-001	-3.24222E-004	0.00000E+000	-4.00011E-001	0.00000E+000	9	...........	1425.95
	45	4.1	-4.00598E-001	-3.22439E-004	0.00000E+000	-4.00011E-001	0.00000E+000	9	...........	1425.95
	46	4.2	-4.00609E-001	-3.20749E-004	0.00000E+000	-4.00011E-001	0.00000E+000	9	...........	1425.95
	47	4.3	-4.00605E-001	-3.19088E-004	0.00000E+000	-4.00011E-001	0.00000E+000	9	...........	1426.04
	48	4.4	-4.00599E-001	-3.17425E-004	0.00000E+000	-4.00011E-001	0.00000E+000	9	...........	1426.04
	49	4.5	-4.00609E-001	-3.15851E-004	0.00000E+000	-4.00011E-001	0.00000E+000	9	...........	1426.04
	50	4.6	-4.00606E-001	-3.14271E-004	0.00000E+000	-4.00011E-001	0.00000E+000	9	...........	1426.04
	51	4.7	-4.00604E-001	-3.12728E-004	0.00000E+000	-4.00011E-001	0.00000E+000	9	...........	1426.04
	52	4.8	-4.00611E-001	-3.11224E-004	0.00000E+000	-4.00011E-001	0.00000E+000	9	...........	1426.04
	53	4.9	-4.00612E-001	-3.09722E-004	0.00000E+000	-4.00011E-001	0.00000E+000	9	...........	1426.04
	54	5	-4.00604E-001	-3.08281E-004	0.00000E+000	-4.00011E-001	0.00000E+000	9	...........	1426.04
	55	5.1	-4.00593E-001	-3.06804E-004	0.00000E+000	-4.00011E-001	0.00000E+000	9	...........	1426.04
	56	5.2	-4.00614E-001	-3.05432E-004	0.00000E+000	-4.00011E-001	0.00000E+000	9	...........	1426.04
	57	5.3	-4.00602E-001	-3.04009E-004	0.00000E+000	-4.00011E-001	0.00000E+000	9	...........	1425.95
	58	5.4	-4.00608E-001	-3.02658E-004	0.00000E+000	-4.00011E-001	0.00000E+000	9	...........	1425.95
	59	5.5	-4.00605E-001	-3.01321E-004	0.00000E+000	-4.00011E-001	0.00000E+000	9	...........	1425.95
	60	5.6	-4.00609E-001	-3.00009E-004	0.00000E+000	-4.00011E-001	0.00000E+000	9	...........	1425.95
	61	5.7	-4.00609E-001	-2.98731E-004	0.00000E+000	-4.00011E-001	0.00000E+000	9	...........	1425.95
	62	5.8	-4.00600E-001	-2.97476E-004	0.00000E+000	-4.00011E-001	0.00000E+000	9	...........	1425.95
	63	5.9	-4.00592E-001	-2.96249E-004	0.00000E+000	-4.00011E-001	0.00000E+000	9	...........	1425.95
	64	6	-4.00605E-001	-2.95022E-004	0.00000E+000	-4.00011E-001	0.00000E+000	9	...........	1425.95
	65	6.1	-4.00596E-001	-2.93803E-004	0.00000E+000	-4.00011E-001	0.00000E+000	9	...........	1425.95
	66	7.1	-4.00611E-001	-2.82945E-004	0.00000E+000	-4.00011E-001	0.00000E+000	9	...........	1425.87
	67	8.1	-4.00606E-001	-2.73523E-004	0.00000E+000	-4.00011E-001	0.00000E+000	9	...........	1426.04
	68	9.1	-4.00599E-001	-2.65068E-004	0.00000E+000	-4.00011E-001	0.00000E+000	9	...........	1426.04
	69	10.1	-4.00592E-001	-2.57626E-004	0.00000E+000	-4.00011E-001	0.00000E+000	9	...........	1426.04
	70	11.1	-4.00595E-001	-2.51235E-004	0.00000E+000	-4.00011E-001	0.00000E+000	9	...........	1426.04
	71	12.1	-4.00604E-001	-2.45431E-004	0.00000E+000	-4.00011E-001	0.00000E+000	9	...........	1426.04
	72	13.1	-4.00609E-001	-2.39896E-004	0.00000E+000	-4.00011E-001	0.00000E+000	9	...........	1426.04
	73	14.1	-4.00598E-001	-2.34722E-004	0.00000E+000	-4.00011E-001	0.00000E+000	9	...........	1426.04
	74	15.1	-4.00592E-001	-2.29942E-004	0.00000E+000	-4.00011E-001	0.00000E+000	9	...........	1426.04
	75	16.1	-4.00595E-001	-2.25654E-004	0.00000E+000	-4.00011E-001	0.00000E+000	9	...........	1426.04
	76	26.1	-4.00605E-001	-1.95162E-004	0.00000E+000	-4.00011E-001	0.00000E+000	9	...........	1426.13
	77	36.1	-4.00617E-001	-1.76698E-004	0.00000E+000	-4.00011E-001	0.00000E+000	9	...........	1426.13
	78	46.1	-4.00600E-001	-1.64887E-004	0.00000E+000	-4.00011E-001	0.00000E+000	9	...........	1426.13
	79	56.1	-4.00609E-001	-1.56344E-004	0.00000E+000	-4.00011E-001	0.00000E+000	9	...........	1426.13
	80	66.1	-4.00602E-001	-1.49289E-004	0.00000E+000	-4.00011E-001	0.00000E+000	9	...........	1426.13
	81	76.1	-4.00590E-001	-1.43756E-004	0.00000E+000	-4.00011E-001	0.00000E+000	9	...........	1426.13
	82	86.1	-4.00606E-001	-1.40111E-004	0.00000E+000	-4.00011E-001	0.00000E+000	9	...........	1426.13
	83	96.1	-4.00609E-001	-1.36019E-004	0.00000E+000	-4.00011E-001	0.00000E+000	9	...........	1426.13
	84	106.1	-4.00602E-001	-1.33400E-004	0.00000E+000	-4.00011E-001	0.00000E+000	9	...........	1426.13
	85	116.1	-4.00605E-001	-1.31204E-004	0.00000E+000	-4.00011E-001	0.00000E+000	9	...........	1426.13
	86	216.1	-4.00594E-001	-1.19420E-004	0.00000E+000	-4.00011E-001	0.00000E+000	9	...........	1426.13
	87	316.1	-4.00597E-001	-1.15020E-004	0.00000E+000	-4.00011E-001	0.00000E+000	9	...........	1426.13
	88	360	-4.00585E-001	-1.13988E-004	0.00000E+000	-4.00011E-001	0.00000E+000	9	...........	1426.13
	89	360.1	-5.00617E-001	-4.07024E-004	0.00000E+000	-5.00010E-001	0.00000E+000	9	...........	1426.13
	90	360.2	-5.00606E-001	-3.08903E-004	0.00000E+000	-5.00010E-001	0.00000E+000	9	...........	1426.13
	91	360.3	-5.00603E-001	-2.75472E-004	0.00000E+000	-5.00010E-001	0.00000E+000	9	...........	1426.13
	92	360.4	-5.00613E-001	-2.57395E-004	0.00000E+000	-5.00010E-001	0.00000E+000	9	...........	1426.13
	93	360.5	-5.00609E-001	-2.45302E-004	0.00000E+000	-5.00010E-001	0.00000E+000	9	...........	1426.13
	94	360.6	-5.00609E-001	-2.36266E-004	0.00000E+000	-5.00010E-001	0.00000E+000	9	...........	1426.13
	95	360.7	-5.00615E-001	-2.29078E-004	0.00000E+000	-5.00010E-001	0.00000E+000	9	...........	1426.13
	96	360.8	-5.00615E-001	-2.23207E-004	0.00000E+000	-5.00010E-001	0.00000E+000	9	...........	1426.13
	97	360.9	-5.00612E-001	-2.18256E-004	0.00000E+000	-5.00010E-001	0.00000E+000	9	...........	1426.13
	98	361	-5.00610E-001	-2.13959E-004	0.00000E+000	-5.00010E-001	0.00000E+000	9	...........	1426.13
