EXPLAIN
TAG	CHRONOA
TITLE	LABEL	Chronoamperometry Scan	Test Identifier
DATE	LABEL	15/12/2021	Date
TIME	LABEL	13:44:37	Time
NOTES	NOTES	1	Notes...
	
PSTAT	PSTAT	IFC1010-21051	Potentiostat
VPRESTEP	POTEN	1.00000E-002	F	Pre-step Voltage (V)
TPRESTEP	QUANT	5.00000E-001	Pre-step Delay Time (s)
VSTEP1	POTEN	0.00000E+000	F	Step 1 Voltage (V)
TSTEP1	QUANT	3.60000E+002	Step 1 Time (s)
VSTEP2	POTEN	-1.00000E-001	T	Step 2 Voltage (V)
TSTEP2	QUANT	1.00000E+000	Step 2 Time (s)
SAMPLETIME	QUANT	1.00000E-001	Sample Period (s)
DECIMATE	TOGGLE	T	Decimate
ILIMIT	QUANT	1.00000E+000	Limit I (mA/cm^2)
IMODE	SELECTOR	1	I/E Range Mode
IRANGE	QUANT	3.00000E-001	Max Current (mA)
EQDELAY	QUANT	5.00000E+000	Equil. Time (s)
SAMPLINGMODE	SELECTOR	1	Sampling Mode
AREA	QUANT	1.00000E+000	Sample Area (cm^2)
IRCOMP	SELECTOR	0	IRComp
PFCOR	QUANT	5.00000E+001	PF Corr. (ohm)
SEQUENCER	TOGGLE	TRUE	Run as Sequence
PSTATMODEL	IQUANT	64	Pstat Model
PSTATSECTION	LABEL	IFC1010-21051	Pstat Section
PSTATSERIALNO	LABEL	21051	Pstat Serial Number
CTRLMODE	IQUANT	1	Control Mode
ELECTROMETER	IQUANT	0	RE=0 or CS=1
IESTAB	IQUANT	0	I/E Stability
CASPEED	IQUANT	4	Control Amp Speed
CONVENTION	IQUANT	1	Current Convention
ICHRANGE	IQUANT	2	Ich Range
ICHRANGEMODE	TOGGLE	T	Ich Auto Range
ICHOFFSETENABLE	TOGGLE	F	Ich Offset Enable
ICHOFFSET	QUANT	0	Ich Offset (V)
ICHFILTER	IQUANT	3	Ich Filter
VCHRANGE	IQUANT	3	Vch Range
VCHRANGEMODE	TOGGLE	T	Vch Auto Range
VCHOFFSETENABLE	TOGGLE	F	Vch Offset Enable
VCHOFFSET	QUANT	0	Vch Offset (V)
VCHFILTER	IQUANT	3	Vch Filter
IERANGELOWERLIMIT	IQUANT	4	I/E Range Lower Limit
IERANGEMODE	TOGGLE	F	I/E AutoRange
IERANGE	IQUANT	9	I/E Range
ACHSELECT	IQUANT	0	Ach Select
ACHRANGE	IQUANT	2	Ach Range
ACHOFFSETENABLE	TOGGLE	F	Ach Offset Enable
ACHOFFSET	QUANT	0	Ach Offset (V)
ACHFILTER	IQUANT	1	Ach Filter
SENSECABLEID	IQUANT	14	Sense Cable ID
PWRCABLEID	IQUANT	14	Power Cable ID
DCCALDATE	LABEL	10/1/2020	DC Calibration Date
ACCALDATE	LABEL	4/2/2018	AC Calibration Date
FRAMEWORKVERSION	QUANT	7.06	Framework Version
INSTRUMENTVERSION	LABEL	4.30	Instrument Version
CURVE	TABLE	99
	Pt	T	Vf	Im	Vu	Sig	Ach	IERange	Over	Temp
	#	s	V vs. Ref.	A	V	V	V	#	bits	deg C
	0	-0.4	9.78518E-003	-1.60052E-006	0.00000E+000	1.00559E-002	0.00000E+000	9	...........	1425.69
	1	-0.3	1.00278E-002	-1.66198E-006	0.00000E+000	1.00559E-002	0.00000E+000	9	...........	1425.69
	2	-0.2	1.00745E-002	-1.72879E-006	0.00000E+000	1.00559E-002	0.00000E+000	9	...........	1425.69
	3	-0.1	1.00800E-002	-1.80296E-006	0.00000E+000	1.00559E-002	0.00000E+000	9	...........	1425.69
	4	0	1.00808E-002	-1.88331E-006	0.00000E+000	1.00559E-002	0.00000E+000	9	...........	1425.69
	5	0.1	7.57823E-005	-3.77717E-005	0.00000E+000	5.34840E-005	0.00000E+000	9	...........	1425.69
	6	0.2	7.34634E-005	-2.48463E-005	0.00000E+000	5.34840E-005	0.00000E+000	9	...........	1425.69
	7	0.3	7.26354E-005	-1.76107E-005	0.00000E+000	5.34840E-005	0.00000E+000	9	...........	1425.69
	8	0.4	7.30369E-005	-1.32994E-005	0.00000E+000	5.34840E-005	0.00000E+000	9	...........	1425.69
	9	0.5	7.22049E-005	-1.06216E-005	0.00000E+000	5.34840E-005	0.00000E+000	9	...........	1425.69
	10	0.6	7.33173E-005	-8.88570E-006	0.00000E+000	5.34840E-005	0.00000E+000	9	...........	1425.16
	11	0.7	7.23441E-005	-7.73208E-006	0.00000E+000	5.34840E-005	0.00000E+000	9	...........	1425.16
	12	0.8	7.28447E-005	-6.95198E-006	0.00000E+000	5.34840E-005	0.00000E+000	9	...........	1425.16
	13	0.9	7.30910E-005	-6.42970E-006	0.00000E+000	5.34840E-005	0.00000E+000	9	...........	1425.16
	14	1	7.30129E-005	-6.04060E-006	0.00000E+000	5.34840E-005	0.00000E+000	9	...........	1425.16
	15	1.1	7.17483E-005	-5.78404E-006	0.00000E+000	5.34840E-005	0.00000E+000	9	...........	1425.16
	16	1.2	7.13368E-005	-5.57335E-006	0.00000E+000	5.34840E-005	0.00000E+000	9	...........	1425.16
	17	1.3	7.27396E-005	-5.39020E-006	0.00000E+000	5.34840E-005	0.00000E+000	9	...........	1425.16
	18	1.4	7.22860E-005	-5.24041E-006	0.00000E+000	5.34840E-005	0.00000E+000	9	...........	1425.16
	19	1.5	7.31170E-005	-5.13116E-006	0.00000E+000	5.34840E-005	0.00000E+000	9	...........	1425.16
	20	1.6	7.12948E-005	-5.04194E-006	0.00000E+000	5.34840E-005	0.00000E+000	9	...........	1425.87
	21	1.7	7.21358E-005	-4.96326E-006	0.00000E+000	5.34840E-005	0.00000E+000	9	...........	1425.87
	22	1.8	7.17774E-005	-4.89899E-006	0.00000E+000	5.34840E-005	0.00000E+000	9	...........	1425.87
	23	1.9	7.22289E-005	-4.83819E-006	0.00000E+000	5.34840E-005	0.00000E+000	9	...........	1425.87
	24	2	6.94886E-005	-4.80473E-006	0.00000E+000	5.34840E-005	0.00000E+000	9	...........	1425.87
	25	2.1	7.11666E-005	-4.76589E-006	0.00000E+000	5.34840E-005	0.00000E+000	9	...........	1425.87
	26	2.2	7.17133E-005	-4.72788E-006	0.00000E+000	5.34840E-005	0.00000E+000	9	...........	1425.87
	27	2.3	7.29238E-005	-4.68190E-006	0.00000E+000	5.34840E-005	0.00000E+000	9	...........	1425.87
	28	2.4	7.20367E-005	-4.65080E-006	0.00000E+000	5.34840E-005	0.00000E+000	9	...........	1425.87
	29	2.5	7.30499E-005	-4.61546E-006	0.00000E+000	5.34840E-005	0.00000E+000	9	...........	1425.87
	30	2.6	7.23911E-005	-4.58807E-006	0.00000E+000	5.34840E-005	0.00000E+000	9	...........	1425.95
	31	2.7	7.21779E-005	-4.57516E-006	0.00000E+000	5.34840E-005	0.00000E+000	9	...........	1425.95
	32	2.8	7.18394E-005	-4.57119E-006	0.00000E+000	5.34840E-005	0.00000E+000	9	...........	1425.95
	33	2.9	7.25103E-005	-4.57162E-006	0.00000E+000	5.34840E-005	0.00000E+000	9	...........	1425.95
	34	3	7.18815E-005	-4.57412E-006	0.00000E+000	5.34840E-005	0.00000E+000	9	...........	1425.95
	35	3.1	7.02275E-005	-4.58967E-006	0.00000E+000	5.34840E-005	0.00000E+000	9	...........	1425.95
	36	3.2	7.13539E-005	-4.59147E-006	0.00000E+000	5.34840E-005	0.00000E+000	9	...........	1425.95
	37	3.3	7.12487E-005	-4.60265E-006	0.00000E+000	5.34840E-005	0.00000E+000	9	...........	1425.95
	38	3.4	7.14700E-005	-4.58577E-006	0.00000E+000	5.34840E-005	0.00000E+000	9	...........	1425.95
	39	3.5	7.11596E-005	-4.59718E-006	0.00000E+000	5.34840E-005	0.00000E+000	9	...........	1425.95
	40	3.6	7.04237E-005	-4.60185E-006	0.00000E+000	5.34840E-005	0.00000E+000	9	...........	1425.95
	41	3.7	7.05709E-005	-4.61290E-006	0.00000E+000	5.34840E-005	0.00000E+000	9	...........	1425.95
	42	3.8	7.16052E-005	-4.62030E-006	0.00000E+000	5.34840E-005	0.00000E+000	9	...........	1425.95
	43	3.9	7.12057E-005	-4.63392E-006	0.00000E+000	5.34840E-005	0.00000E+000	9	...........	1425.95
	44	4	7.06520E-005	-4.64162E-006	0.00000E+000	5.34840E-005	0.00000E+000	9	...........	1425.95
	45	4.1	7.29188E-005	-4.63609E-006	0.00000E+000	5.34840E-005	0.00000E+000	9	...........	1425.95
	46	4.2	7.15391E-005	-4.64379E-006	0.00000E+000	5.34840E-005	0.00000E+000	9	...........	1425.95
	47	4.3	7.08823E-005	-4.62464E-006	0.00000E+000	5.34840E-005	0.00000E+000	9	...........	1425.95
	48	4.4	7.10345E-005	-4.60782E-006	0.00000E+000	5.34840E-005	0.00000E+000	9	...........	1425.95
	49	4.5	7.06220E-005	-4.59181E-006	0.00000E+000	5.34840E-005	0.00000E+000	9	...........	1425.95
	50	4.6	7.13539E-005	-4.57405E-006	0.00000E+000	5.34840E-005	0.00000E+000	9	...........	1425.95
	51	4.7	7.14169E-005	-4.55987E-006	0.00000E+000	5.34840E-005	0.00000E+000	9	...........	1425.95
	52	4.8	7.11806E-005	-4.54439E-006	0.00000E+000	5.34840E-005	0.00000E+000	9	...........	1425.95
	53	4.9	7.11316E-005	-4.52877E-006	0.00000E+000	5.34840E-005	0.00000E+000	9	...........	1425.95
	54	5	7.14109E-005	-4.51309E-006	0.00000E+000	5.34840E-005	0.00000E+000	9	...........	1425.95
	55	5.1	7.07701E-005	-4.52294E-006	0.00000E+000	5.34840E-005	0.00000E+000	9	...........	1425.95
	56	5.2	7.15040E-005	-4.51309E-006	0.00000E+000	5.34840E-005	0.00000E+000	9	...........	1425.95
	57	5.3	7.10214E-005	-4.49751E-006	0.00000E+000	5.34840E-005	0.00000E+000	9	...........	1425.95
	58	5.4	7.09093E-005	-4.49100E-006	0.00000E+000	5.34840E-005	0.00000E+000	9	...........	1425.95
	59	5.5	7.04818E-005	-4.46981E-006	0.00000E+000	5.34840E-005	0.00000E+000	9	...........	1425.95
	60	5.6	7.07651E-005	-4.44399E-006	0.00000E+000	5.34840E-005	0.00000E+000	9	...........	1425.95
	61	5.7	7.04047E-005	-4.43795E-006	0.00000E+000	5.34840E-005	0.00000E+000	9	...........	1425.95
	62	5.8	7.08693E-005	-4.43932E-006	0.00000E+000	5.34840E-005	0.00000E+000	9	...........	1425.95
	63	5.9	6.97409E-005	-4.45670E-006	0.00000E+000	5.34840E-005	0.00000E+000	9	...........	1425.95
	64	6	7.12637E-005	-4.48086E-006	0.00000E+000	5.34840E-005	0.00000E+000	9	...........	1425.95
	65	6.1	6.94725E-005	-4.50825E-006	0.00000E+000	5.34840E-005	0.00000E+000	9	...........	1425.95
	66	7.1	6.98850E-005	-4.69742E-006	0.00000E+000	5.34840E-005	0.00000E+000	9	...........	1425.60
	67	8.1	7.13819E-005	-4.90066E-006	0.00000E+000	5.34840E-005	0.00000E+000	9	...........	1425.87
	68	9.1	7.00933E-005	-5.05505E-006	0.00000E+000	5.34840E-005	0.00000E+000	9	...........	1426.04
	69	10.1	6.93734E-005	-5.43798E-006	0.00000E+000	5.34840E-005	0.00000E+000	9	...........	1426.04
	70	11.1	6.99741E-005	-5.76875E-006	0.00000E+000	5.34840E-005	0.00000E+000	9	...........	1426.04
	71	12.1	7.11416E-005	-5.85721E-006	0.00000E+000	5.34840E-005	0.00000E+000	9	...........	1426.04
	72	13.1	6.96758E-005	-5.90333E-006	0.00000E+000	5.34840E-005	0.00000E+000	9	...........	1426.04
	73	14.1	7.05298E-005	-6.03550E-006	0.00000E+000	5.34840E-005	0.00000E+000	9	...........	1426.04
	74	15.1	7.05268E-005	-5.98731E-006	0.00000E+000	5.34840E-005	0.00000E+000	9	...........	1426.04
	75	16.1	7.02695E-005	-5.85601E-006	0.00000E+000	5.34840E-005	0.00000E+000	9	...........	1426.04
	76	26.1	6.99641E-005	-6.91087E-006	0.00000E+000	5.34840E-005	0.00000E+000	9	...........	1426.04
	77	36.1	7.01584E-005	-7.72290E-006	0.00000E+000	5.34840E-005	0.00000E+000	9	...........	1426.04
	78	46.1	7.01013E-005	-8.41328E-006	0.00000E+000	5.34840E-005	0.00000E+000	9	...........	1425.95
	79	56.1	7.07751E-005	-9.11941E-006	0.00000E+000	5.34840E-005	0.00000E+000	9	...........	1425.95
	80	66.1	7.07301E-005	-9.48742E-006	0.00000E+000	5.34840E-005	0.00000E+000	9	...........	1425.95
	81	76.1	7.00492E-005	-9.95621E-006	0.00000E+000	5.34840E-005	0.00000E+000	9	...........	1425.95
	82	86.1	6.93544E-005	-1.02713E-005	0.00000E+000	5.34840E-005	0.00000E+000	9	...........	1425.95
	83	96.1	7.05138E-005	-1.04641E-005	0.00000E+000	5.34840E-005	0.00000E+000	9	...........	1425.95
	84	106.1	7.02645E-005	-1.06857E-005	0.00000E+000	5.34840E-005	0.00000E+000	9	...........	1425.95
	85	116.1	7.25633E-005	-1.08923E-005	0.00000E+000	5.34840E-005	0.00000E+000	9	...........	1425.95
	86	216.1	7.06580E-005	-1.14669E-005	0.00000E+000	5.34840E-005	0.00000E+000	9	...........	1425.95
	87	316.1	7.05318E-005	-1.14585E-005	0.00000E+000	5.34840E-005	0.00000E+000	9	...........	1425.95
	88	360	7.10565E-005	-1.12765E-005	0.00000E+000	5.34840E-005	0.00000E+000	9	...........	1425.95
	89	360.1	-3.29021E-002	-3.63036E-004	0.00000E+000	-9.99460E-002	0.00000E+000	9	.........v.	1425.95
	90	360.2	-9.99469E-002	-2.47848E-004	0.00000E+000	-9.99460E-002	0.00000E+000	9	...........	1425.95
	91	360.3	-9.99467E-002	-1.83810E-004	0.00000E+000	-9.99460E-002	0.00000E+000	9	...........	1425.95
	92	360.4	-9.99454E-002	-1.43559E-004	0.00000E+000	-9.99460E-002	0.00000E+000	9	...........	1425.95
	93	360.5	-9.99461E-002	-1.16554E-004	0.00000E+000	-9.99460E-002	0.00000E+000	9	...........	1425.95
	94	360.6	-9.99477E-002	-9.76822E-005	0.00000E+000	-9.99460E-002	0.00000E+000	9	...........	1425.95
	95	360.7	-9.99469E-002	-8.40757E-005	0.00000E+000	-9.99460E-002	0.00000E+000	9	...........	1425.95
	96	360.8	-9.99454E-002	-7.40169E-005	0.00000E+000	-9.99460E-002	0.00000E+000	9	...........	1425.95
	97	360.9	-9.99467E-002	-6.64101E-005	0.00000E+000	-9.99460E-002	0.00000E+000	9	...........	1425.95
	98	361	-9.99457E-002	-6.05212E-005	0.00000E+000	-9.99460E-002	0.00000E+000	9	...........	1425.95
