Data from AgNPs_FTO_APTES_UA_2uM_CRN_20uM_R6G_10uM_NaF_0.1M_Addition_RamanShift__1__13-58-55-184.txt Node

Date: Wed Feb 02 13:58:55 GMT 2022
User: TCL
Spectrometer: QEP01345
Trigger mode: 4
Integration Time (sec): 7.000000E0
Scans to average: 10
Electric dark correction enabled: true
Nonlinearity correction enabled: false
Boxcar width: 0
XAxis mode: Raman Shifts
Number of Pixels in Spectrum: 1044
>>>>>Begin Spectral Data<<<<<
46.04893	1.0625
50.45542	0.9625
54.85868	-2.1375
59.25871	-0.6375
63.6555	107.0625
68.04907	116.4625
72.43941	118.8625
76.82654	128.1625
81.21044	133.4625
85.59113	134.9625
89.96862	137.9625
94.34289	141.9625
98.71396	146.0625
103.08183	157.4625
107.4465	160.5625
111.80798	160.7625
116.16626	164.7625
120.52136	171.1625
124.87327	181.0625
129.222	182.3625
133.56755	200.1625
137.90993	213.5625
142.24913	238.2625
146.58517	261.6625
150.91804	302.5625
155.24774	361.6625
159.57429	440.1625
163.89768	567.1625
168.21792	755.7625
172.53501	1026.5625
176.84895	1432.1625
181.15975	2002.9625
185.46741	2809.9625
189.77193	3877.1625
194.07331	5199.6625
198.37157	6664.9625
202.6667	8238.4625
206.9587	9808.4625
211.24758	11362.9625
215.53334	12902.5625
219.81599	14622.2625
224.09553	16390.7625
228.37195	18421.5625
232.64527	20643.4625
236.91549	22934.3625
241.18261	25186.6625
245.44663	27240.5625
249.70755	29078.4625
253.96539	30712.9625
258.22014	32046.9625
262.4718	33269.2625
266.72039	34105.0625
270.96589	34528.2625
275.20832	34541.1625
279.44768	34331.6625
283.68397	34007.7625
287.91719	33704.7625
292.14735	33575.7625
296.37445	33606.7625
300.59849	33759.1625
304.81948	33966.6625
309.03742	34070.0625
313.25231	33866.6625
317.46415	33292.3625
321.67296	32543.3625
325.87872	31801.2625
330.08145	31446.0625
334.28114	31388.0625
338.47781	31547.3625
342.67145	31924.2625
346.86207	32399.1625
351.04966	33041.4625
355.23424	33697.1625
359.4158	34363.6625
363.59435	34769.3625
367.76989	35090.8625
371.94243	35363.4625
376.11196	35474.1625
380.27849	35597.3625
384.44203	35824.3625
388.60257	36047.7625
392.76012	36442.0625
396.91468	36979.1625
401.06626	37537.0625
405.21485	37932.7625
409.36047	37866.0625
413.50311	37440.4625
417.64277	37206.6625
421.77947	37281.0625
425.9132	37349.9625
430.04396	37567.3625
434.17176	37755.5625
438.2966	38007.4625
442.41849	38737.1625
446.53742	39976.0625
450.6534	41375.0625
454.76644	42333.3625
458.87653	42483.2625
462.98368	42023.9625
467.08789	41294.6625
471.18916	40516.1625
475.2875	39713.0625
479.38291	39327.4625
483.4754	39035.2625
487.56496	38680.0625
491.6516	38123.3625
495.73531	37617.8625
499.81612	37267.3625
503.89401	37419.4625
507.96899	37503.6625
512.04106	37311.4625
516.11023	36967.7625
520.1765	36621.3625
524.23987	36398.8625
528.30034	36217.7625
532.35792	35970.2625
536.41261	35426.8625
540.46441	34982.3625
544.51333	34900.7625
548.55936	35258.9625
552.60252	36050.2625
556.64279	37068.9625
560.6802	37862.7625
564.71473	38241.3625
568.7464	38842.3625
572.7752	39932.3625
576.80114	40896.8625
580.82422	41935.3625
584.84444	43502.4625
588.86181	45574.4625
592.87633	47160.2625
596.888	47109.4625
600.89682	45308.6625
604.9028	44908.6625
608.90594	47945.1625
612.90624	51402.4625
616.90371	48334.9625
620.89834	40774.5625
624.89015	37313.2625
628.87913	36836.3625
632.86528	36779.4625
636.84862	36443.3625
640.82913	35695.0625
644.80683	34746.3625
648.78172	34195.8625
652.75379	34238.4625
656.72306	34741.7625
660.68952	35289.8625
664.65319	35071.3625
668.61405	34404.1625
672.57211	34337.5625
676.52738	34514.8625
680.47986	34474.8625
684.42955	34202.5625
688.37646	34051.9625
692.32058	34331.8625
696.26192	34974.3625
700.20048	35603.4625
704.13626	35874.7625
708.06928	35728.7625
711.99952	35462.2625
715.927	35496.0625
719.85171	35813.9625
723.77365	35681.9625
727.69284	35113.9625
731.60928	34557.0625
735.52295	34341.8625
739.43388	34337.9625
743.34206	34541.8625
747.24749	34744.9625
751.15017	35087.5625
755.05012	35717.3625
758.94733	36807.6625
762.8418	38549.5625
766.73354	41053.8625
770.62254	43406.7625
774.50882	43787.4625
778.39237	41887.0625
782.27321	39231.5625
786.15132	36932.2625
790.02671	35536.6625
793.89938	34897.6625
797.76935	34698.6625
801.6366	34637.2625
805.50115	34515.5625
809.36299	34328.0625
813.22213	33993.2625
817.07857	33812.6625
820.93231	33684.5625
824.78336	33599.9625
828.63172	33531.4625
832.47738	33566.7625
836.32036	33635.9625
840.16066	33917.2625
843.99827	34069.0625
847.8332	33926.6625
851.66546	33677.5625
855.49504	33604.1625
859.32195	33593.1625
863.1462	33464.0625
866.96777	33328.1625
870.78668	33208.6625
874.60293	33200.4625
878.41652	33239.3625
882.22745	33356.0625
886.03573	33517.1625
889.84136	33469.8625
893.64433	33324.0625
897.44466	33137.8625
901.24235	33000.8625
905.0374	32915.9625
908.8298	32904.8625
912.61957	33021.8625
916.40671	33374.4625
920.19121	33890.5625
923.97308	34412.2625
927.75233	34679.8625
931.52895	34522.4625
935.30295	33989.9625
939.07433	33341.8625
942.84309	32881.8625
946.60924	32708.1625
950.37278	32649.2625
954.13371	32578.5625
957.89203	32404.6625
961.64774	32352.5625
965.40086	32367.7625
969.15137	32309.6625
972.89929	32252.3625
976.64461	32175.9625
980.38733	32279.6625
984.12747	32465.9625
987.86502	32783.5625
991.59999	33314.5625
995.33237	33917.9625
999.06217	35062.5625
1002.78939	36432.0625
1006.51404	37247.2625
1010.23611	37658.9625
1013.95561	37895.3625
1017.67255	37879.9625
1021.38692	37451.4625
1025.09872	36994.5625
1028.80796	37310.6625
1032.51465	38703.1625
1036.21877	40106.8625
1039.92035	40501.1625
1043.61937	39929.5625
1047.31584	38778.0625
1051.00976	37367.0625
1054.70114	36515.8625
1058.38998	36276.3625
1062.07627	36251.4625
1065.76003	36331.9625
1069.44126	36628.5625
1073.11995	37123.7625
1076.79611	37636.2625
1080.46974	38033.4625
1084.14085	38327.4625
1087.80943	38776.1625
1091.47549	39061.1625
1095.13903	38968.2625
1098.80005	38374.7625
1102.45857	37526.3625
1106.11456	36956.1625
1109.76805	36739.2625
1113.41903	36799.7625
1117.06751	36962.6625
1120.71348	37224.9625
1124.35696	37643.6625
1127.99793	38063.6625
1131.63641	38306.1625
1135.2724	38184.5625
1138.90589	38080.7625
1142.5369	38087.5625
1146.16542	38363.1625
1149.79145	38607.2625
1153.415	39020.5625
1157.03607	39704.3625
1160.65467	40953.1625
1164.27079	43033.9625
1167.88443	45468.3625
1171.49561	48040.7625
1175.10432	51324.6625
1178.71056	55608.5625
1182.31434	59606.0625
1185.91565	61581.1625
1189.51451	61077.3625
1193.11091	59119.7625
1196.70485	56789.9625
1200.29634	54681.2625
1203.88538	53209.6625
1207.47197	52372.1625
1211.05612	51593.1625
1214.63782	50560.2625
1218.21708	49476.3625
1221.79391	48604.5625
1225.36829	47887.0625
1228.94024	47183.1625
1232.50976	46212.1625
1236.07685	45213.5625
1239.6415	44770.8625
1243.20374	44811.0625
1246.76355	45351.3625
1250.32093	46254.5625
1253.8759	47413.1625
1257.42845	48878.5625
1260.97859	50380.6625
1264.52631	51937.6625
1268.07163	53621.2625
1271.61453	55456.6625
1275.15503	57266.9625
1278.69312	59187.6625
1282.22882	61025.3625
1285.76211	62884.3625
1289.29301	65140.6625
1292.82151	67926.5625
1296.34761	71728.3625
1299.87133	76360.3625
1303.39266	81570.5625
1306.9116	86539.8625
1310.42815	90150.9625
1313.94233	91702.3625
1317.45412	90594.5625
1320.96354	88006.8625
1324.47058	85632.0625
1327.97525	83664.7625
1331.47754	82409.3625
1334.97747	81470.0625
1338.47502	80265.4625
1341.97022	78504.2625
1345.46305	76335.7625
1348.95352	75005.4625
1352.44163	75404.2625
1355.92738	78156.3625
1359.41078	82716.3625
1362.89183	86306.5625
1366.37053	85232.7625
1369.84688	78522.5625
1373.32088	69625.0625
1376.79254	63356.8625
1380.26186	61298.8625
1383.72883	61348.9625
1387.19347	61430.1625
1390.65578	60661.9625
1394.11575	60290.8625
1397.57339	60925.0625
1401.0287	62160.6625
1404.48168	63338.3625
1407.93234	63535.9625
1411.38068	62679.9625
1414.82669	60871.3625
1418.27039	58520.4625
1421.71177	55974.8625
1425.15083	53815.1625
1428.58758	52892.2625
1432.02203	53381.9625
1435.45416	55026.7625
1438.88399	56991.3625
1442.31151	58343.3625
1445.73673	59060.3625
1449.15965	59470.8625
1452.58027	59427.2625
1455.9986	58906.6625
1459.41463	58771.6625
1462.82837	59350.7625
1466.23982	60612.0625
1469.64898	61910.0625
1473.05586	62861.6625
1476.46045	63384.5625
1479.86276	63225.9625
1483.26279	62670.7625
1486.66054	62254.3625
1490.05602	62335.9625
1493.44922	62775.2625
1496.84016	63012.8625
1500.22882	63322.1625
1503.61521	64289.6625
1506.99934	65651.2625
1510.38121	67035.9625
1513.76081	67397.5625
1517.13816	66293.0625
1520.51324	64240.3625
1523.88607	62557.6625
1527.25665	61969.2625
1530.62498	61972.1625
1533.99105	61833.8625
1537.35488	61230.6625
1540.71647	60120.5625
1544.07581	58588.6625
1547.4329	57110.6625
1550.78776	55798.6625
1554.14038	54809.6625
1557.49077	54209.6625
1560.83892	53741.8625
1564.18484	53540.7625
1567.52853	53560.2625
1570.86999	53984.3625
1574.20922	54951.6625
1577.54624	55933.7625
1580.88103	56494.8625
1584.2136	57658.1625
1587.54395	60211.8625
1590.87208	64283.9625
1594.19801	69058.8625
1597.52172	73195.7625
1600.84321	74055.1625
1604.16251	70203.7625
1607.47959	63678.2625
1610.79447	56873.0625
1614.10715	51209.3625
1617.41763	47048.0625
1620.7259	44593.8625
1624.03199	43599.6625
1627.33587	44012.2625
1630.63757	45640.1625
1633.93707	48760.3625
1637.23439	53761.8625
1640.52951	60986.4625
1643.82246	69444.1625
1647.11321	75990.0625
1650.40179	76415.1625
1653.68819	70001.4625
1656.97241	59882.9625
1660.25446	50562.7625
1663.53433	43991.4625
1666.81203	39980.8625
1670.08756	37439.2625
1673.36092	35827.5625
1676.63211	34837.1625
1679.90115	34131.3625
1683.16801	33686.9625
1686.43272	33260.6625
1689.69527	32956.9625
1692.95567	32718.0625
1696.2139	32599.5625
1699.46999	32545.6625
1702.72392	32427.8625
1705.97571	32362.7625
1709.22535	32307.1625
1712.47284	32243.9625
1715.71819	32202.1625
1718.96139	32163.4625
1722.20246	32051.9625
1725.44139	31916.3625
1728.67818	31752.8625
1731.91284	31559.0625
1735.14537	31389.6625
1738.37576	31285.4625
1741.60403	31181.5625
1744.83017	31053.6625
1748.05418	31053.7625
1751.27607	30963.6625
1754.49584	30911.9625
1757.71349	30904.9625
1760.92903	30881.1625
1764.14244	30812.9625
1767.35375	30850.1625
1770.56294	30842.4625
1773.77002	30751.7625
1776.97499	30709.7625
1780.17785	30630.5625
1783.37861	30618.3625
1786.57727	30542.6625
1789.77382	30535.3625
1792.96828	30537.9625
1796.16064	30493.5625
1799.3509	30435.3625
1802.53907	30416.3625
1805.72514	30303.8625
1808.90913	30226.8625
1812.09102	30175.5625
1815.27083	30201.8625
1818.44856	30134.0625
1821.6242	30116.3625
1824.79776	30084.0625
1827.96924	30067.8625
1831.13864	30029.2625
1834.30597	30078.9625
1837.47122	30070.3625
1840.6344	30053.5625
1843.7955	30045.0625
1846.95454	30065.9625
1850.11151	30117.2625
1853.26642	30042.0625
1856.41926	30054.9625
1859.57004	30052.0625
1862.71876	30017.7625
1865.86542	30059.2625
1869.01003	29992.8625
1872.15258	29989.5625
1875.29308	29967.0625
1878.43152	29970.9625
1881.56792	29969.3625
1884.70227	29939.8625
1887.83457	29963.4625
1890.96482	29900.2625
1894.09304	29932.7625
1897.21921	29870.7625
1900.34335	29862.3625
1903.46544	29795.0625
1906.58551	29773.8625
1909.70353	29725.8625
1912.81953	29663.2625
1915.93349	29636.6625
1919.04543	29614.4625
1922.15534	29581.3625
1925.26322	29538.5625
1928.36908	29468.1625
1931.47292	29408.0625
1934.57473	29304.3625
1937.67453	29269.1625
1940.77232	29170.7625
1943.86808	29089.8625
1946.96184	29051.2625
1950.05358	28988.5625
1953.14331	28944.2625
1956.23103	28877.5625
1959.31675	28796.1625
1962.40046	28733.5625
1965.48217	28674.6625
1968.56188	28619.8625
1971.63959	28523.2625
1974.7153	28495.5625
1977.78901	28356.2625
1980.86073	28290.2625
1983.93046	28173.5625
1986.99819	28129.0625
1990.06394	28051.1625
1993.1277	28017.4625
1996.18947	27919.8625
1999.24925	27837.5625
2002.30706	27757.8625
2005.36288	27687.0625
2008.41672	27618.8625
2011.46859	27526.1625
2014.51848	27512.6625
2017.56639	27484.3625
2020.61233	27442.1625
2023.6563	27382.2625
2026.6983	27361.1625
2029.73833	27309.2625
2032.7764	27281.2625
2035.8125	27219.1625
2038.84664	27199.3625
2041.87881	27255.6625
2044.90903	27172.3625
2047.93729	27094.2625
2050.96359	27144.2625
2053.98794	27082.0625
2057.01034	27083.5625
2060.03078	27084.3625
2063.04927	27061.0625
2066.06582	27014.7625
2069.08042	27000.1625
2072.09307	27029.2625
2075.10378	26987.9625
2078.11255	26964.0625
2081.11938	26956.5625
2084.12426	26931.0625
2087.12722	26926.2625
2090.12824	26922.1625
2093.12732	26911.5625
2096.12447	26988.4625
2099.11969	27026.1625
2102.11299	27039.4625
2105.10435	27024.0625
2108.09379	26991.7625
2111.08131	27026.6625
2114.0669	27035.7625
2117.05057	27090.4625
2120.03233	27133.7625
2123.01216	27194.7625
2125.99008	27174.0625
2128.96609	27194.1625
2131.94018	27222.0625
2134.91236	27291.0625
2137.88263	27323.4625
2140.851	27328.2625
2143.81746	27339.4625
2146.78201	27413.5625
2149.74466	27417.9625
2152.7054	27364.0625
2155.66425	27381.7625
2158.6212	27375.2625
2161.57625	27366.8625
2164.52941	27384.6625
2167.48067	27391.7625
2170.43004	27375.0625
2173.37752	27332.4625
2176.32311	27366.6625
2179.26681	27411.3625
2182.20863	27414.7625
2185.14856	27439.7625
2188.08661	27450.8625
2191.02278	27478.8625
2193.95707	27482.1625
2196.88948	27491.1625
2199.82001	27478.2625
2202.74867	27502.0625
2205.67545	27462.5625
2208.60037	27479.3625
2211.52341	27483.5625
2214.44458	27475.6625
2217.36388	27411.3625
2220.28132	27394.0625
2223.1969	27357.0625
2226.11061	27361.3625
2229.02246	27292.2625
2231.93245	27274.7625
2234.84058	27220.2625
2237.74686	27149.8625
2240.65128	27119.5625
2243.55385	27122.3625
2246.45456	27096.2625
2249.35343	27108.0625
2252.25044	27067.0625
2255.14561	27032.2625
2258.03893	26971.9625
2260.93041	26949.4625
2263.82004	26857.1625
2266.70783	26803.9625
2269.59378	26709.9625
2272.4779	26696.0625
2275.36017	26639.7625
2278.24061	26634.8625
2281.11922	26557.1625
2283.996	26584.5625
2286.87094	26538.6625
2289.74405	26566.9625
2292.61534	26530.1625
2295.4848	26530.0625
2298.35243	26514.6625
2301.21824	26597.8625
2304.08223	26596.0625
2306.94439	26660.7625
2309.80474	26667.3625
2312.66327	26652.2625
2315.51999	26664.5625
2318.37489	26665.1625
2321.22797	26621.6625
2324.07925	26632.0625
2326.92871	26572.1625
2329.77637	26630.7625
2332.62222	26602.1625
2335.46626	26590.0625
2338.3085	26563.0625
2341.14893	26600.9625
2343.98756	26593.4625
2346.8244	26628.8625
2349.65943	26610.5625
2352.49267	26609.5625
2355.32411	26617.0625
2358.15376	26591.9625
2360.98161	26543.3625
2363.80768	26494.1625
2366.63195	26436.3625
2369.45444	26420.9625
2372.27514	26382.4625
2375.09405	26338.3625
2377.91118	26378.5625
2380.72652	26295.6625
2383.54009	26244.4625
2386.35187	26260.3625
2389.16188	26238.6625
2391.97011	26171.9625
2394.77657	26137.1625
2397.58125	26145.2625
2400.38416	26096.6625
2403.18529	26064.8625
2405.98466	26082.2625
2408.78226	26023.6625
2411.57809	25986.3625
2414.37216	25911.2625
2417.16446	25975.6625
2419.955	25941.6625
2422.74378	25945.0625
2425.5308	25906.6625
2428.31606	25902.4625
2431.09956	25903.5625
2433.88131	25829.9625
2436.6613	25897.2625
2439.43954	25856.4625
2442.21603	25862.4625
2444.99077	25815.6625
2447.76377	25838.3625
2450.53501	25805.2625
2453.30451	25814.2625
2456.07226	25830.6625
2458.83827	25854.4625
2461.60254	25844.9625
2464.36507	25861.4625
2467.12586	25876.2625
2469.88492	25902.3625
2472.64224	25887.1625
2475.39782	25886.2625
2478.15167	25975.7625
2480.90379	25960.3625
2483.65417	25997.6625
2486.40283	25975.6625
2489.14976	26025.2625
2491.89497	26040.0625
2494.63845	26092.1625
2497.3802	26081.8625
2500.12024	26047.9625
2502.85855	26061.0625
2505.59514	26058.7625
2508.33002	26041.4625
2511.06318	25991.8625
2513.79462	25974.3625
2516.52435	25978.2625
2519.25237	25965.5625
2521.97867	25951.3625
2524.70327	26043.7625
2527.42616	25978.2625
2530.14734	25969.6625
2532.86681	25967.6625
2535.58458	25944.4625
2538.30065	25917.9625
2541.01501	25870.2625
2543.72768	25852.6625
2546.43864	25832.9625
2549.14791	25839.8625
2551.85548	25860.8625
2554.56136	25868.1625
2557.26554	25878.7625
2559.96803	25868.1625
2562.66883	25840.1625
2565.36794	25845.2625
2568.06536	25860.0625
2570.7611	25806.1625
2573.45514	25814.1625
2576.14751	25792.7625
2578.83819	25793.5625
2581.52719	25875.8625
2584.21451	25786.8625
2586.90015	25785.6625
2589.58411	25785.4625
2592.2664	25808.5625
2594.94701	25742.1625
2597.62594	25808.8625
2600.30321	25717.5625
2602.9788	25749.0625
2605.65273	25714.7625
2608.32498	25734.7625
2610.99557	25761.3625
2613.66449	25757.1625
2616.33175	25770.2625
2618.99734	25780.8625
2621.66128	25785.9625
2624.32355	25726.0625
2626.98416	25754.1625
2629.64311	25788.5625
2632.30041	25745.5625
2634.95605	25722.0625
2637.61004	25715.7625
2640.26238	25696.0625
2642.91306	25629.9625
2645.56209	25580.7625
2648.20948	25606.1625
2650.85521	25609.4625
2653.4993	25635.1625
2656.14175	25662.6625
2658.78255	25708.5625
2661.42171	25689.0625
2664.05923	25772.7625
2666.6951	25739.0625
2669.32934	25807.1625
2671.96194	25848.6625
2674.59291	25784.8625
2677.22224	25777.6625
2679.84993	25791.2625
2682.476	25775.0625
2685.10043	25762.7625
2687.72324	25770.2625
2690.34441	25763.2625
2692.96396	25757.0625
2695.58188	25781.0625
2698.19818	25714.6625
2700.81285	25743.3625
2703.4259	25717.9625
2706.03733	25834.4625
2708.64714	25816.4625
2711.25533	25849.5625
2713.86191	25811.0625
2716.46687	25824.7625
2719.07021	25859.7625
2721.67194	25898.0625
2724.27206	25885.1625
2726.87057	25902.2625
2729.46747	25934.5625
2732.06276	25939.5625
2734.65644	25908.9625
2737.24852	25931.7625
2739.83899	25919.3625
2742.42786	25916.4625
2745.01513	25920.9625
2747.60079	25925.7625
2750.18486	25925.3625
2752.76733	25969.4625
2755.3482	25984.7625
2757.92747	26026.5625
2760.50515	25968.4625
2763.08123	26003.9625
2765.65573	25944.4625
2768.22863	25957.4625
2770.79994	25909.1625
2773.36967	25942.9625
2775.9378	25927.0625
2778.50435	25928.0625
2781.06932	25947.7625
2783.6327	25965.4625
2786.1945	25974.9625
2788.75471	25906.1625
2791.31335	25830.1625
2793.87041	25842.3625
2796.42589	25822.1625
2798.97979	25769.5625
2801.53212	25767.2625
2804.08288	25776.4625
2806.63206	25683.4625
2809.17967	25697.6625
2811.72571	25630.4625
2814.27018	25585.0625
2816.81308	25510.3625
2819.35442	25480.0625
2821.89419	25464.0625
2824.43239	25482.2625
2826.96904	25455.6625
2829.50412	25493.4625
2832.03763	25446.0625
2834.56959	25471.1625
2837.1	25410.6625
2839.62884	25453.1625
2842.15613	25423.2625
2844.68186	25510.6625
2847.20604	25516.8625
2849.72867	25536.1625
2852.24974	25517.7625
2854.76927	25513.7625
2857.28724	25464.5625
2859.80367	25490.5625
2862.31855	25428.7625
2864.83189	25400.0625
2867.34368	25383.2625
2869.85393	25372.9625
2872.36264	25312.9625
2874.8698	25352.8625
2877.37543	25341.0625
2879.87952	25386.7625
2882.38207	25416.8625
2884.88308	25406.0625
2887.38256	25437.5625
2889.88051	25464.8625
2892.37692	25536.2625
2894.8718	25484.3625
2897.36515	25520.1625
2899.85698	25541.4625
2902.34727	25556.6625
2904.83604	25569.2625
2907.32328	25638.3625
2909.809	25606.8625
2912.29319	25624.2625
2914.77587	25554.1625
2917.25702	25576.0625
2919.73665	25551.3625
2922.21476	25566.2625
2924.69136	25559.8625
2927.16644	25638.2625
2929.64	25609.9625
2932.11205	25610.5625
2934.58258	25522.8625
2937.05161	25566.0625
2939.51912	25559.7625
2941.98513	25558.0625
2944.44962	25544.0625
2946.91261	25409.1625
2949.37409	25462.6625
2951.83407	25470.4625
2954.29254	25446.7625
2956.74951	25453.4625
2959.20498	25423.7625
2961.65895	25391.0625
2964.11142	25376.8625
2966.56239	25344.0625
2969.01186	25392.5625
2971.45984	25291.6625
2973.90632	25304.0625
2976.35131	25217.9625
2978.7948	25199.9625
2981.23681	25121.2625
2983.67732	25079.1625
2986.11635	25018.9625
2988.55388	24949.4625
2990.98993	24986.0625
2993.4245	24928.6625
2995.85758	24863.2625
2998.28917	24820.7625
3000.71928	24780.2625
3003.14791	24757.8625
3005.57506	24759.3625
3008.00073	24697.3625
3010.42493	24679.9625
3012.84764	24703.9625
3015.26888	24622.6625
3017.68865	24557.9625
3020.10694	24543.9625
3022.52376	24507.4625
3024.9391	24491.5625
3027.35298	24469.8625
3029.76539	24449.0625
3032.17632	24389.0625
3034.5858	24357.1625
3036.9938	24362.2625
3039.40034	24394.2625
3041.80542	24374.4625
3044.20903	24328.8625
3046.61118	24326.9625
3049.01187	24285.7625
3051.4111	24250.2625
3053.80888	24215.9625
3056.20519	24147.7625
3058.60005	24124.8625
3060.99345	24120.5625
3063.3854	24037.4625
3065.7759	23971.4625
3068.16494	23938.6625
3070.55254	23829.7625
3072.93868	23833.8625
3075.32338	23781.6625
3077.70662	23771.5625
3080.08842	23754.0625
3082.46878	23726.2625
3084.84769	23710.1625
3087.22515	23730.1625
3089.60118	23695.4625
3091.97576	23646.8625
3094.3489	23668.3625
3096.72061	23643.4625
3099.09087	23618.1625
3101.4597	23620.2625
3103.82709	23637.8625
3106.19305	23620.8625
3108.55757	23589.0625
3110.92066	23519.5625
3113.28232	23478.7625
3115.64255	23443.1625
3118.00134	23409.8625
3120.35871	23377.4625
3122.71466	23338.9625
3125.06917	23272.9625
3127.42226	23247.2625
3129.77393	23282.3625
3132.12417	23234.5625
3134.47299	23220.5625
3136.82039	23215.2625
3139.16636	23255.0625
3141.51092	23249.0625
3143.85406	23230.1625
3146.19579	23209.4625
3148.53609	23198.3625
3150.87499	23173.9625
3153.21246	23185.7625
3155.54853	23253.3625
3157.88318	23226.9625
3160.21642	23219.1625
3162.54826	23242.1625
3164.87868	23183.0625
3167.2077	23154.0625
3169.5353	23145.2625
3171.86151	23140.2625
3174.18631	23160.9625
3176.5097	23159.0625
3178.83169	23121.8625
3181.15228	23118.2625
3183.47147	23079.4625
3185.78926	23102.3625
3188.10565	23128.3625
3190.42065	23123.7625
3192.73424	23098.8625
3195.04645	23040.0625
3197.35725	23048.7625
3199.66667	23027.4625
3201.97469	23029.0625
3204.28132	23045.0625
3206.58656	23067.3625
3208.8904	23033.3625
3211.19287	23094.1625
3213.49394	23109.4625
3215.79363	23062.8625
3218.09193	23075.9625
3220.38884	23078.8625
3222.68438	23108.2625
3224.97853	23048.4625
3227.2713	23040.5625
3229.56269	23037.0625
3231.8527	22975.1625
3234.14133	22948.0625
3236.42858	22917.4625
3238.71446	22899.3625
3240.99896	22877.0625
3243.28209	22888.0625
3245.56384	22876.7625
3247.84423	22871.4625
3250.12324	22831.1625
3252.40088	22837.4625
3254.67715	22804.6625
3256.95205	22796.8625
3259.22558	22764.2625
3261.49775	22680.7625
3263.76855	22706.0625
3266.03799	22628.0625
3268.30606	22640.9625
3270.57277	22623.5625
3272.83812	22599.3625
3275.10211	22599.9625
3277.36474	22571.5625
3279.62601	22601.7625
3281.88593	22516.6625
3284.14448	22564.5625
3286.40168	22568.8625
3288.65753	22527.3625
3290.91202	22503.5625
3293.16516	22428.3625
3295.41695	22380.5625
3297.66738	22272.8625
3299.91647	22163.1625
3302.16421	22065.8625
3304.4106	21978.8625
3306.65564	21886.1625
3308.89933	21720.0625
3311.14169	21624.3625
3313.38269	21488.0625
3315.62236	21390.4625
3317.86068	21193.9625
3320.09766	20966.6625
3322.3333	20791.4625
3324.5676	20831.0625
3326.80056	20511.6625
3329.03219	20399.5625
3331.26248	4.1625
3333.49143	-0.7375
3335.71905	-1.5375
