Data from AgNPs_FTO_APTES_UA_2uM_CRN_10uM_R6G_10uM_NaF_0.1M_Addition_RamanShift__1__13-19-15-139.txt Node

Date: Wed Feb 02 13:19:15 GMT 2022
User: TCL
Spectrometer: QEP01345
Trigger mode: 4
Integration Time (sec): 7.000000E0
Scans to average: 10
Electric dark correction enabled: true
Nonlinearity correction enabled: false
Boxcar width: 0
XAxis mode: Raman Shifts
Number of Pixels in Spectrum: 1044
>>>>>Begin Spectral Data<<<<<
46.04893	1.4375
50.45542	0.6375
54.85868	0.2375
59.25871	0.5375
63.6555	-8.1625
68.04907	-5.1625
72.43941	-6.5625
76.82654	-4.7625
81.21044	-7.3625
85.59113	-4.5625
89.96862	-5.3625
94.34289	-5.5625
98.71396	-7.4625
103.08183	-4.0625
107.4465	-4.9625
111.80798	-6.3625
116.16626	-7.8625
120.52136	-3.1625
124.87327	-5.2625
129.222	-7.5625
133.56755	-5.8625
137.90993	-8.6625
142.24913	-4.3625
146.58517	-2.6625
150.91804	-3.7625
155.24774	-3.6625
159.57429	-3.3625
163.89768	-6.1625
168.21792	-6.6625
172.53501	-5.0625
176.84895	-3.7625
181.15975	-5.7625
185.46741	-3.9625
189.77193	-2.2625
194.07331	-2.6625
198.37157	-2.8625
202.6667	-0.5625
206.9587	2.4375
211.24758	0.9375
215.53334	1.1375
219.81599	4.3375
224.09553	2.7375
228.37195	5.2375
232.64527	5.0375
236.91549	3.6375
241.18261	7.6375
245.44663	7.1375
249.70755	5.0375
253.96539	4.8375
258.22014	7.2375
262.4718	6.0375
266.72039	8.9375
270.96589	5.5375
275.20832	6.4375
279.44768	10.5375
283.68397	7.4375
287.91719	7.9375
292.14735	10.3375
296.37445	10.4375
300.59849	3.7375
304.81948	7.7375
309.03742	8.9375
313.25231	6.2375
317.46415	7.0375
321.67296	7.2375
325.87872	3.6375
330.08145	7.1375
334.28114	4.3375
338.47781	5.8375
342.67145	9.3375
346.86207	6.4375
351.04966	8.4375
355.23424	8.4375
359.4158	9.9375
363.59435	6.7375
367.76989	7.8375
371.94243	8.7375
376.11196	9.2375
380.27849	10.0375
384.44203	9.0375
388.60257	7.1375
392.76012	8.4375
396.91468	12.0375
401.06626	9.4375
405.21485	8.7375
409.36047	11.4375
413.50311	8.2375
417.64277	10.2375
421.77947	16.2375
425.9132	19.3375
430.04396	29.2375
434.17176	20.9375
438.2966	21.2375
442.41849	17.4375
446.53742	13.1375
450.6534	16.2375
454.76644	16.1375
458.87653	12.4375
462.98368	10.0375
467.08789	10.3375
471.18916	9.3375
475.2875	7.7375
479.38291	12.2375
483.4754	13.5375
487.56496	13.2375
491.6516	17.1375
495.73531	13.9375
499.81612	11.9375
503.89401	11.5375
507.96899	15.0375
512.04106	13.8375
516.11023	10.5375
520.1765	8.6375
524.23987	9.1375
528.30034	8.7375
532.35792	9.8375
536.41261	11.0375
540.46441	8.9375
544.51333	5.8375
548.55936	9.8375
552.60252	11.7375
556.64279	13.3375
560.6802	7.3375
564.71473	7.3375
568.7464	11.3375
572.7752	9.4375
576.80114	5.7375
580.82422	7.6375
584.84444	10.3375
588.86181	8.4375
592.87633	6.9375
596.888	10.5375
600.89682	8.3375
604.9028	12.4375
608.90594	15.5375
612.90624	18.1375
616.90371	12.3375
620.89834	13.4375
624.89015	10.3375
628.87913	10.1375
632.86528	10.7375
636.84862	5.6375
640.82913	9.0375
644.80683	8.1375
648.78172	6.9375
652.75379	9.9375
656.72306	10.7375
660.68952	7.4375
664.65319	10.2375
668.61405	5.5375
672.57211	7.5375
676.52738	5.8375
680.47986	8.8375
684.42955	7.4375
688.37646	11.1375
692.32058	12.9375
696.26192	12.2375
700.20048	18.8375
704.13626	17.3375
708.06928	19.8375
711.99952	16.0375
715.927	20.3375
719.85171	12.1375
723.77365	14.8375
727.69284	11.7375
731.60928	12.9375
735.52295	11.2375
739.43388	7.2375
743.34206	8.5375
747.24749	7.9375
751.15017	9.8375
755.05012	6.5375
758.94733	4.9375
762.8418	9.1375
766.73354	6.9375
770.62254	13.6375
774.50882	9.3375
778.39237	10.0375
782.27321	7.6375
786.15132	9.6375
790.02671	11.6375
793.89938	7.6375
797.76935	5.5375
801.6366	12.2375
805.50115	7.9375
809.36299	12.1375
813.22213	5.7375
817.07857	8.3375
820.93231	9.5375
824.78336	3.6375
828.63172	9.6375
832.47738	6.8375
836.32036	10.2375
840.16066	10.1375
843.99827	7.2375
847.8332	6.1375
851.66546	7.7375
855.49504	9.0375
859.32195	7.3375
863.1462	5.8375
866.96777	2.7375
870.78668	11.3375
874.60293	4.6375
878.41652	12.4375
882.22745	7.1375
886.03573	5.3375
889.84136	9.5375
893.64433	7.0375
897.44466	9.1375
901.24235	10.6375
905.0374	8.8375
908.8298	7.8375
912.61957	9.3375
916.40671	10.9375
920.19121	5.7375
923.97308	6.6375
927.75233	5.8375
931.52895	13.4375
935.30295	6.9375
939.07433	6.7375
942.84309	4.9375
946.60924	5.2375
950.37278	9.3375
954.13371	9.5375
957.89203	7.7375
961.64774	8.7375
965.40086	10.7375
969.15137	3.8375
972.89929	7.5375
976.64461	6.8375
980.38733	5.7375
984.12747	6.6375
987.86502	5.6375
991.59999	7.6375
995.33237	3.5375
999.06217	7.5375
1002.78939	7.4375
1006.51404	4.8375
1010.23611	5.8375
1013.95561	10.3375
1017.67255	7.6375
1021.38692	4.2375
1025.09872	6.0375
1028.80796	4.6375
1032.51465	6.1375
1036.21877	7.0375
1039.92035	10.0375
1043.61937	7.1375
1047.31584	7.0375
1051.00976	4.7375
1054.70114	8.1375
1058.38998	10.4375
1062.07627	6.5375
1065.76003	5.1375
1069.44126	11.5375
1073.11995	5.5375
1076.79611	7.7375
1080.46974	6.4375
1084.14085	6.1375
1087.80943	5.7375
1091.47549	11.9375
1095.13903	9.7375
1098.80005	8.7375
1102.45857	7.3375
1106.11456	8.0375
1109.76805	10.4375
1113.41903	11.3375
1117.06751	8.4375
1120.71348	9.6375
1124.35696	9.1375
1127.99793	10.0375
1131.63641	9.0375
1135.2724	3.4375
1138.90589	12.7375
1142.5369	6.0375
1146.16542	7.7375
1149.79145	9.2375
1153.415	6.2375
1157.03607	8.8375
1160.65467	8.6375
1164.27079	7.9375
1167.88443	6.9375
1171.49561	7.2375
1175.10432	6.5375
1178.71056	8.8375
1182.31434	11.9375
1185.91565	10.4375
1189.51451	9.1375
1193.11091	10.1375
1196.70485	8.7375
1200.29634	6.8375
1203.88538	7.8375
1207.47197	5.9375
1211.05612	8.2375
1214.63782	6.4375
1218.21708	5.9375
1221.79391	7.0375
1225.36829	12.7375
1228.94024	8.1375
1232.50976	10.5375
1236.07685	8.4375
1239.6415	13.1375
1243.20374	11.6375
1246.76355	12.8375
1250.32093	13.4375
1253.8759	20.8375
1257.42845	19.7375
1260.97859	22.4375
1264.52631	20.2375
1268.07163	22.0375
1271.61453	18.8375
1275.15503	16.4375
1278.69312	18.4375
1282.22882	15.1375
1285.76211	10.7375
1289.29301	9.1375
1292.82151	11.8375
1296.34761	8.1375
1299.87133	8.6375
1303.39266	7.3375
1306.9116	10.9375
1310.42815	14.2375
1313.94233	10.5375
1317.45412	7.5375
1320.96354	9.7375
1324.47058	9.5375
1327.97525	9.5375
1331.47754	7.6375
1334.97747	8.1375
1338.47502	11.8375
1341.97022	9.2375
1345.46305	11.1375
1348.95352	9.6375
1352.44163	6.4375
1355.92738	11.6375
1359.41078	8.3375
1362.89183	7.7375
1366.37053	10.0375
1369.84688	11.1375
1373.32088	9.0375
1376.79254	11.1375
1380.26186	17.4375
1383.72883	18.0375
1387.19347	22.6375
1390.65578	20.9375
1394.11575	16.4375
1397.57339	8.6375
1401.0287	10.6375
1404.48168	7.0375
1407.93234	5.8375
1411.38068	7.5375
1414.82669	4.6375
1418.27039	7.1375
1421.71177	7.1375
1425.15083	5.7375
1428.58758	9.5375
1432.02203	5.2375
1435.45416	5.9375
1438.88399	7.6375
1442.31151	3.0375
1445.73673	8.8375
1449.15965	10.0375
1452.58027	5.4375
1455.9986	6.9375
1459.41463	3.3375
1462.82837	6.0375
1466.23982	9.1375
1469.64898	5.6375
1473.05586	8.2375
1476.46045	3.4375
1479.86276	5.4375
1483.26279	5.5375
1486.66054	5.3375
1490.05602	5.0375
1493.44922	7.4375
1496.84016	5.3375
1500.22882	9.7375
1503.61521	9.5375
1506.99934	10.0375
1510.38121	9.7375
1513.76081	8.4375
1517.13816	8.0375
1520.51324	6.8375
1523.88607	6.9375
1527.25665	11.2375
1530.62498	4.6375
1533.99105	7.6375
1537.35488	8.8375
1540.71647	5.2375
1544.07581	7.0375
1547.4329	7.9375
1550.78776	9.4375
1554.14038	7.0375
1557.49077	9.7375
1560.83892	3.6375
1564.18484	6.2375
1567.52853	5.5375
1570.86999	8.3375
1574.20922	5.5375
1577.54624	7.2375
1580.88103	12.4375
1584.2136	7.8375
1587.54395	7.5375
1590.87208	10.2375
1594.19801	9.8375
1597.52172	10.5375
1600.84321	10.9375
1604.16251	9.8375
1607.47959	13.0375
1610.79447	11.4375
1614.10715	8.4375
1617.41763	10.0375
1620.7259	11.4375
1624.03199	9.7375
1627.33587	15.7375
1630.63757	13.6375
1633.93707	16.6375
1637.23439	22.3375
1640.52951	23.4375
1643.82246	24.1375
1647.11321	29.6375
1650.40179	34.9375
1653.68819	40.5375
1656.97241	42.9375
1660.25446	40.2375
1663.53433	40.7375
1666.81203	39.8375
1670.08756	31.4375
1673.36092	23.3375
1676.63211	21.0375
1679.90115	20.2375
1683.16801	21.3375
1686.43272	75.0375
1689.69527	30.3375
1692.95567	35.0375
1696.2139	48.9375
1699.46999	66.4375
1702.72392	59.5375
1705.97571	47.0375
1709.22535	30.7375
1712.47284	21.4375
1715.71819	12.5375
1718.96139	12.5375
1722.20246	10.8375
1725.44139	7.8375
1728.67818	9.7375
1731.91284	5.5375
1735.14537	9.7375
1738.37576	6.8375
1741.60403	11.8375
1744.83017	9.4375
1748.05418	16.8375
1751.27607	20.9375
1754.49584	30.8375
1757.71349	40.5375
1760.92903	38.5375
1764.14244	41.8375
1767.35375	33.6375
1770.56294	41.9375
1773.77002	33.9375
1776.97499	25.1375
1780.17785	17.7375
1783.37861	13.3375
1786.57727	7.9375
1789.77382	6.3375
1792.96828	7.0375
1796.16064	6.3375
1799.3509	5.5375
1802.53907	6.4375
1805.72514	5.4375
1808.90913	3.7375
1812.09102	1.6375
1815.27083	3.9375
1818.44856	1.9375
1821.6242	6.7375
1824.79776	4.9375
1827.96924	1.5375
1831.13864	4.4375
1834.30597	4.2375
1837.47122	2.0375
1840.6344	0.5375
1843.7955	4.5375
1846.95454	3.3375
1850.11151	3.4375
1853.26642	5.7375
1856.41926	1.8375
1859.57004	2.6375
1862.71876	1.5375
1865.86542	0.8375
1869.01003	-0.1625
1872.15258	1.9375
1875.29308	1.3375
1878.43152	2.4375
1881.56792	2.1375
1884.70227	3.8375
1887.83457	2.5375
1890.96482	1.2375
1894.09304	3.1375
1897.21921	1.2375
1900.34335	0.3375
1903.46544	0.6375
1906.58551	4.9375
1909.70353	2.9375
1912.81953	2.4375
1915.93349	2.8375
1919.04543	0.9375
1922.15534	0.2375
1925.26322	2.8375
1928.36908	3.5375
1931.47292	5.2375
1934.57473	1.3375
1937.67453	2.1375
1940.77232	-0.6625
1943.86808	0.7375
1946.96184	2.4375
1950.05358	-0.2625
1953.14331	2.5375
1956.23103	4.8375
1959.31675	0.8375
1962.40046	0.9375
1965.48217	3.3375
1968.56188	-0.5625
1971.63959	0.7375
1974.7153	2.6375
1977.78901	2.0375
1980.86073	1.5375
1983.93046	4.1375
1986.99819	-0.9625
1990.06394	3.3375
1993.1277	2.8375
1996.18947	1.6375
1999.24925	5.9375
2002.30706	5.5375
2005.36288	0.0375
2008.41672	2.0375
2011.46859	2.7375
2014.51848	2.7375
2017.56639	1.1375
2020.61233	0.5375
2023.6563	2.2375
2026.6983	4.6375
2029.73833	-1.4625
2032.7764	1.4375
2035.8125	-1.2625
2038.84664	-1.9625
2041.87881	2.3375
2044.90903	-1.0625
2047.93729	1.1375
2050.96359	1.4375
2053.98794	2.8375
2057.01034	0.0375
2060.03078	-1.1625
2063.04927	0.5375
2066.06582	2.8375
2069.08042	4.7375
2072.09307	1.8375
2075.10378	-0.6625
2078.11255	2.1375
2081.11938	0.2375
2084.12426	0.6375
2087.12722	0.3375
2090.12824	2.9375
2093.12732	-0.1625
2096.12447	0.3375
2099.11969	-0.4625
2102.11299	-0.4625
2105.10435	1.2375
2108.09379	2.7375
2111.08131	0.3375
2114.0669	-1.9625
2117.05057	0.7375
2120.03233	-3.2625
2123.01216	1.8375
2125.99008	0.2375
2128.96609	-0.3625
2131.94018	3.1375
2134.91236	3.3375
2137.88263	-2.4625
2140.851	0.4375
2143.81746	3.4375
2146.78201	2.2375
2149.74466	-0.1625
2152.7054	-0.1625
2155.66425	-1.3625
2158.6212	-0.5625
2161.57625	2.7375
2164.52941	2.0375
2167.48067	0.6375
2170.43004	1.9375
2173.37752	1.9375
2176.32311	-1.0625
2179.26681	3.2375
2182.20863	2.4375
2185.14856	4.3375
2188.08661	2.0375
2191.02278	1.3375
2193.95707	-3.6625
2196.88948	-2.5625
2199.82001	-0.3625
2202.74867	-0.3625
2205.67545	-0.3625
2208.60037	2.7375
2211.52341	-2.5625
2214.44458	0.3375
2217.36388	1.4375
2220.28132	1.4375
2223.1969	4.1375
2226.11061	0.9375
2229.02246	0.2375
2231.93245	0.5375
2234.84058	2.7375
2237.74686	2.2375
2240.65128	-0.6625
2243.55385	-3.0625
2246.45456	1.2375
2249.35343	3.7375
2252.25044	0.8375
2255.14561	0.9375
2258.03893	1.9375
2260.93041	6.3375
2263.82004	4.4375
2266.70783	1.6375
2269.59378	2.7375
2272.4779	4.5375
2275.36017	-0.0625
2278.24061	0.2375
2281.11922	1.8375
2283.996	2.9375
2286.87094	2.3375
2289.74405	-2.3625
2292.61534	-1.4625
2295.4848	2.9375
2298.35243	2.7375
2301.21824	1.5375
2304.08223	1.5375
2306.94439	-2.4625
2309.80474	-0.1625
2312.66327	-1.7625
2315.51999	3.3375
2318.37489	-1.3625
2321.22797	2.3375
2324.07925	-1.6625
2326.92871	1.7375
2329.77637	-0.6625
2332.62222	0.7375
2335.46626	0.7375
2338.3085	3.9375
2341.14893	-1.9625
2343.98756	-1.0625
2346.8244	-1.4625
2349.65943	1.9375
2352.49267	2.7375
2355.32411	1.3375
2358.15376	1.7375
2360.98161	0.8375
2363.80768	2.3375
2366.63195	0.1375
2369.45444	-0.3625
2372.27514	0.4375
2375.09405	-0.1625
2377.91118	-2.9625
2380.72652	-0.3625
2383.54009	0.8375
2386.35187	0.9375
2389.16188	-1.6625
2391.97011	2.1375
2394.77657	1.6375
2397.58125	1.7375
2400.38416	-0.0625
2403.18529	1.6375
2405.98466	-3.9625
2408.78226	-0.1625
2411.57809	2.6375
2414.37216	2.6375
2417.16446	0.7375
2419.955	4.3375
2422.74378	-1.9625
2425.5308	-1.3625
2428.31606	1.4375
2431.09956	0.9375
2433.88131	0.3375
2436.6613	2.0375
2439.43954	-1.8625
2442.21603	1.7375
2444.99077	5.3375
2447.76377	1.1375
2450.53501	-0.5625
2453.30451	3.2375
2456.07226	-1.9625
2458.83827	-1.4625
2461.60254	0.8375
2464.36507	-0.6625
2467.12586	-2.0625
2469.88492	0.6375
2472.64224	2.2375
2475.39782	4.6375
2478.15167	3.9375
2480.90379	-2.1625
2483.65417	1.5375
2486.40283	0.9375
2489.14976	0.6375
2491.89497	-0.2625
2494.63845	4.3375
2497.3802	4.4375
2500.12024	-2.0625
2502.85855	0.4375
2505.59514	2.1375
2508.33002	3.3375
2511.06318	2.7375
2513.79462	1.3375
2516.52435	-0.2625
2519.25237	-0.1625
2521.97867	0.4375
2524.70327	1.0375
2527.42616	-0.7625
2530.14734	0.8375
2532.86681	-2.0625
2535.58458	0.7375
2538.30065	1.7375
2541.01501	-1.0625
2543.72768	-0.0625
2546.43864	-1.0625
2549.14791	-1.0625
2551.85548	-2.1625
2554.56136	-2.7625
2557.26554	-0.6625
2559.96803	-0.2625
2562.66883	-2.8625
2565.36794	-0.5625
2568.06536	-2.2625
2570.7611	-3.6625
2573.45514	-0.2625
2576.14751	1.9375
2578.83819	-1.2625
2581.52719	2.4375
2584.21451	0.8375
2586.90015	-0.4625
2589.58411	-2.7625
2592.2664	-0.5625
2594.94701	1.4375
2597.62594	-0.6625
2600.30321	-1.0625
2602.9788	-0.8625
2605.65273	-0.5625
2608.32498	-0.8625
2610.99557	1.3375
2613.66449	0.5375
2616.33175	-1.2625
2618.99734	-2.8625
2621.66128	0.1375
2624.32355	-1.1625
2626.98416	2.4375
2629.64311	1.3375
2632.30041	-3.7625
2634.95605	-1.6625
2637.61004	1.6375
2640.26238	-0.3625
2642.91306	-1.6625
2645.56209	-0.7625
2648.20948	-0.9625
2650.85521	-0.0625
2653.4993	-3.6625
2656.14175	0.6375
2658.78255	-0.4625
2661.42171	-0.8625
2664.05923	0.1375
2666.6951	-0.7625
2669.32934	-1.7625
2671.96194	0.9375
2674.59291	0.6375
2677.22224	-1.0625
2679.84993	1.5375
2682.476	0.1375
2685.10043	-1.0625
2687.72324	1.4375
2690.34441	-5.3625
2692.96396	-0.4625
2695.58188	-0.7625
2698.19818	-2.3625
2700.81285	0.3375
2703.4259	12.6375
2706.03733	24.6375
2708.64714	8.8375
2711.25533	2.8375
2713.86191	2.0375
2716.46687	2.3375
2719.07021	2.5375
2721.67194	-2.1625
2724.27206	-2.4625
2726.87057	-2.4625
2729.46747	-3.8625
2732.06276	-1.3625
2734.65644	-5.8625
2737.24852	-0.5625
2739.83899	-2.2625
2742.42786	-0.9625
2745.01513	0.2375
2747.60079	-2.5625
2750.18486	-0.1625
2752.76733	-0.2625
2755.3482	-0.1625
2757.92747	-2.5625
2760.50515	-2.0625
2763.08123	1.7375
2765.65573	-0.5625
2768.22863	-0.6625
2770.79994	0.0375
2773.36967	-0.7625
2775.9378	2.2375
2778.50435	-3.3625
2781.06932	0.3375
2783.6327	0.2375
2786.1945	0.4375
2788.75471	-4.7625
2791.31335	-1.9625
2793.87041	0.7375
2796.42589	-0.4625
2798.97979	-1.1625
2801.53212	-1.4625
2804.08288	-0.3625
2806.63206	1.3375
2809.17967	-0.4625
2811.72571	-0.0625
2814.27018	-1.4625
2816.81308	1.0375
2819.35442	-0.4625
2821.89419	1.3375
2824.43239	0.7375
2826.96904	1.6375
2829.50412	-1.6625
2832.03763	2.2375
2834.56959	1.4375
2837.1	-0.1625
2839.62884	0.6375
2842.15613	-0.8625
2844.68186	-2.0625
2847.20604	-0.2625
2849.72867	-3.2625
2852.24974	-1.5625
2854.76927	4.6375
2857.28724	7.4375
2859.80367	1.0375
2862.31855	6.7375
2864.83189	2.4375
2867.34368	-0.7625
2869.85393	-0.4625
2872.36264	0.5375
2874.8698	-0.3625
2877.37543	0.3375
2879.87952	-1.0625
2882.38207	1.1375
2884.88308	0.0375
2887.38256	-0.9625
2889.88051	0.9375
2892.37692	1.6375
2894.8718	-0.3625
2897.36515	-1.4625
2899.85698	-3.3625
2902.34727	0.5375
2904.83604	-2.3625
2907.32328	0.3375
2909.809	4.6375
2912.29319	0.5375
2914.77587	-0.0625
2917.25702	-1.6625
2919.73665	-2.5625
2922.21476	-2.9625
2924.69136	0.4375
2927.16644	1.2375
2929.64	-0.3625
2932.11205	-0.8625
2934.58258	0.2375
2937.05161	-1.6625
2939.51912	-1.2625
2941.98513	-0.5625
2944.44962	1.5375
2946.91261	-0.3625
2949.37409	0.1375
2951.83407	-1.6625
2954.29254	2.2375
2956.74951	-0.2625
2959.20498	0.7375
2961.65895	-2.0625
2964.11142	-2.6625
2966.56239	1.0375
2969.01186	-0.2625
2971.45984	0.0375
2973.90632	-0.4625
2976.35131	-6.6625
2978.7948	0.2375
2981.23681	-1.2625
2983.67732	-0.1625
2986.11635	-1.4625
2988.55388	-2.4625
2990.98993	-1.0625
2993.4245	-2.6625
2995.85758	0.4375
2998.28917	-2.7625
3000.71928	0.7375
3003.14791	2.5375
3005.57506	0.5375
3008.00073	1.4375
3010.42493	-0.7625
3012.84764	-2.9625
3015.26888	-0.3625
3017.68865	0.3375
3020.10694	1.0375
3022.52376	2.8375
3024.9391	-3.7625
3027.35298	-2.0625
3029.76539	-1.4625
3032.17632	-0.8625
3034.5858	-0.4625
3036.9938	-1.9625
3039.40034	-1.1625
3041.80542	-1.8625
3044.20903	0.7375
3046.61118	-1.9625
3049.01187	-2.3625
3051.4111	-2.5625
3053.80888	-0.2625
3056.20519	-1.4625
3058.60005	2.0375
3060.99345	0.9375
3063.3854	2.2375
3065.7759	-1.1625
3068.16494	-1.6625
3070.55254	-3.7625
3072.93868	-0.3625
3075.32338	0.0375
3077.70662	-1.8625
3080.08842	-5.8625
3082.46878	-1.1625
3084.84769	-1.3625
3087.22515	-1.9625
3089.60118	-2.0625
3091.97576	-0.2625
3094.3489	-2.7625
3096.72061	-1.7625
3099.09087	-2.4625
3101.4597	-4.0625
3103.82709	-2.4625
3106.19305	-1.3625
3108.55757	-1.4625
3110.92066	-1.5625
3113.28232	-2.0625
3115.64255	-2.1625
3118.00134	1.3375
3120.35871	-0.3625
3122.71466	-4.5625
3125.06917	-1.2625
3127.42226	-1.1625
3129.77393	-1.5625
3132.12417	-0.8625
3134.47299	-1.9625
3136.82039	0.0375
3139.16636	-2.7625
3141.51092	1.0375
3143.85406	0.6375
3146.19579	-0.2625
3148.53609	-2.4625
3150.87499	-1.2625
3153.21246	1.0375
3155.54853	-1.3625
3157.88318	-1.6625
3160.21642	-0.8625
3162.54826	-3.0625
3164.87868	-4.1625
3167.2077	-1.5625
3169.5353	0.2375
3171.86151	-2.5625
3174.18631	-4.7625
3176.5097	-1.6625
3178.83169	2.0375
3181.15228	-3.7625
3183.47147	-3.7625
3185.78926	0.9375
3188.10565	-1.1625
3190.42065	-1.9625
3192.73424	-0.4625
3195.04645	-5.4625
3197.35725	-2.7625
3199.66667	-4.2625
3201.97469	-2.6625
3204.28132	-2.7625
3206.58656	-2.5625
3208.8904	-1.7625
3211.19287	-3.1625
3213.49394	-0.2625
3215.79363	-1.0625
3218.09193	-1.7625
3220.38884	2.4375
3222.68438	7.2375
3224.97853	1.0375
3227.2713	0.0375
3229.56269	-1.5625
3231.8527	-3.2625
3234.14133	1.3375
3236.42858	0.3375
3238.71446	-1.7625
3240.99896	-2.3625
3243.28209	-0.0625
3245.56384	-1.1625
3247.84423	1.5375
3250.12324	-1.7625
3252.40088	-0.1625
3254.67715	-2.9625
3256.95205	-1.7625
3259.22558	-0.5625
3261.49775	-0.0625
3263.76855	-0.5625
3266.03799	-0.2625
3268.30606	-0.7625
3270.57277	-2.0625
3272.83812	-0.2625
3275.10211	-3.1625
3277.36474	1.8375
3279.62601	-3.7625
3281.88593	-1.2625
3284.14448	-2.3625
3286.40168	-1.5625
3288.65753	-1.7625
3290.91202	-5.3625
3293.16516	-0.8625
3295.41695	-2.6625
3297.66738	-4.8625
3299.91647	-4.6625
3302.16421	1.0375
3304.4106	-1.0625
3306.65564	-3.3625
3308.89933	-0.8625
3311.14169	2.4375
3313.38269	5.1375
3315.62236	-0.9625
3317.86068	2.3375
3320.09766	1.8375
3322.3333	0.3375
3324.5676	3.7375
3326.80056	4.6375
3329.03219	3.8375
3331.26248	-1.1625
3333.49143	-1.3625
3335.71905	-1.1625
