Data from AgNPs_FTO_APTES_UA_2uM_CRN_20uM_R6G_10uM_NaF_0.1M_Addition_RamanShift__11__14-10-35-198.txt Node

Date: Wed Feb 02 14:10:35 GMT 2022
User: TCL
Spectrometer: QEP01345
Trigger mode: 4
Integration Time (sec): 7.000000E0
Scans to average: 10
Electric dark correction enabled: true
Nonlinearity correction enabled: false
Boxcar width: 0
XAxis mode: Raman Shifts
Number of Pixels in Spectrum: 1044
>>>>>Begin Spectral Data<<<<<
46.04893	0.9625
50.45542	0.1625
54.85868	-0.6375
59.25871	-1.9375
63.6555	93.6625
68.04907	100.4625
72.43941	101.3625
76.82654	111.8625
81.21044	113.8625
85.59113	117.3625
89.96862	120.6625
94.34289	130.1625
98.71396	132.6625
103.08183	138.6625
107.4465	139.2625
111.80798	141.7625
116.16626	148.9625
120.52136	152.3625
124.87327	163.7625
129.222	173.4625
133.56755	181.3625
137.90993	197.3625
142.24913	218.6625
146.58517	247.1625
150.91804	283.4625
155.24774	346.6625
159.57429	426.9625
163.89768	547.1625
168.21792	732.1625
172.53501	1002.5625
176.84895	1396.5625
181.15975	1963.2625
185.46741	2743.8625
189.77193	3807.5625
194.07331	5097.2625
198.37157	6579.0625
202.6667	8137.8625
206.9587	9675.3625
211.24758	11195.6625
215.53334	12679.6625
219.81599	14268.2625
224.09553	15988.9625
228.37195	17862.9625
232.64527	19962.3625
236.91549	22167.9625
241.18261	24358.0625
245.44663	26451.6625
249.70755	28376.1625
253.96539	30062.3625
258.22014	31474.3625
262.4718	32614.3625
266.72039	33394.2625
270.96589	33828.5625
275.20832	33887.9625
279.44768	33851.8625
283.68397	33565.1625
287.91719	33398.7625
292.14735	33298.5625
296.37445	33286.0625
300.59849	33344.7625
304.81948	33407.8625
309.03742	33360.4625
313.25231	33161.7625
317.46415	32583.1625
321.67296	31795.8625
325.87872	31099.4625
330.08145	30754.7625
334.28114	30677.7625
338.47781	30822.4625
342.67145	31087.6625
346.86207	31419.0625
351.04966	31752.4625
355.23424	32153.2625
359.4158	32528.4625
363.59435	32822.6625
367.76989	33082.3625
371.94243	33180.9625
376.11196	33208.8625
380.27849	33181.2625
384.44203	33222.0625
388.60257	33481.1625
392.76012	33872.6625
396.91468	34443.9625
401.06626	35073.9625
405.21485	35459.3625
409.36047	35325.0625
413.50311	34914.7625
417.64277	34731.4625
421.77947	34855.1625
425.9132	35001.0625
430.04396	35235.0625
434.17176	35323.6625
438.2966	35475.1625
442.41849	35822.8625
446.53742	36468.5625
450.6534	37192.2625
454.76644	37709.0625
458.87653	38018.7625
462.98368	37968.8625
467.08789	37820.9625
471.18916	37548.7625
475.2875	37230.8625
479.38291	37169.8625
483.4754	37065.2625
487.56496	36791.2625
491.6516	36302.0625
495.73531	35679.3625
499.81612	35266.6625
503.89401	35259.8625
507.96899	35418.0625
512.04106	35499.3625
516.11023	35345.0625
520.1765	34936.8625
524.23987	34488.1625
528.30034	34035.1625
532.35792	33637.1625
536.41261	33313.1625
540.46441	33080.9625
544.51333	33198.4625
548.55936	33627.3625
552.60252	34284.5625
556.64279	34977.5625
560.6802	35602.7625
564.71473	36081.5625
568.7464	36973.5625
572.7752	38351.7625
576.80114	40116.8625
580.82422	41654.0625
584.84444	42845.3625
588.86181	44069.6625
592.87633	45157.8625
596.888	44899.8625
600.89682	42992.1625
604.9028	41963.7625
608.90594	42889.2625
612.90624	43951.0625
616.90371	41152.9625
620.89834	36223.1625
624.89015	34185.8625
628.87913	34175.3625
632.86528	34602.5625
636.84862	34654.5625
640.82913	34072.7625
644.80683	33172.1625
648.78172	32592.1625
652.75379	32427.5625
656.72306	32635.3625
660.68952	33004.6625
664.65319	32863.8625
668.61405	32538.3625
672.57211	32510.6625
676.52738	32520.5625
680.47986	32500.1625
684.42955	32343.7625
688.37646	32288.8625
692.32058	32360.5625
696.26192	32703.4625
700.20048	33044.1625
704.13626	33405.9625
708.06928	33662.2625
711.99952	33643.9625
715.927	33545.9625
719.85171	33406.6625
723.77365	33062.1625
727.69284	32556.3625
731.60928	32100.5625
735.52295	31869.6625
739.43388	31733.4625
743.34206	31818.3625
747.24749	32002.7625
751.15017	32406.0625
755.05012	33021.3625
758.94733	33990.3625
762.8418	35511.2625
766.73354	37546.2625
770.62254	39293.6625
774.50882	39235.4625
778.39237	37563.9625
782.27321	35428.1625
786.15132	33728.2625
790.02671	32608.0625
793.89938	31966.7625
797.76935	31547.3625
801.6366	31485.2625
805.50115	31340.4625
809.36299	31217.3625
813.22213	30990.6625
817.07857	30967.3625
820.93231	30922.9625
824.78336	30752.6625
828.63172	30601.8625
832.47738	30469.4625
836.32036	30374.2625
840.16066	30308.8625
843.99827	30297.5625
847.8332	30337.7625
851.66546	30338.9625
855.49504	30389.4625
859.32195	30402.8625
863.1462	30350.1625
866.96777	30279.5625
870.78668	30213.6625
874.60293	30194.5625
878.41652	30217.7625
882.22745	30211.8625
886.03573	30320.7625
889.84136	30337.5625
893.64433	30227.3625
897.44466	30152.7625
901.24235	30113.6625
905.0374	30076.1625
908.8298	30127.6625
912.61957	30229.8625
916.40671	30654.9625
920.19121	31149.9625
923.97308	31436.3625
927.75233	31312.6625
931.52895	30892.6625
935.30295	30280.5625
939.07433	29611.8625
942.84309	29195.5625
946.60924	28966.4625
950.37278	28901.6625
954.13371	28858.4625
957.89203	28871.9625
961.64774	28853.8625
965.40086	28890.0625
969.15137	28816.7625
972.89929	28659.7625
976.64461	28455.3625
980.38733	28315.7625
984.12747	28300.9625
987.86502	28328.3625
991.59999	28512.7625
995.33237	28607.5625
999.06217	28934.6625
1002.78939	29341.1625
1006.51404	29830.2625
1010.23611	30295.1625
1013.95561	30587.2625
1017.67255	30676.1625
1021.38692	30421.4625
1025.09872	30090.9625
1028.80796	29692.4625
1032.51465	29531.8625
1036.21877	29571.6625
1039.92035	29685.7625
1043.61937	29853.8625
1047.31584	30006.6625
1051.00976	30109.5625
1054.70114	30300.6625
1058.38998	30600.4625
1062.07627	31070.2625
1065.76003	31604.0625
1069.44126	32128.2625
1073.11995	32644.7625
1076.79611	33051.8625
1080.46974	33176.8625
1084.14085	33255.3625
1087.80943	33507.6625
1091.47549	33917.8625
1095.13903	34146.5625
1098.80005	33778.6625
1102.45857	32929.9625
1106.11456	32082.3625
1109.76805	31530.9625
1113.41903	31380.3625
1117.06751	31498.1625
1120.71348	31762.6625
1124.35696	32027.3625
1127.99793	32426.6625
1131.63641	32651.3625
1135.2724	32676.3625
1138.90589	32738.8625
1142.5369	32917.6625
1146.16542	33233.3625
1149.79145	33664.9625
1153.415	34170.9625
1157.03607	34813.2625
1160.65467	35674.8625
1164.27079	37165.0625
1167.88443	39046.2625
1171.49561	40846.2625
1175.10432	43029.5625
1178.71056	45611.6625
1182.31434	48008.7625
1185.91565	49470.8625
1189.51451	49913.2625
1193.11091	49476.1625
1196.70485	48289.5625
1200.29634	46593.0625
1203.88538	45335.0625
1207.47197	44920.2625
1211.05612	44863.3625
1214.63782	44367.3625
1218.21708	43118.3625
1221.79391	41401.7625
1225.36829	39973.0625
1228.94024	39182.6625
1232.50976	38773.3625
1236.07685	38456.6625
1239.6415	38305.2625
1243.20374	38384.6625
1246.76355	38649.8625
1250.32093	39184.7625
1253.8759	39934.7625
1257.42845	40972.0625
1260.97859	42213.4625
1264.52631	43410.8625
1268.07163	44650.2625
1271.61453	45832.4625
1275.15503	47087.6625
1278.69312	48535.7625
1282.22882	50143.8625
1285.76211	51985.0625
1289.29301	54006.3625
1292.82151	56472.2625
1296.34761	59282.5625
1299.87133	62335.9625
1303.39266	65109.3625
1306.9116	67174.1625
1310.42815	68403.9625
1313.94233	68740.9625
1317.45412	68330.3625
1320.96354	67942.1625
1324.47058	68106.8625
1327.97525	68493.8625
1331.47754	68947.6625
1334.97747	69095.9625
1338.47502	68957.5625
1341.97022	68839.1625
1345.46305	68343.4625
1348.95352	67447.5625
1352.44163	66295.6625
1355.92738	65525.1625
1359.41078	65719.5625
1362.89183	66055.0625
1366.37053	64982.5625
1369.84688	61514.7625
1373.32088	56536.5625
1376.79254	52763.4625
1380.26186	51428.8625
1383.72883	51574.1625
1387.19347	51873.7625
1390.65578	51605.0625
1394.11575	51339.8625
1397.57339	51533.6625
1401.0287	52010.8625
1404.48168	52307.2625
1407.93234	51864.0625
1411.38068	50436.7625
1414.82669	48457.7625
1418.27039	46302.8625
1421.71177	44280.1625
1425.15083	42748.4625
1428.58758	42134.2625
1432.02203	42482.6625
1435.45416	43603.2625
1438.88399	44901.4625
1442.31151	45904.3625
1445.73673	46587.0625
1449.15965	47285.7625
1452.58027	47775.8625
1455.9986	48150.5625
1459.41463	48556.1625
1462.82837	49156.9625
1466.23982	49913.5625
1469.64898	50413.7625
1473.05586	50670.1625
1476.46045	50671.8625
1479.86276	50338.8625
1483.26279	49967.8625
1486.66054	49867.3625
1490.05602	50174.4625
1493.44922	50895.2625
1496.84016	51832.2625
1500.22882	52960.7625
1503.61521	54356.5625
1506.99934	55546.0625
1510.38121	56462.4625
1513.76081	56649.5625
1517.13816	56275.8625
1520.51324	55810.4625
1523.88607	55731.6625
1527.25665	55979.1625
1530.62498	55952.3625
1533.99105	55372.3625
1537.35488	54182.6625
1540.71647	52402.5625
1544.07581	50444.1625
1547.4329	48766.1625
1550.78776	47435.1625
1554.14038	46545.5625
1557.49077	46034.5625
1560.83892	45801.6625
1564.18484	45698.0625
1567.52853	45811.4625
1570.86999	46244.0625
1574.20922	47135.1625
1577.54624	48205.3625
1580.88103	48883.8625
1584.2136	49543.4625
1587.54395	50814.5625
1590.87208	52677.2625
1594.19801	54961.9625
1597.52172	56658.8625
1600.84321	56433.9625
1604.16251	53635.4625
1607.47959	49837.3625
1610.79447	45997.0625
1614.10715	42465.0625
1617.41763	39477.3625
1620.7259	37315.8625
1624.03199	36204.0625
1627.33587	36147.2625
1630.63757	37140.3625
1633.93707	39530.3625
1637.23439	43601.2625
1640.52951	49522.6625
1643.82246	56510.3625
1647.11321	61917.1625
1650.40179	63008.7625
1653.68819	59005.7625
1656.97241	51639.7625
1660.25446	44054.5625
1663.53433	38095.7625
1666.81203	34056.5625
1670.08756	31487.6625
1673.36092	29867.8625
1676.63211	28776.9625
1679.90115	28069.0625
1683.16801	27525.0625
1686.43272	27135.8625
1689.69527	26831.2625
1692.95567	26562.0625
1696.2139	26418.3625
1699.46999	26292.0625
1702.72392	26160.7625
1705.97571	26048.8625
1709.22535	25931.1625
1712.47284	25834.4625
1715.71819	25762.9625
1718.96139	25689.8625
1722.20246	25587.8625
1725.44139	25401.2625
1728.67818	25286.4625
1731.91284	25124.8625
1735.14537	24960.7625
1738.37576	24831.9625
1741.60403	24708.0625
1744.83017	24643.1625
1748.05418	24590.8625
1751.27607	24476.3625
1754.49584	24465.1625
1757.71349	24450.4625
1760.92903	24386.4625
1764.14244	24358.4625
1767.35375	24295.6625
1770.56294	24260.5625
1773.77002	24195.3625
1776.97499	24140.4625
1780.17785	24079.6625
1783.37861	24025.0625
1786.57727	23932.7625
1789.77382	23884.0625
1792.96828	23843.4625
1796.16064	23849.6625
1799.3509	23752.4625
1802.53907	23691.5625
1805.72514	23610.5625
1808.90913	23525.6625
1812.09102	23471.2625
1815.27083	23448.4625
1818.44856	23425.9625
1821.6242	23358.0625
1824.79776	23323.3625
1827.96924	23315.3625
1831.13864	23305.5625
1834.30597	23309.3625
1837.47122	23303.3625
1840.6344	23222.3625
1843.7955	23292.1625
1846.95454	23291.8625
1850.11151	23293.0625
1853.26642	23242.7625
1856.41926	23223.0625
1859.57004	23180.3625
1862.71876	23136.8625
1865.86542	23124.6625
1869.01003	23005.9625
1872.15258	23001.8625
1875.29308	22960.1625
1878.43152	22906.5625
1881.56792	22859.8625
1884.70227	22818.1625
1887.83457	22798.0625
1890.96482	22774.6625
1894.09304	22738.3625
1897.21921	22682.9625
1900.34335	22627.8625
1903.46544	22591.2625
1906.58551	22588.8625
1909.70353	22505.4625
1912.81953	22464.7625
1915.93349	22401.2625
1919.04543	22376.8625
1922.15534	22284.2625
1925.26322	22249.4625
1928.36908	22194.2625
1931.47292	22138.0625
1934.57473	22035.6625
1937.67453	22019.3625
1940.77232	21912.6625
1943.86808	21847.0625
1946.96184	21791.9625
1950.05358	21723.0625
1953.14331	21687.6625
1956.23103	21602.9625
1959.31675	21566.0625
1962.40046	21500.9625
1965.48217	21437.5625
1968.56188	21341.5625
1971.63959	21250.3625
1974.7153	21204.3625
1977.78901	21134.8625
1980.86073	21021.6625
1983.93046	20950.3625
1986.99819	20853.8625
1990.06394	20876.2625
1993.1277	20819.5625
1996.18947	20699.8625
1999.24925	20643.5625
2002.30706	20564.4625
2005.36288	20454.1625
2008.41672	20392.4625
2011.46859	20354.2625
2014.51848	20240.6625
2017.56639	20257.6625
2020.61233	20182.7625
2023.6563	20138.2625
2026.6983	20096.3625
2029.73833	20023.7625
2032.7764	19989.7625
2035.8125	19912.8625
2038.84664	19858.2625
2041.87881	19847.4625
2044.90903	19774.6625
2047.93729	19730.4625
2050.96359	19723.9625
2053.98794	19662.9625
2057.01034	19699.0625
2060.03078	19624.1625
2063.04927	19592.8625
2066.06582	19632.4625
2069.08042	19588.5625
2072.09307	19547.7625
2075.10378	19546.2625
2078.11255	19530.4625
2081.11938	19492.4625
2084.12426	19469.5625
2087.12722	19475.3625
2090.12824	19462.3625
2093.12732	19447.6625
2096.12447	19466.2625
2099.11969	19481.3625
2102.11299	19467.5625
2105.10435	19472.2625
2108.09379	19438.6625
2111.08131	19435.5625
2114.0669	19472.8625
2117.05057	19460.0625
2120.03233	19493.8625
2123.01216	19514.5625
2125.99008	19489.2625
2128.96609	19491.5625
2131.94018	19492.5625
2134.91236	19527.3625
2137.88263	19518.1625
2140.851	19496.6625
2143.81746	19483.8625
2146.78201	19508.8625
2149.74466	19461.1625
2152.7054	19472.5625
2155.66425	19464.9625
2158.6212	19403.3625
2161.57625	19440.7625
2164.52941	19401.5625
2167.48067	19402.0625
2170.43004	19390.7625
2173.37752	19335.8625
2176.32311	19307.0625
2179.26681	19349.6625
2182.20863	19315.8625
2185.14856	19348.2625
2188.08661	19310.7625
2191.02278	19344.3625
2193.95707	19312.8625
2196.88948	19256.3625
2199.82001	19251.1625
2202.74867	19213.0625
2205.67545	19193.9625
2208.60037	19111.2625
2211.52341	19105.2625
2214.44458	19081.6625
2217.36388	19049.9625
2220.28132	19011.8625
2223.1969	18974.8625
2226.11061	18950.5625
2229.02246	18907.4625
2231.93245	18889.8625
2234.84058	18876.0625
2237.74686	18830.3625
2240.65128	18788.4625
2243.55385	18722.0625
2246.45456	18720.7625
2249.35343	18685.9625
2252.25044	18655.5625
2255.14561	18603.7625
2258.03893	18569.1625
2260.93041	18510.7625
2263.82004	18439.1625
2266.70783	18384.2625
2269.59378	18294.9625
2272.4779	18269.5625
2275.36017	18266.5625
2278.24061	18213.1625
2281.11922	18132.6625
2283.996	18117.9625
2286.87094	18070.4625
2289.74405	18071.8625
2292.61534	18021.0625
2295.4848	17990.2625
2298.35243	17960.5625
2301.21824	17938.2625
2304.08223	17916.0625
2306.94439	17916.0625
2309.80474	17907.5625
2312.66327	17857.5625
2315.51999	17864.0625
2318.37489	17815.8625
2321.22797	17800.9625
2324.07925	17768.8625
2326.92871	17725.5625
2329.77637	17732.1625
2332.62222	17709.4625
2335.46626	17681.0625
2338.3085	17601.4625
2341.14893	17625.5625
2343.98756	17604.5625
2346.8244	17597.8625
2349.65943	17584.9625
2352.49267	17596.6625
2355.32411	17592.2625
2358.15376	17571.2625
2360.98161	17590.2625
2363.80768	17557.4625
2366.63195	17521.3625
2369.45444	17472.3625
2372.27514	17492.5625
2375.09405	17457.2625
2377.91118	17460.0625
2380.72652	17422.5625
2383.54009	17365.9625
2386.35187	17330.8625
2389.16188	17276.4625
2391.97011	17233.7625
2394.77657	17194.0625
2397.58125	17139.8625
2400.38416	17143.9625
2403.18529	17082.6625
2405.98466	17100.7625
2408.78226	17077.7625
2411.57809	17064.7625
2414.37216	17023.7625
2417.16446	17021.0625
2419.955	16996.3625
2422.74378	16981.5625
2425.5308	16986.0625
2428.31606	16951.3625
2431.09956	16929.3625
2433.88131	16907.6625
2436.6613	16905.7625
2439.43954	16880.3625
2442.21603	16868.3625
2444.99077	16864.9625
2447.76377	16801.2625
2450.53501	16775.5625
2453.30451	16779.6625
2456.07226	16767.7625
2458.83827	16734.3625
2461.60254	16742.7625
2464.36507	16753.3625
2467.12586	16750.8625
2469.88492	16731.2625
2472.64224	16709.6625
2475.39782	16701.7625
2478.15167	16715.0625
2480.90379	16693.1625
2483.65417	16682.7625
2486.40283	16693.9625
2489.14976	16677.5625
2491.89497	16656.4625
2494.63845	16702.9625
2497.3802	16647.9625
2500.12024	16621.4625
2502.85855	16623.0625
2505.59514	16616.5625
2508.33002	16599.4625
2511.06318	16610.4625
2513.79462	16604.9625
2516.52435	16541.7625
2519.25237	16573.1625
2521.97867	16549.8625
2524.70327	16552.7625
2527.42616	16487.5625
2530.14734	16489.5625
2532.86681	16461.0625
2535.58458	16456.9625
2538.30065	16425.2625
2541.01501	16380.2625
2543.72768	16359.5625
2546.43864	16331.6625
2549.14791	16332.6625
2551.85548	16327.0625
2554.56136	16262.7625
2557.26554	16299.9625
2559.96803	16292.0625
2562.66883	16244.1625
2565.36794	16208.7625
2568.06536	16216.7625
2570.7611	16159.9625
2573.45514	16138.9625
2576.14751	16118.5625
2578.83819	16101.2625
2581.52719	16081.4625
2584.21451	16073.4625
2586.90015	16023.0625
2589.58411	16027.8625
2592.2664	16007.0625
2594.94701	15979.0625
2597.62594	15978.7625
2600.30321	15949.3625
2602.9788	15922.2625
2605.65273	15895.5625
2608.32498	15897.8625
2610.99557	15896.2625
2613.66449	15894.0625
2616.33175	15864.0625
2618.99734	15882.6625
2621.66128	15874.0625
2624.32355	15843.8625
2626.98416	15815.9625
2629.64311	15844.4625
2632.30041	15819.6625
2634.95605	15805.9625
2637.61004	15779.1625
2640.26238	15768.7625
2642.91306	15751.1625
2645.56209	15717.5625
2648.20948	15730.3625
2650.85521	15749.3625
2653.4993	15748.4625
2656.14175	15754.7625
2658.78255	15749.2625
2661.42171	15731.8625
2664.05923	15753.0625
2666.6951	15747.9625
2669.32934	15770.6625
2671.96194	15775.4625
2674.59291	15747.3625
2677.22224	15771.9625
2679.84993	15763.7625
2682.476	15723.3625
2685.10043	15767.5625
2687.72324	15759.8625
2690.34441	15754.9625
2692.96396	15738.0625
2695.58188	15727.0625
2698.19818	15729.6625
2700.81285	15719.0625
2703.4259	15709.1625
2706.03733	15759.8625
2708.64714	15744.8625
2711.25533	15755.2625
2713.86191	15709.4625
2716.46687	15711.6625
2719.07021	15696.1625
2721.67194	15762.0625
2724.27206	15700.5625
2726.87057	15722.7625
2729.46747	15701.7625
2732.06276	15707.6625
2734.65644	15688.0625
2737.24852	15682.9625
2739.83899	15663.6625
2742.42786	15672.1625
2745.01513	15642.3625
2747.60079	15685.3625
2750.18486	15669.7625
2752.76733	15671.0625
2755.3482	15644.1625
2757.92747	15652.6625
2760.50515	15623.1625
2763.08123	15637.9625
2765.65573	15603.9625
2768.22863	15564.2625
2770.79994	15534.6625
2773.36967	15549.1625
2775.9378	15542.2625
2778.50435	15518.3625
2781.06932	15500.8625
2783.6327	15521.4625
2786.1945	15484.0625
2788.75471	15455.4625
2791.31335	15421.0625
2793.87041	15402.8625
2796.42589	15355.3625
2798.97979	15366.0625
2801.53212	15297.4625
2804.08288	15307.1625
2806.63206	15300.2625
2809.17967	15269.9625
2811.72571	15227.9625
2814.27018	15202.9625
2816.81308	15202.1625
2819.35442	15130.0625
2821.89419	15082.5625
2824.43239	15118.6625
2826.96904	15087.7625
2829.50412	15088.2625
2832.03763	15063.4625
2834.56959	15031.1625
2837.1	15008.5625
2839.62884	15026.2625
2842.15613	15016.5625
2844.68186	15026.1625
2847.20604	15040.0625
2849.72867	15063.0625
2852.24974	15032.9625
2854.76927	14992.6625
2857.28724	15006.5625
2859.80367	14993.9625
2862.31855	14950.6625
2864.83189	14900.0625
2867.34368	14878.4625
2869.85393	14837.7625
2872.36264	14821.4625
2874.8698	14861.2625
2877.37543	14847.3625
2879.87952	14807.6625
2882.38207	14791.6625
2884.88308	14793.8625
2887.38256	14798.3625
2889.88051	14788.2625
2892.37692	14777.7625
2894.8718	14795.4625
2897.36515	14791.7625
2899.85698	14778.0625
2902.34727	14815.2625
2904.83604	14814.7625
2907.32328	14821.2625
2909.809	14802.6625
2912.29319	14756.1625
2914.77587	14751.1625
2917.25702	14719.9625
2919.73665	14710.3625
2922.21476	14740.2625
2924.69136	14751.9625
2927.16644	14802.0625
2929.64	14773.3625
2932.11205	14751.7625
2934.58258	14691.5625
2937.05161	14744.8625
2939.51912	14722.9625
2941.98513	14683.7625
2944.44962	14660.3625
2946.91261	14593.4625
2949.37409	14589.6625
2951.83407	14566.1625
2954.29254	14562.3625
2956.74951	14551.4625
2959.20498	14523.3625
2961.65895	14466.8625
2964.11142	14479.0625
2966.56239	14429.3625
2969.01186	14449.7625
2971.45984	14409.3625
2973.90632	14387.8625
2976.35131	14352.5625
2978.7948	14314.9625
2981.23681	14279.7625
2983.67732	14222.4625
2986.11635	14204.1625
2988.55388	14152.3625
2990.98993	14132.9625
2993.4245	14067.8625
2995.85758	14060.2625
2998.28917	13961.7625
3000.71928	13969.4625
3003.14791	13927.7625
3005.57506	13923.3625
3008.00073	13868.2625
3010.42493	13862.8625
3012.84764	13809.9625
3015.26888	13785.9625
3017.68865	13721.1625
3020.10694	13735.3625
3022.52376	13711.5625
3024.9391	13679.3625
3027.35298	13644.5625
3029.76539	13608.8625
3032.17632	13600.0625
3034.5858	13571.3625
3036.9938	13583.4625
3039.40034	13552.9625
3041.80542	13545.8625
3044.20903	13517.6625
3046.61118	13490.9625
3049.01187	13463.7625
3051.4111	13441.5625
3053.80888	13410.4625
3056.20519	13375.0625
3058.60005	13327.6625
3060.99345	13335.8625
3063.3854	13266.2625
3065.7759	13224.9625
3068.16494	13167.0625
3070.55254	13106.3625
3072.93868	13070.4625
3075.32338	13026.7625
3077.70662	13034.0625
3080.08842	12984.1625
3082.46878	12963.9625
3084.84769	12940.2625
3087.22515	12945.5625
3089.60118	12938.0625
3091.97576	12878.8625
3094.3489	12888.6625
3096.72061	12851.6625
3099.09087	12868.9625
3101.4597	12821.4625
3103.82709	12845.8625
3106.19305	12783.3625
3108.55757	12772.3625
3110.92066	12747.3625
3113.28232	12695.9625
3115.64255	12694.3625
3118.00134	12665.0625
3120.35871	12634.4625
3122.71466	12589.4625
3125.06917	12554.8625
3127.42226	12498.1625
3129.77393	12537.3625
3132.12417	12510.8625
3134.47299	12483.9625
3136.82039	12459.9625
3139.16636	12478.9625
3141.51092	12463.4625
3143.85406	12448.4625
3146.19579	12461.0625
3148.53609	12440.8625
3150.87499	12424.0625
3153.21246	12421.1625
3155.54853	12435.4625
3157.88318	12406.2625
3160.21642	12403.4625
3162.54826	12404.1625
3164.87868	12361.9625
3167.2077	12374.9625
3169.5353	12327.6625
3171.86151	12358.7625
3174.18631	12322.9625
3176.5097	12317.2625
3178.83169	12283.3625
3181.15228	12284.2625
3183.47147	12266.0625
3185.78926	12232.1625
3188.10565	12259.4625
3190.42065	12208.6625
3192.73424	12220.8625
3195.04645	12195.3625
3197.35725	12162.1625
3199.66667	12156.7625
3201.97469	12166.3625
3204.28132	12123.4625
3206.58656	12122.2625
3208.8904	12136.9625
3211.19287	12136.0625
3213.49394	12115.2625
3215.79363	12098.9625
3218.09193	12071.1625
3220.38884	12103.3625
3222.68438	12112.8625
3224.97853	12077.1625
3227.2713	12058.6625
3229.56269	12030.4625
3231.8527	12012.6625
3234.14133	11980.2625
3236.42858	11943.5625
3238.71446	11948.9625
3240.99896	11919.6625
3243.28209	11916.3625
3245.56384	11876.1625
3247.84423	11885.9625
3250.12324	11873.7625
3252.40088	11856.7625
3254.67715	11811.1625
3256.95205	11793.0625
3259.22558	11774.3625
3261.49775	11753.5625
3263.76855	11710.5625
3266.03799	11679.6625
3268.30606	11671.1625
3270.57277	11663.5625
3272.83812	11618.4625
3275.10211	11623.5625
3277.36474	11601.6625
3279.62601	11593.2625
3281.88593	11590.2625
3284.14448	11576.2625
3286.40168	11549.6625
3288.65753	11532.2625
3290.91202	11539.4625
3293.16516	11494.3625
3295.41695	11461.1625
3297.66738	11379.0625
3299.91647	11342.1625
3302.16421	11293.7625
3304.4106	11227.8625
3306.65564	11137.4625
3308.89933	11055.1625
3311.14169	10977.7625
3313.38269	10906.3625
3315.62236	10844.7625
3317.86068	10729.9625
3320.09766	10621.4625
3322.3333	10492.6625
3324.5676	10491.6625
3326.80056	10326.1625
3329.03219	10288.5625
3331.26248	3.4625
3333.49143	-0.2375
3335.71905	-1.6375
