Data from AgNPs_FTO_APTES_UA_2uM_CRN_2uM_R6G_10uM_NaF_0.1M_Addition_RamanShift__1__11-59-55-045.txt Node

Date: Wed Feb 02 11:59:55 GMT 2022
User: TCL
Spectrometer: QEP01345
Trigger mode: 4
Integration Time (sec): 7.000000E0
Scans to average: 10
Electric dark correction enabled: true
Nonlinearity correction enabled: false
Boxcar width: 0
XAxis mode: Raman Shifts
Number of Pixels in Spectrum: 1044
>>>>>Begin Spectral Data<<<<<
46.04893	0.0625
50.45542	0.0625
54.85868	-1.8375
59.25871	-1.5375
63.6555	103.8625
68.04907	107.8625
72.43941	111.3625
76.82654	119.8625
81.21044	118.9625
85.59113	130.2625
89.96862	132.4625
94.34289	133.3625
98.71396	144.9625
103.08183	147.4625
107.4465	149.0625
111.80798	148.8625
116.16626	156.5625
120.52136	163.1625
124.87327	170.4625
129.222	179.0625
133.56755	190.2625
137.90993	199.9625
142.24913	222.1625
146.58517	254.1625
150.91804	286.9625
155.24774	350.2625
159.57429	436.2625
163.89768	556.9625
168.21792	735.4625
172.53501	1003.0625
176.84895	1402.6625
181.15975	1963.6625
185.46741	2749.7625
189.77193	3796.5625
194.07331	5080.1625
198.37157	6539.9625
202.6667	8085.2625
206.9587	9598.1625
211.24758	11116.0625
215.53334	12647.5625
219.81599	14315.2625
224.09553	16114.5625
228.37195	18129.6625
232.64527	20355.8625
236.91549	22628.2625
241.18261	24833.7625
245.44663	26862.4625
249.70755	28643.7625
253.96539	30189.2625
258.22014	31541.2625
262.4718	32640.1625
266.72039	33376.0625
270.96589	33708.5625
275.20832	33688.4625
279.44768	33391.3625
283.68397	32911.2625
287.91719	32539.0625
292.14735	32324.8625
296.37445	32293.5625
300.59849	32479.3625
304.81948	32793.9625
309.03742	33071.3625
313.25231	33034.0625
317.46415	32635.7625
321.67296	31960.9625
325.87872	31449.9625
330.08145	31123.3625
334.28114	31133.3625
338.47781	31292.9625
342.67145	31674.5625
346.86207	32152.7625
351.04966	32851.0625
355.23424	33521.6625
359.4158	34166.7625
363.59435	34563.7625
367.76989	34882.0625
371.94243	35094.2625
376.11196	35261.8625
380.27849	35394.4625
384.44203	35568.1625
388.60257	35813.4625
392.76012	36008.3625
396.91468	36396.6625
401.06626	36927.3625
405.21485	37345.0625
409.36047	37333.7625
413.50311	36907.3625
417.64277	36668.7625
421.77947	36626.2625
425.9132	36728.8625
430.04396	36903.5625
434.17176	37122.0625
438.2966	37537.0625
442.41849	38397.2625
446.53742	39772.8625
450.6534	41265.5625
454.76644	42258.6625
458.87653	42366.9625
462.98368	41834.8625
467.08789	40934.8625
471.18916	39997.7625
475.2875	39057.8625
479.38291	38434.6625
483.4754	38023.8625
487.56496	37696.5625
491.6516	37335.7625
495.73531	37055.0625
499.81612	36926.3625
503.89401	37102.7625
507.96899	37065.5625
512.04106	36891.8625
516.11023	36693.0625
520.1765	36602.7625
524.23987	36619.8625
528.30034	36653.3625
532.35792	36478.9625
536.41261	35973.3625
540.46441	35362.5625
544.51333	35076.6625
548.55936	35230.5625
552.60252	35889.5625
556.64279	36790.4625
560.6802	37541.8625
564.71473	37749.7625
568.7464	38194.5625
572.7752	38933.0625
576.80114	39480.3625
580.82422	40243.1625
584.84444	41597.1625
588.86181	43625.5625
592.87633	45802.0625
596.888	46717.0625
600.89682	45318.9625
604.9028	45044.2625
608.90594	48424.5625
612.90624	52510.3625
616.90371	49932.2625
620.89834	42211.7625
624.89015	38671.8625
628.87913	38041.2625
632.86528	37799.9625
636.84862	37200.3625
640.82913	36340.1625
644.80683	35390.7625
648.78172	34805.2625
652.75379	34866.9625
656.72306	35420.8625
660.68952	36170.1625
664.65319	36065.6625
668.61405	35491.1625
672.57211	35357.4625
676.52738	35535.1625
680.47986	35425.0625
684.42955	35056.9625
688.37646	34976.3625
692.32058	35323.4625
696.26192	35963.6625
700.20048	36662.8625
704.13626	36849.8625
708.06928	36508.2625
711.99952	36122.3625
715.927	36146.5625
719.85171	36467.4625
723.77365	36426.3625
727.69284	35800.5625
731.60928	35290.7625
735.52295	35207.2625
739.43388	35303.9625
743.34206	35430.8625
747.24749	35664.4625
751.15017	35977.3625
755.05012	36451.0625
758.94733	37371.8625
762.8418	38968.6625
766.73354	41522.2625
770.62254	44008.1625
774.50882	44766.0625
778.39237	43311.3625
782.27321	40705.7625
786.15132	38358.8625
790.02671	36906.5625
793.89938	36288.2625
797.76935	36015.0625
801.6366	35970.6625
805.50115	35850.6625
809.36299	35660.3625
813.22213	35419.2625
817.07857	35264.0625
820.93231	35122.0625
824.78336	35090.0625
828.63172	35176.2625
832.47738	35303.2625
836.32036	35576.3625
840.16066	35926.7625
843.99827	36127.2625
847.8332	36008.9625
851.66546	35620.8625
855.49504	35541.3625
859.32195	35475.3625
863.1462	35297.4625
866.96777	35082.4625
870.78668	34908.0625
874.60293	34978.3625
878.41652	35008.9625
882.22745	35208.6625
886.03573	35420.8625
889.84136	35388.5625
893.64433	35225.6625
897.44466	34918.8625
901.24235	34825.5625
905.0374	34706.1625
908.8298	34705.4625
912.61957	34838.9625
916.40671	35128.9625
920.19121	35614.6625
923.97308	36288.9625
927.75233	36720.7625
931.52895	36806.8625
935.30295	36413.7625
939.07433	35760.6625
942.84309	35235.8625
946.60924	35019.1625
950.37278	34918.7625
954.13371	34710.6625
957.89203	34417.5625
961.64774	34318.5625
965.40086	34261.4625
969.15137	34248.6625
972.89929	34216.5625
976.64461	34294.3625
980.38733	34483.0625
984.12747	34826.6625
987.86502	35247.4625
991.59999	35859.6625
995.33237	36824.1625
999.06217	38221.9625
1002.78939	39810.4625
1006.51404	40725.9625
1010.23611	41011.8625
1013.95561	41172.5625
1017.67255	41052.9625
1021.38692	40450.7625
1025.09872	40147.8625
1028.80796	41082.5625
1032.51465	43308.2625
1036.21877	45526.3625
1039.92035	46000.5625
1043.61937	44963.7625
1047.31584	43185.3625
1051.00976	41119.5625
1054.70114	39820.4625
1058.38998	39168.8625
1062.07627	38875.9625
1065.76003	38686.9625
1069.44126	38827.2625
1073.11995	39291.8625
1076.79611	39862.4625
1080.46974	40337.4625
1084.14085	40774.5625
1087.80943	41108.2625
1091.47549	41252.2625
1095.13903	40933.1625
1098.80005	40259.7625
1102.45857	39500.2625
1106.11456	39111.5625
1109.76805	39005.7625
1113.41903	39016.6625
1117.06751	39113.5625
1120.71348	39368.2625
1124.35696	39712.7625
1127.99793	40091.2625
1131.63641	40379.0625
1135.2724	40110.9625
1138.90589	39779.8625
1142.5369	39660.2625
1146.16542	39666.1625
1149.79145	39902.7625
1153.415	40063.5625
1157.03607	40444.5625
1160.65467	41305.5625
1164.27079	42838.9625
1167.88443	44963.7625
1171.49561	47528.1625
1175.10432	50953.7625
1178.71056	55517.1625
1182.31434	59854.4625
1185.91565	62068.9625
1189.51451	61685.7625
1193.11091	59324.6625
1196.70485	56625.3625
1200.29634	54287.0625
1203.88538	52708.5625
1207.47197	51549.5625
1211.05612	50440.5625
1214.63782	49561.6625
1218.21708	49107.7625
1221.79391	49046.3625
1225.36829	48957.2625
1228.94024	48318.9625
1232.50976	47023.4625
1236.07685	45742.7625
1239.6415	45186.1625
1243.20374	45088.1625
1246.76355	45650.3625
1250.32093	46548.3625
1253.8759	47731.7625
1257.42845	49172.3625
1260.97859	50710.7625
1264.52631	52209.5625
1268.07163	53977.0625
1271.61453	55871.8625
1275.15503	57855.1625
1278.69312	59739.0625
1282.22882	61276.1625
1285.76211	62670.1625
1289.29301	64216.7625
1292.82151	66344.1625
1296.34761	69313.6625
1299.87133	73490.0625
1303.39266	78813.2625
1306.9116	84447.5625
1310.42815	88947.8625
1313.94233	90618.9625
1317.45412	89113.4625
1320.96354	85467.1625
1324.47058	81533.7625
1327.97525	78055.7625
1331.47754	75701.0625
1334.97747	74146.3625
1338.47502	72836.5625
1341.97022	71198.0625
1345.46305	69604.8625
1348.95352	69149.7625
1352.44163	70604.8625
1355.92738	74572.6625
1359.41078	80428.3625
1362.89183	85100.6625
1366.37053	84428.9625
1369.84688	77629.0625
1373.32088	68559.2625
1376.79254	62113.9625
1380.26186	59637.6625
1383.72883	59178.5625
1387.19347	58811.2625
1390.65578	57758.8625
1394.11575	57227.9625
1397.57339	57453.8625
1401.0287	58246.3625
1404.48168	58997.7625
1407.93234	59041.6625
1411.38068	58396.6625
1414.82669	57246.9625
1418.27039	55696.3625
1421.71177	53908.0625
1425.15083	52371.9625
1428.58758	51717.8625
1432.02203	52219.2625
1435.45416	53637.0625
1438.88399	55049.0625
1442.31151	55970.3625
1445.73673	56360.1625
1449.15965	56573.5625
1452.58027	56284.3625
1455.9986	55715.5625
1459.41463	55468.4625
1462.82837	56084.5625
1466.23982	57367.8625
1469.64898	58658.2625
1473.05586	59644.9625
1476.46045	60194.5625
1479.86276	60422.3625
1483.26279	60150.3625
1486.66054	59911.5625
1490.05602	60285.8625
1493.44922	60802.1625
1496.84016	61089.2625
1500.22882	61408.7625
1503.61521	62258.4625
1506.99934	63637.2625
1510.38121	65098.5625
1513.76081	65715.5625
1517.13816	64611.8625
1520.51324	62293.7625
1523.88607	60174.5625
1527.25665	59129.0625
1530.62498	58862.6625
1533.99105	58612.4625
1537.35488	58130.4625
1540.71647	57305.9625
1544.07581	56251.1625
1547.4329	55214.3625
1550.78776	54149.6625
1554.14038	53434.8625
1557.49077	52939.7625
1560.83892	52414.4625
1564.18484	52203.0625
1567.52853	52287.8625
1570.86999	52654.5625
1574.20922	53316.7625
1577.54624	53978.2625
1580.88103	54202.2625
1584.2136	54843.8625
1587.54395	56909.3625
1590.87208	60779.2625
1594.19801	65407.7625
1597.52172	69728.1625
1600.84321	71106.7625
1604.16251	67898.5625
1607.47959	61707.6625
1610.79447	55229.6625
1614.10715	49923.6625
1617.41763	46351.6625
1620.7259	44311.7625
1624.03199	43604.1625
1627.33587	44126.6625
1630.63757	45600.3625
1633.93707	48225.0625
1637.23439	52238.9625
1640.52951	57942.8625
1643.82246	64993.7625
1647.11321	70530.5625
1650.40179	71061.4625
1653.68819	65518.6625
1656.97241	56753.7625
1660.25446	48885.5625
1663.53433	43440.9625
1666.81203	40207.0625
1670.08756	38225.0625
1673.36092	37030.0625
1676.63211	36245.4625
1679.90115	35703.1625
1683.16801	35229.2625
1686.43272	34993.1625
1689.69527	34778.6625
1692.95567	34612.4625
1696.2139	34479.5625
1699.46999	34392.9625
1702.72392	34347.2625
1705.97571	34278.0625
1709.22535	34224.9625
1712.47284	34265.7625
1715.71819	34267.0625
1718.96139	34170.1625
1722.20246	34084.5625
1725.44139	34028.3625
1728.67818	33889.7625
1731.91284	33735.2625
1735.14537	33581.2625
1738.37576	33491.0625
1741.60403	33320.9625
1744.83017	33316.1625
1748.05418	33247.7625
1751.27607	33177.0625
1754.49584	33171.0625
1757.71349	33135.9625
1760.92903	33108.1625
1764.14244	33163.1625
1767.35375	33157.7625
1770.56294	33098.6625
1773.77002	33076.4625
1776.97499	32999.7625
1780.17785	32958.5625
1783.37861	32980.2625
1786.57727	32962.8625
1789.77382	32902.1625
1792.96828	32907.4625
1796.16064	32801.4625
1799.3509	32787.6625
1802.53907	32690.4625
1805.72514	32632.1625
1808.90913	32587.2625
1812.09102	32588.7625
1815.27083	32522.1625
1818.44856	32508.7625
1821.6242	32470.6625
1824.79776	32448.3625
1827.96924	32452.2625
1831.13864	32444.3625
1834.30597	32430.2625
1837.47122	32361.4625
1840.6344	32368.6625
1843.7955	32353.3625
1846.95454	32343.9625
1850.11151	32329.5625
1853.26642	32377.1625
1856.41926	32320.7625
1859.57004	32327.5625
1862.71876	32351.4625
1865.86542	32293.9625
1869.01003	32305.2625
1872.15258	32295.7625
1875.29308	32312.2625
1878.43152	32307.5625
1881.56792	32306.6625
1884.70227	32300.8625
1887.83457	32298.1625
1890.96482	32280.4625
1894.09304	32242.1625
1897.21921	32257.5625
1900.34335	32227.5625
1903.46544	32239.1625
1906.58551	32211.3625
1909.70353	32173.1625
1912.81953	32143.4625
1915.93349	32086.2625
1919.04543	32075.1625
1922.15534	32044.7625
1925.26322	31968.8625
1928.36908	31879.8625
1931.47292	31809.6625
1934.57473	31745.5625
1937.67453	31653.9625
1940.77232	31620.2625
1943.86808	31539.1625
1946.96184	31528.6625
1950.05358	31409.3625
1953.14331	31322.1625
1956.23103	31254.0625
1959.31675	31191.0625
1962.40046	31177.2625
1965.48217	31063.5625
1968.56188	30969.5625
1971.63959	30939.5625
1974.7153	30885.1625
1977.78901	30799.3625
1980.86073	30741.5625
1983.93046	30582.7625
1986.99819	30499.1625
1990.06394	30417.7625
1993.1277	30362.9625
1996.18947	30269.3625
1999.24925	30221.2625
2002.30706	30138.0625
2005.36288	30116.7625
2008.41672	30033.8625
2011.46859	29978.5625
2014.51848	29918.4625
2017.56639	29858.4625
2020.61233	29831.9625
2023.6563	29803.9625
2026.6983	29758.6625
2029.73833	29655.0625
2032.7764	29675.1625
2035.8125	29688.3625
2038.84664	29613.8625
2041.87881	29642.7625
2044.90903	29604.6625
2047.93729	29572.8625
2050.96359	29564.6625
2053.98794	29511.1625
2057.01034	29488.7625
2060.03078	29505.3625
2063.04927	29443.2625
2066.06582	29447.1625
2069.08042	29382.4625
2072.09307	29397.2625
2075.10378	29355.7625
2078.11255	29388.9625
2081.11938	29416.8625
2084.12426	29333.6625
2087.12722	29357.4625
2090.12824	29350.6625
2093.12732	29352.9625
2096.12447	29352.8625
2099.11969	29357.6625
2102.11299	29394.6625
2105.10435	29485.2625
2108.09379	29462.6625
2111.08131	29525.9625
2114.0669	29518.6625
2117.05057	29517.1625
2120.03233	29620.8625
2123.01216	29640.0625
2125.99008	29692.5625
2128.96609	29658.6625
2131.94018	29717.9625
2134.91236	29744.0625
2137.88263	29752.9625
2140.851	29739.0625
2143.81746	29811.9625
2146.78201	29861.4625
2149.74466	29845.9625
2152.7054	29856.6625
2155.66425	29887.4625
2158.6212	29881.7625
2161.57625	29932.6625
2164.52941	29974.3625
2167.48067	29887.7625
2170.43004	29910.6625
2173.37752	29900.8625
2176.32311	29935.4625
2179.26681	29980.6625
2182.20863	29999.2625
2185.14856	30069.2625
2188.08661	30054.1625
2191.02278	30083.4625
2193.95707	30083.2625
2196.88948	30112.9625
2199.82001	30107.9625
2202.74867	30136.8625
2205.67545	30120.3625
2208.60037	30082.4625
2211.52341	30118.3625
2214.44458	30105.6625
2217.36388	30038.4625
2220.28132	30052.4625
2223.1969	29974.6625
2226.11061	29965.8625
2229.02246	29903.9625
2231.93245	29913.7625
2234.84058	29872.9625
2237.74686	29837.0625
2240.65128	29830.9625
2243.55385	29769.3625
2246.45456	29718.7625
2249.35343	29682.5625
2252.25044	29624.3625
2255.14561	29591.0625
2258.03893	29555.4625
2260.93041	29474.0625
2263.82004	29454.3625
2266.70783	29388.8625
2269.59378	29329.4625
2272.4779	29294.1625
2275.36017	29251.2625
2278.24061	29207.1625
2281.11922	29165.4625
2283.996	29147.7625
2286.87094	29160.4625
2289.74405	29128.2625
2292.61534	29112.7625
2295.4848	29085.0625
2298.35243	29121.8625
2301.21824	29108.3625
2304.08223	29169.1625
2306.94439	29254.9625
2309.80474	29319.9625
2312.66327	29315.1625
2315.51999	29286.4625
2318.37489	29324.1625
2321.22797	29299.7625
2324.07925	29258.8625
2326.92871	29235.8625
2329.77637	29270.8625
2332.62222	29270.0625
2335.46626	29240.5625
2338.3085	29254.2625
2341.14893	29244.3625
2343.98756	29263.3625
2346.8244	29244.8625
2349.65943	29274.3625
2352.49267	29236.4625
2355.32411	29293.3625
2358.15376	29273.2625
2360.98161	29247.2625
2363.80768	29184.8625
2366.63195	29064.9625
2369.45444	29026.2625
2372.27514	28996.9625
2375.09405	28920.8625
2377.91118	28870.4625
2380.72652	28820.4625
2383.54009	28781.0625
2386.35187	28829.3625
2389.16188	28737.1625
2391.97011	28809.6625
2394.77657	28749.4625
2397.58125	28722.1625
2400.38416	28663.9625
2403.18529	28613.1625
2405.98466	28568.6625
2408.78226	28566.9625
2411.57809	28513.6625
2414.37216	28540.9625
2417.16446	28512.7625
2419.955	28426.3625
2422.74378	28402.9625
2425.5308	28367.3625
2428.31606	28401.2625
2431.09956	28423.6625
2433.88131	28363.0625
2436.6613	28414.1625
2439.43954	28440.2625
2442.21603	28410.4625
2444.99077	28368.5625
2447.76377	28379.8625
2450.53501	28350.7625
2453.30451	28396.5625
2456.07226	28381.6625
2458.83827	28375.9625
2461.60254	28377.0625
2464.36507	28356.1625
2467.12586	28391.0625
2469.88492	28373.3625
2472.64224	28415.2625
2475.39782	28451.8625
2478.15167	28466.9625
2480.90379	28439.1625
2483.65417	28478.4625
2486.40283	28483.4625
2489.14976	28506.4625
2491.89497	28505.8625
2494.63845	28520.7625
2497.3802	28500.8625
2500.12024	28542.6625
2502.85855	28557.3625
2505.59514	28563.6625
2508.33002	28503.3625
2511.06318	28473.5625
2513.79462	28492.6625
2516.52435	28486.1625
2519.25237	28437.6625
2521.97867	28384.9625
2524.70327	28390.0625
2527.42616	28418.5625
2530.14734	28410.4625
2532.86681	28363.0625
2535.58458	28380.0625
2538.30065	28306.2625
2541.01501	28285.6625
2543.72768	28315.1625
2546.43864	28321.0625
2549.14791	28268.1625
2551.85548	28288.5625
2554.56136	28265.1625
2557.26554	28302.7625
2559.96803	28299.4625
2562.66883	28278.4625
2565.36794	28223.9625
2568.06536	28241.3625
2570.7611	28232.0625
2573.45514	28218.2625
2576.14751	28214.9625
2578.83819	28201.8625
2581.52719	28225.7625
2584.21451	28209.0625
2586.90015	28193.9625
2589.58411	28188.5625
2592.2664	28171.1625
2594.94701	28117.4625
2597.62594	28106.1625
2600.30321	28066.6625
2602.9788	28085.8625
2605.65273	28061.2625
2608.32498	28048.7625
2610.99557	28061.4625
2613.66449	28076.3625
2616.33175	28076.2625
2618.99734	28082.8625
2621.66128	28055.5625
2624.32355	28085.0625
2626.98416	28047.9625
2629.64311	28027.7625
2632.30041	28046.1625
2634.95605	28032.6625
2637.61004	27987.4625
2640.26238	27970.4625
2642.91306	27928.7625
2645.56209	27921.9625
2648.20948	27897.3625
2650.85521	27900.3625
2653.4993	27860.6625
2656.14175	27836.8625
2658.78255	27867.9625
2661.42171	27832.4625
2664.05923	27934.4625
2666.6951	27895.4625
2669.32934	27960.4625
2671.96194	27977.7625
2674.59291	27990.9625
2677.22224	27963.5625
2679.84993	27950.6625
2682.476	27894.6625
2685.10043	27934.3625
2687.72324	27888.3625
2690.34441	27930.2625
2692.96396	27943.9625
2695.58188	27921.4625
2698.19818	27908.6625
2700.81285	27913.4625
2703.4259	27890.7625
2706.03733	27999.8625
2708.64714	27971.8625
2711.25533	28003.0625
2713.86191	28020.4625
2716.46687	28079.9625
2719.07021	28096.1625
2721.67194	28155.4625
2724.27206	28086.6625
2726.87057	28095.1625
2729.46747	28150.4625
2732.06276	28177.7625
2734.65644	28154.4625
2737.24852	28133.9625
2739.83899	28152.9625
2742.42786	28211.1625
2745.01513	28124.5625
2747.60079	28103.4625
2750.18486	28089.8625
2752.76733	28135.4625
2755.3482	28079.7625
2757.92747	28079.2625
2760.50515	28058.8625
2763.08123	28093.1625
2765.65573	28089.2625
2768.22863	28076.2625
2770.79994	28092.0625
2773.36967	28067.2625
2775.9378	28091.3625
2778.50435	28070.7625
2781.06932	28032.6625
2783.6327	28027.8625
2786.1945	27984.0625
2788.75471	27900.5625
2791.31335	27923.4625
2793.87041	27906.7625
2796.42589	27867.7625
2798.97979	27886.6625
2801.53212	27834.3625
2804.08288	27827.6625
2806.63206	27741.0625
2809.17967	27696.7625
2811.72571	27621.8625
2814.27018	27598.3625
2816.81308	27558.6625
2819.35442	27577.7625
2821.89419	27490.3625
2824.43239	27522.4625
2826.96904	27520.5625
2829.50412	27486.9625
2832.03763	27482.1625
2834.56959	27543.5625
2837.1	27514.4625
2839.62884	27533.2625
2842.15613	27517.6625
2844.68186	27564.3625
2847.20604	27591.8625
2849.72867	27643.5625
2852.24974	27637.7625
2854.76927	27669.5625
2857.28724	27654.6625
2859.80367	27587.7625
2862.31855	27568.5625
2864.83189	27584.6625
2867.34368	27513.1625
2869.85393	27541.8625
2872.36264	27571.5625
2874.8698	27603.0625
2877.37543	27613.7625
2879.87952	27654.5625
2882.38207	27666.8625
2884.88308	27646.1625
2887.38256	27697.1625
2889.88051	27685.5625
2892.37692	27745.5625
2894.8718	27799.9625
2897.36515	27839.6625
2899.85698	27805.6625
2902.34727	27888.3625
2904.83604	27881.7625
2907.32328	27976.1625
2909.809	27890.2625
2912.29319	27931.2625
2914.77587	27882.6625
2917.25702	27924.5625
2919.73665	27886.8625
2922.21476	27911.6625
2924.69136	27853.5625
2927.16644	27908.2625
2929.64	27828.7625
2932.11205	27750.9625
2934.58258	27687.3625
2937.05161	27699.9625
2939.51912	27706.6625
2941.98513	27683.0625
2944.44962	27620.8625
2946.91261	27499.6625
2949.37409	27589.4625
2951.83407	27606.6625
2954.29254	27585.0625
2956.74951	27476.7625
2959.20498	27457.4625
2961.65895	27466.0625
2964.11142	27493.9625
2966.56239	27420.5625
2969.01186	27397.2625
2971.45984	27321.5625
2973.90632	27300.4625
2976.35131	27238.5625
2978.7948	27225.3625
2981.23681	27123.9625
2983.67732	27061.8625
2986.11635	26985.4625
2988.55388	26949.7625
2990.98993	26906.1625
2993.4245	26842.9625
2995.85758	26831.3625
2998.28917	26802.8625
3000.71928	26762.5625
3003.14791	26749.3625
3005.57506	26675.1625
3008.00073	26646.2625
3010.42493	26620.2625
3012.84764	26614.1625
3015.26888	26619.5625
3017.68865	26523.8625
3020.10694	26558.1625
3022.52376	26509.5625
3024.9391	26500.4625
3027.35298	26485.2625
3029.76539	26473.5625
3032.17632	26422.3625
3034.5858	26387.9625
3036.9938	26330.8625
3039.40034	26342.4625
3041.80542	26351.8625
3044.20903	26327.8625
3046.61118	26298.9625
3049.01187	26201.5625
3051.4111	26233.9625
3053.80888	26175.3625
3056.20519	26154.0625
3058.60005	26082.5625
3060.99345	26007.4625
3063.3854	25995.0625
3065.7759	25945.7625
3068.16494	25865.9625
3070.55254	25846.8625
3072.93868	25855.0625
3075.32338	25821.1625
3077.70662	25772.8625
3080.08842	25742.6625
3082.46878	25721.0625
3084.84769	25657.5625
3087.22515	25680.9625
3089.60118	25661.7625
3091.97576	25622.7625
3094.3489	25666.6625
3096.72061	25633.5625
3099.09087	25680.8625
3101.4597	25603.7625
3103.82709	25613.7625
3106.19305	25567.7625
3108.55757	25532.9625
3110.92066	25452.7625
3113.28232	25458.6625
3115.64255	25406.4625
3118.00134	25358.4625
3120.35871	25329.1625
3122.71466	25313.2625
3125.06917	25255.7625
3127.42226	25191.8625
3129.77393	25267.4625
3132.12417	25212.6625
3134.47299	25234.6625
3136.82039	25233.8625
3139.16636	25285.2625
3141.51092	25248.7625
3143.85406	25280.8625
3146.19579	25284.6625
3148.53609	25252.2625
3150.87499	25300.8625
3153.21246	25285.4625
3155.54853	25343.8625
3157.88318	25245.5625
3160.21642	25302.6625
3162.54826	25308.4625
3164.87868	25306.5625
3167.2077	25237.3625
3169.5353	25198.6625
3171.86151	25229.3625
3174.18631	25255.4625
3176.5097	25203.7625
3178.83169	25148.1625
3181.15228	25213.5625
3183.47147	25130.6625
3185.78926	25118.7625
3188.10565	25091.3625
3190.42065	25131.7625
3192.73424	25131.3625
3195.04645	25138.2625
3197.35725	25139.1625
3199.66667	25111.0625
3201.97469	25142.0625
3204.28132	25083.2625
3206.58656	25118.3625
3208.8904	25125.2625
3211.19287	25201.6625
3213.49394	25178.5625
3215.79363	25194.8625
3218.09193	25211.5625
3220.38884	25135.7625
3222.68438	25179.4625
3224.97853	25155.9625
3227.2713	25092.6625
3229.56269	25070.7625
3231.8527	25045.4625
3234.14133	25018.1625
3236.42858	25028.6625
3238.71446	25006.4625
3240.99896	24978.9625
3243.28209	24991.0625
3245.56384	24985.9625
3247.84423	24923.0625
3250.12324	24929.0625
3252.40088	24868.8625
3254.67715	24848.5625
3256.95205	24794.8625
3259.22558	24800.3625
3261.49775	24746.3625
3263.76855	24803.7625
3266.03799	24757.5625
3268.30606	24733.1625
3270.57277	24677.1625
3272.83812	24643.1625
3275.10211	24644.8625
3277.36474	24599.2625
3279.62601	24629.7625
3281.88593	24629.6625
3284.14448	24637.6625
3286.40168	24659.2625
3288.65753	24595.1625
3290.91202	24548.0625
3293.16516	24485.5625
3295.41695	24441.5625
3297.66738	24298.3625
3299.91647	24235.8625
3302.16421	24117.6625
3304.4106	23978.5625
3306.65564	23886.8625
3308.89933	23714.0625
3311.14169	23600.1625
3313.38269	23422.0625
3315.62236	23315.0625
3317.86068	23134.5625
3320.09766	22939.5625
3322.3333	22786.5625
3324.5676	22792.3625
3326.80056	22437.6625
3329.03219	22306.3625
3331.26248	4.2625
3333.49143	0.2625
3335.71905	-0.9375
