Data from AgNPs_FTO_APTES_UA_2uM_CRN_2uM_R6G_10uM_NaF_0.1M_Addition_RamanShift__5__12-04-35-051.txt Node

Date: Wed Feb 02 12:04:35 GMT 2022
User: TCL
Spectrometer: QEP01345
Trigger mode: 4
Integration Time (sec): 7.000000E0
Scans to average: 10
Electric dark correction enabled: true
Nonlinearity correction enabled: false
Boxcar width: 0
XAxis mode: Raman Shifts
Number of Pixels in Spectrum: 1044
>>>>>Begin Spectral Data<<<<<
46.04893	-0.3375
50.45542	-0.4375
54.85868	-1.5375
59.25871	-1.0375
63.6555	110.5625
68.04907	109.9625
72.43941	115.7625
76.82654	123.2625
81.21044	129.6625
85.59113	130.0625
89.96862	134.7625
94.34289	139.7625
98.71396	144.9625
103.08183	151.4625
107.4465	156.0625
111.80798	158.8625
116.16626	162.8625
120.52136	169.8625
124.87327	177.1625
129.222	188.1625
133.56755	198.5625
137.90993	214.2625
142.24913	240.2625
146.58517	269.5625
150.91804	310.6625
155.24774	381.1625
159.57429	472.0625
163.89768	610.1625
168.21792	812.4625
172.53501	1112.1625
176.84895	1540.0625
181.15975	2169.8625
185.46741	3053.1625
189.77193	4192.5625
194.07331	5578.4625
198.37157	7207.9625
202.6667	8853.3625
206.9587	10530.9625
211.24758	12204.9625
215.53334	13835.4625
219.81599	15698.9625
224.09553	17689.4625
228.37195	19880.9625
232.64527	22257.1625
236.91549	24745.0625
241.18261	27116.6625
245.44663	29332.7625
249.70755	31265.4625
253.96539	32930.3625
258.22014	34369.5625
262.4718	35552.8625
266.72039	36380.8625
270.96589	36752.8625
275.20832	36716.8625
279.44768	36393.9625
283.68397	36003.3625
287.91719	35700.3625
292.14735	35519.2625
296.37445	35545.7625
300.59849	35621.4625
304.81948	35900.3625
309.03742	36013.5625
313.25231	35836.4625
317.46415	35434.6625
321.67296	34679.0625
325.87872	34117.4625
330.08145	33794.8625
334.28114	33651.4625
338.47781	33776.6625
342.67145	34123.5625
346.86207	34685.5625
351.04966	35320.1625
355.23424	36048.5625
359.4158	36683.1625
363.59435	37212.5625
367.76989	37430.9625
371.94243	37731.6625
376.11196	37866.2625
380.27849	37952.3625
384.44203	38203.6625
388.60257	38579.0625
392.76012	38999.2625
396.91468	39499.3625
401.06626	40129.5625
405.21485	40626.0625
409.36047	40572.8625
413.50311	40342.9625
417.64277	40393.1625
421.77947	40704.5625
425.9132	41021.3625
430.04396	41198.9625
434.17176	41372.3625
438.2966	41574.4625
442.41849	42228.6625
446.53742	43667.2625
450.6534	45201.1625
454.76644	46273.9625
458.87653	46406.2625
462.98368	45875.9625
467.08789	44919.2625
471.18916	43774.9625
475.2875	42736.4625
479.38291	42131.4625
483.4754	41853.5625
487.56496	41399.3625
491.6516	40928.2625
495.73531	40427.3625
499.81612	40209.5625
503.89401	40459.7625
507.96899	40582.5625
512.04106	40340.6625
516.11023	39866.6625
520.1765	39387.4625
524.23987	39052.5625
528.30034	38821.4625
532.35792	38436.7625
536.41261	37870.0625
540.46441	37208.5625
544.51333	37051.3625
548.55936	37419.0625
552.60252	38263.1625
556.64279	39437.8625
560.6802	40400.4625
564.71473	40891.7625
568.7464	41525.5625
572.7752	42769.7625
576.80114	44270.3625
580.82422	46121.7625
584.84444	48758.4625
588.86181	51945.6625
592.87633	54321.3625
596.888	53740.1625
600.89682	50476.3625
604.9028	49111.3625
608.90594	51894.7625
612.90624	55056.5625
616.90371	51548.1625
620.89834	43585.8625
624.89015	39912.5625
628.87913	39353.7625
632.86528	39173.7625
636.84862	38568.8625
640.82913	37582.1625
644.80683	36614.6625
648.78172	36125.0625
652.75379	36185.5625
656.72306	36721.9625
660.68952	37231.8625
664.65319	36930.7625
668.61405	36247.6625
672.57211	36168.5625
676.52738	36435.6625
680.47986	36414.7625
684.42955	36005.9625
688.37646	35893.4625
692.32058	36256.0625
696.26192	37046.1625
700.20048	37812.7625
704.13626	38205.3625
708.06928	37987.6625
711.99952	37650.8625
715.927	37778.3625
719.85171	38187.9625
723.77365	38063.1625
727.69284	37238.9625
731.60928	36482.8625
735.52295	36271.3625
739.43388	36315.2625
743.34206	36512.2625
747.24749	36792.5625
751.15017	37272.3625
755.05012	37979.0625
758.94733	39146.2625
762.8418	41030.2625
766.73354	43662.5625
770.62254	45986.1625
774.50882	46070.7625
778.39237	43957.9625
782.27321	41095.4625
786.15132	38865.6625
790.02671	37462.3625
793.89938	36916.3625
797.76935	36740.7625
801.6366	36756.1625
805.50115	36794.4625
809.36299	36547.8625
813.22213	36132.2625
817.07857	35823.1625
820.93231	35598.0625
824.78336	35389.0625
828.63172	35230.1625
832.47738	35229.8625
836.32036	35469.7625
840.16066	35768.5625
843.99827	36009.0625
847.8332	35859.5625
851.66546	35530.5625
855.49504	35458.8625
859.32195	35379.2625
863.1462	35219.8625
866.96777	34978.9625
870.78668	34857.3625
874.60293	34860.1625
878.41652	34930.4625
882.22745	35104.8625
886.03573	35349.2625
889.84136	35340.3625
893.64433	35144.4625
897.44466	34871.9625
901.24235	34720.6625
905.0374	34657.9625
908.8298	34619.6625
912.61957	34749.9625
916.40671	35113.4625
920.19121	35813.0625
923.97308	36568.5625
927.75233	36918.6625
931.52895	36636.1625
935.30295	35991.8625
939.07433	35195.7625
942.84309	34619.4625
946.60924	34417.5625
950.37278	34368.8625
954.13371	34314.5625
957.89203	34121.1625
961.64774	34072.1625
965.40086	34083.0625
969.15137	33988.8625
972.89929	33813.9625
976.64461	33721.4625
980.38733	33826.4625
984.12747	34049.8625
987.86502	34331.6625
991.59999	34947.0625
995.33237	35766.3625
999.06217	37225.3625
1002.78939	38889.8625
1006.51404	40082.5625
1010.23611	40776.5625
1013.95561	41126.3625
1017.67255	40949.4625
1021.38692	40240.4625
1025.09872	39712.6625
1028.80796	40185.1625
1032.51465	42030.6625
1036.21877	44038.4625
1039.92035	44620.9625
1043.61937	43828.8625
1047.31584	42285.7625
1051.00976	40376.3625
1054.70114	39222.0625
1058.38998	38690.2625
1062.07627	38572.3625
1065.76003	38610.6625
1069.44126	38923.1625
1073.11995	39600.5625
1076.79611	40286.4625
1080.46974	40705.6625
1084.14085	41088.6625
1087.80943	41577.2625
1091.47549	41808.7625
1095.13903	41692.0625
1098.80005	40942.2625
1102.45857	39896.5625
1106.11456	39093.0625
1109.76805	38766.9625
1113.41903	38756.7625
1117.06751	38800.5625
1120.71348	39039.7625
1124.35696	39405.5625
1127.99793	39888.5625
1131.63641	40226.2625
1135.2724	40250.0625
1138.90589	40240.1625
1142.5369	40374.8625
1146.16542	40801.5625
1149.79145	41145.6625
1153.415	41633.4625
1157.03607	42374.6625
1160.65467	44007.8625
1164.27079	46589.2625
1167.88443	49684.3625
1171.49561	52664.6625
1175.10432	56360.5625
1178.71056	61377.6625
1182.31434	66211.9625
1185.91565	68536.8625
1189.51451	67857.7625
1193.11091	65432.5625
1196.70485	62765.9625
1200.29634	60331.6625
1203.88538	58849.3625
1207.47197	58053.1625
1211.05612	57455.3625
1214.63782	56390.9625
1218.21708	54997.6625
1221.79391	53673.7625
1225.36829	52689.9625
1228.94024	51634.1625
1232.50976	50275.9625
1236.07685	48976.0625
1239.6415	48244.7625
1243.20374	48207.4625
1246.76355	48819.7625
1250.32093	49994.0625
1253.8759	51515.7625
1257.42845	53309.1625
1260.97859	55237.8625
1264.52631	57214.6625
1268.07163	59437.8625
1271.61453	61602.9625
1275.15503	64046.1625
1278.69312	66481.3625
1282.22882	68909.6625
1285.76211	71586.8625
1289.29301	74396.7625
1292.82151	77977.8625
1296.34761	82617.6625
1299.87133	88741.0625
1303.39266	95438.1625
1306.9116	101420.7625
1310.42815	105512.6625
1313.94233	106466.4625
1317.45412	104558.6625
1320.96354	101095.6625
1324.47058	98127.7625
1327.97525	95848.2625
1331.47754	94610.3625
1334.97747	93322.1625
1338.47502	91494.2625
1341.97022	88555.6625
1345.46305	85290.4625
1348.95352	83283.9625
1352.44163	83636.1625
1355.92738	87535.8625
1359.41078	93580.9625
1362.89183	98133.9625
1366.37053	97353.4625
1369.84688	90063.8625
1373.32088	79177.2625
1376.79254	71193.0625
1380.26186	68524.3625
1383.72883	68745.0625
1387.19347	68956.2625
1390.65578	67985.9625
1394.11575	67604.8625
1397.57339	68618.6625
1401.0287	70306.7625
1404.48168	71991.6625
1407.93234	72224.0625
1411.38068	71024.9625
1414.82669	68655.3625
1418.27039	65729.7625
1421.71177	62556.3625
1425.15083	59926.9625
1428.58758	58895.9625
1432.02203	59725.4625
1435.45416	62130.9625
1438.88399	64621.9625
1442.31151	66357.1625
1445.73673	67040.7625
1449.15965	67320.9625
1452.58027	66854.7625
1455.9986	65966.2625
1459.41463	65772.8625
1462.82837	66755.5625
1466.23982	68467.9625
1469.64898	70069.1625
1473.05586	71305.9625
1476.46045	71770.5625
1479.86276	71420.1625
1483.26279	70468.2625
1486.66054	69817.6625
1490.05602	69900.5625
1493.44922	70191.2625
1496.84016	70037.5625
1500.22882	69871.2625
1503.61521	70148.6625
1506.99934	70749.5625
1510.38121	71525.9625
1513.76081	71600.2625
1517.13816	70622.7625
1520.51324	69106.6625
1523.88607	68274.9625
1527.25665	68574.4625
1530.62498	69267.7625
1533.99105	69486.4625
1537.35488	68884.8625
1540.71647	67505.8625
1544.07581	65632.4625
1547.4329	63637.1625
1550.78776	61810.7625
1554.14038	60377.2625
1557.49077	59395.3625
1560.83892	58495.3625
1564.18484	57913.2625
1567.52853	57705.1625
1570.86999	58183.8625
1574.20922	59273.6625
1577.54624	60502.6625
1580.88103	61641.6625
1584.2136	63569.7625
1587.54395	67384.8625
1590.87208	73132.2625
1594.19801	79654.9625
1597.52172	85090.7625
1600.84321	85978.2625
1604.16251	80626.4625
1607.47959	71624.6625
1610.79447	62682.2625
1614.10715	55518.1625
1617.41763	50563.9625
1620.7259	47655.9625
1624.03199	46525.0625
1627.33587	47147.3625
1630.63757	49319.0625
1633.93707	53307.2625
1637.23439	59654.7625
1640.52951	68882.4625
1643.82246	79665.6625
1647.11321	87585.0625
1650.40179	87356.1625
1653.68819	78337.8625
1656.97241	65364.6625
1660.25446	54152.6625
1663.53433	46524.7625
1666.81203	41828.1625
1670.08756	39059.0625
1673.36092	37340.0625
1676.63211	36137.0625
1679.90115	35392.0625
1683.16801	34792.3625
1686.43272	34321.2625
1689.69527	34013.9625
1692.95567	33792.3625
1696.2139	33592.3625
1699.46999	33448.8625
1702.72392	33363.5625
1705.97571	33236.3625
1709.22535	33180.9625
1712.47284	33133.8625
1715.71819	33099.2625
1718.96139	33006.8625
1722.20246	32910.6625
1725.44139	32769.5625
1728.67818	32573.8625
1731.91284	32414.1625
1735.14537	32235.9625
1738.37576	32080.5625
1741.60403	31946.8625
1744.83017	31843.4625
1748.05418	31771.7625
1751.27607	31710.1625
1754.49584	31638.2625
1757.71349	31664.2625
1760.92903	31631.4625
1764.14244	31604.2625
1767.35375	31579.8625
1770.56294	31539.8625
1773.77002	31462.7625
1776.97499	31462.1625
1780.17785	31380.7625
1783.37861	31355.6625
1786.57727	31303.9625
1789.77382	31257.4625
1792.96828	31200.5625
1796.16064	31139.8625
1799.3509	31068.5625
1802.53907	30965.5625
1805.72514	30923.9625
1808.90913	30908.5625
1812.09102	30863.2625
1815.27083	30832.3625
1818.44856	30793.5625
1821.6242	30782.3625
1824.79776	30761.7625
1827.96924	30779.1625
1831.13864	30757.8625
1834.30597	30783.3625
1837.47122	30779.8625
1840.6344	30730.1625
1843.7955	30757.2625
1846.95454	30780.1625
1850.11151	30702.4625
1853.26642	30733.6625
1856.41926	30708.8625
1859.57004	30704.9625
1862.71876	30662.3625
1865.86542	30698.0625
1869.01003	30674.2625
1872.15258	30639.3625
1875.29308	30622.2625
1878.43152	30646.6625
1881.56792	30602.8625
1884.70227	30623.2625
1887.83457	30618.1625
1890.96482	30626.0625
1894.09304	30527.7625
1897.21921	30506.9625
1900.34335	30504.6625
1903.46544	30442.2625
1906.58551	30408.3625
1909.70353	30379.7625
1912.81953	30318.4625
1915.93349	30295.8625
1919.04543	30200.8625
1922.15534	30090.2625
1925.26322	30093.8625
1928.36908	29983.3625
1931.47292	29924.1625
1934.57473	29837.0625
1937.67453	29744.0625
1940.77232	29678.1625
1943.86808	29622.0625
1946.96184	29560.6625
1950.05358	29464.8625
1953.14331	29424.2625
1956.23103	29365.6625
1959.31675	29278.7625
1962.40046	29193.6625
1965.48217	29142.6625
1968.56188	29035.9625
1971.63959	28970.9625
1974.7153	28903.4625
1977.78901	28843.9625
1980.86073	28752.7625
1983.93046	28641.6625
1986.99819	28557.8625
1990.06394	28470.5625
1993.1277	28401.0625
1996.18947	28284.7625
1999.24925	28296.0625
2002.30706	28204.2625
2005.36288	28131.1625
2008.41672	28106.4625
2011.46859	28015.5625
2014.51848	27937.1625
2017.56639	27922.1625
2020.61233	27863.0625
2023.6563	27840.4625
2026.6983	27804.9625
2029.73833	27791.2625
2032.7764	27724.3625
2035.8125	27717.2625
2038.84664	27693.2625
2041.87881	27670.3625
2044.90903	27617.0625
2047.93729	27619.2625
2050.96359	27552.5625
2053.98794	27534.9625
2057.01034	27525.2625
2060.03078	27527.2625
2063.04927	27497.4625
2066.06582	27498.1625
2069.08042	27453.4625
2072.09307	27382.6625
2075.10378	27382.7625
2078.11255	27414.1625
2081.11938	27379.6625
2084.12426	27302.0625
2087.12722	27312.8625
2090.12824	27364.5625
2093.12732	27286.1625
2096.12447	27359.4625
2099.11969	27339.8625
2102.11299	27393.1625
2105.10435	27380.7625
2108.09379	27399.9625
2111.08131	27437.3625
2114.0669	27397.2625
2117.05057	27444.8625
2120.03233	27501.3625
2123.01216	27515.7625
2125.99008	27535.6625
2128.96609	27523.7625
2131.94018	27576.3625
2134.91236	27590.8625
2137.88263	27599.1625
2140.851	27577.6625
2143.81746	27588.4625
2146.78201	27629.1625
2149.74466	27634.2625
2152.7054	27688.0625
2155.66425	27688.6625
2158.6212	27688.1625
2161.57625	27711.0625
2164.52941	27678.4625
2167.48067	27659.9625
2170.43004	27669.2625
2173.37752	27651.0625
2176.32311	27656.6625
2179.26681	27706.3625
2182.20863	27732.9625
2185.14856	27793.0625
2188.08661	27802.5625
2191.02278	27821.2625
2193.95707	27790.6625
2196.88948	27833.8625
2199.82001	27830.9625
2202.74867	27795.9625
2205.67545	27799.9625
2208.60037	27754.9625
2211.52341	27758.3625
2214.44458	27760.1625
2217.36388	27709.2625
2220.28132	27694.2625
2223.1969	27630.2625
2226.11061	27652.2625
2229.02246	27571.2625
2231.93245	27588.5625
2234.84058	27567.3625
2237.74686	27554.1625
2240.65128	27505.5625
2243.55385	27422.9625
2246.45456	27386.9625
2249.35343	27326.4625
2252.25044	27302.5625
2255.14561	27204.7625
2258.03893	27219.8625
2260.93041	27132.0625
2263.82004	27084.6625
2266.70783	27017.5625
2269.59378	26916.0625
2272.4779	26887.6625
2275.36017	26852.0625
2278.24061	26825.8625
2281.11922	26788.1625
2283.996	26782.6625
2286.87094	26793.9625
2289.74405	26727.2625
2292.61534	26773.8625
2295.4848	26726.8625
2298.35243	26766.2625
2301.21824	26778.7625
2304.08223	26816.4625
2306.94439	26864.6625
2309.80474	26913.7625
2312.66327	26933.0625
2315.51999	26876.9625
2318.37489	26915.7625
2321.22797	26939.8625
2324.07925	26880.9625
2326.92871	26879.9625
2329.77637	26906.7625
2332.62222	26880.8625
2335.46626	26867.7625
2338.3085	26855.2625
2341.14893	26868.5625
2343.98756	26879.0625
2346.8244	26916.7625
2349.65943	26917.8625
2352.49267	26901.3625
2355.32411	26926.4625
2358.15376	26891.4625
2360.98161	26864.9625
2363.80768	26856.1625
2366.63195	26763.2625
2369.45444	26699.5625
2372.27514	26630.1625
2375.09405	26575.2625
2377.91118	26552.3625
2380.72652	26443.1625
2383.54009	26448.2625
2386.35187	26463.7625
2389.16188	26383.2625
2391.97011	26446.3625
2394.77657	26395.0625
2397.58125	26333.6625
2400.38416	26297.7625
2403.18529	26262.5625
2405.98466	26219.5625
2408.78226	26213.4625
2411.57809	26189.8625
2414.37216	26166.5625
2417.16446	26159.2625
2419.955	26100.7625
2422.74378	26064.7625
2425.5308	26027.5625
2428.31606	26029.4625
2431.09956	26054.4625
2433.88131	26028.2625
2436.6613	26045.1625
2439.43954	26043.9625
2442.21603	26096.7625
2444.99077	26070.4625
2447.76377	26079.0625
2450.53501	26018.8625
2453.30451	26078.8625
2456.07226	26041.2625
2458.83827	26044.4625
2461.60254	26010.0625
2464.36507	26089.2625
2467.12586	26093.8625
2469.88492	26059.7625
2472.64224	26114.7625
2475.39782	26165.2625
2478.15167	26166.0625
2480.90379	26144.7625
2483.65417	26204.4625
2486.40283	26177.5625
2489.14976	26199.5625
2491.89497	26225.2625
2494.63845	26235.7625
2497.3802	26233.1625
2500.12024	26226.1625
2502.85855	26285.1625
2505.59514	26233.9625
2508.33002	26253.3625
2511.06318	26230.9625
2513.79462	26211.8625
2516.52435	26184.6625
2519.25237	26168.5625
2521.97867	26156.8625
2524.70327	26124.7625
2527.42616	26141.8625
2530.14734	26175.4625
2532.86681	26169.2625
2535.58458	26152.6625
2538.30065	26125.2625
2541.01501	26114.7625
2543.72768	26110.6625
2546.43864	26102.0625
2549.14791	26128.5625
2551.85548	26091.8625
2554.56136	26091.9625
2557.26554	26152.0625
2559.96803	26116.5625
2562.66883	26097.4625
2565.36794	26102.3625
2568.06536	26119.9625
2570.7611	26087.8625
2573.45514	26119.0625
2576.14751	26069.5625
2578.83819	26055.1625
2581.52719	26093.7625
2584.21451	26111.7625
2586.90015	26062.7625
2589.58411	26123.1625
2592.2664	26101.5625
2594.94701	26031.1625
2597.62594	26052.0625
2600.30321	26017.6625
2602.9788	26018.9625
2605.65273	26022.5625
2608.32498	26020.2625
2610.99557	26064.7625
2613.66449	26033.2625
2616.33175	26014.6625
2618.99734	26100.6625
2621.66128	26074.7625
2624.32355	26061.4625
2626.98416	26077.5625
2629.64311	25995.3625
2632.30041	26005.7625
2634.95605	26055.5625
2637.61004	26022.5625
2640.26238	25956.9625
2642.91306	25952.7625
2645.56209	25964.8625
2648.20948	25968.5625
2650.85521	25952.8625
2653.4993	25940.7625
2656.14175	25884.2625
2658.78255	25969.9625
2661.42171	25948.6625
2664.05923	26054.4625
2666.6951	26023.0625
2669.32934	25997.5625
2671.96194	26095.0625
2674.59291	26063.6625
2677.22224	26078.4625
2679.84993	26072.8625
2682.476	26008.0625
2685.10043	26028.2625
2687.72324	25991.9625
2690.34441	25981.6625
2692.96396	26013.4625
2695.58188	25985.7625
2698.19818	26012.6625
2700.81285	26004.0625
2703.4259	25970.9625
2706.03733	26051.7625
2708.64714	26016.5625
2711.25533	26032.2625
2713.86191	26070.7625
2716.46687	26134.6625
2719.07021	26145.3625
2721.67194	26169.3625
2724.27206	26159.0625
2726.87057	26235.3625
2729.46747	26217.2625
2732.06276	26283.3625
2734.65644	26251.7625
2737.24852	26273.4625
2739.83899	26290.1625
2742.42786	26288.7625
2745.01513	26227.8625
2747.60079	26218.0625
2750.18486	26173.3625
2752.76733	26203.3625
2755.3482	26231.7625
2757.92747	26238.4625
2760.50515	26207.0625
2763.08123	26242.4625
2765.65573	26236.3625
2768.22863	26240.0625
2770.79994	26187.6625
2773.36967	26219.4625
2775.9378	26231.5625
2778.50435	26236.7625
2781.06932	26221.1625
2783.6327	26187.1625
2786.1945	26191.7625
2788.75471	26176.9625
2791.31335	26132.5625
2793.87041	26111.1625
2796.42589	26103.5625
2798.97979	26115.2625
2801.53212	26099.3625
2804.08288	26052.6625
2806.63206	25975.3625
2809.17967	25932.3625
2811.72571	25846.6625
2814.27018	25837.4625
2816.81308	25807.3625
2819.35442	25803.9625
2821.89419	25756.1625
2824.43239	25767.0625
2826.96904	25740.9625
2829.50412	25743.0625
2832.03763	25684.4625
2834.56959	25758.8625
2837.1	25681.9625
2839.62884	25687.7625
2842.15613	25730.1625
2844.68186	25768.9625
2847.20604	25786.7625
2849.72867	25799.2625
2852.24974	25778.9625
2854.76927	25796.2625
2857.28724	25794.6625
2859.80367	25759.4625
2862.31855	25701.2625
2864.83189	25700.4625
2867.34368	25694.8625
2869.85393	25687.8625
2872.36264	25651.4625
2874.8698	25727.6625
2877.37543	25766.3625
2879.87952	25750.9625
2882.38207	25788.1625
2884.88308	25795.4625
2887.38256	25771.4625
2889.88051	25790.4625
2892.37692	25881.8625
2894.8718	25910.7625
2897.36515	25941.7625
2899.85698	25972.9625
2902.34727	26021.9625
2904.83604	26029.0625
2907.32328	26071.0625
2909.809	26029.1625
2912.29319	26100.3625
2914.77587	26043.6625
2917.25702	26062.3625
2919.73665	26013.8625
2922.21476	26020.7625
2924.69136	26048.9625
2927.16644	26017.6625
2929.64	25961.0625
2932.11205	25943.4625
2934.58258	25798.8625
2937.05161	25879.1625
2939.51912	25846.1625
2941.98513	25842.2625
2944.44962	25787.6625
2946.91261	25702.6625
2949.37409	25735.0625
2951.83407	25727.1625
2954.29254	25706.7625
2956.74951	25651.4625
2959.20498	25646.4625
2961.65895	25622.5625
2964.11142	25619.8625
2966.56239	25510.2625
2969.01186	25524.7625
2971.45984	25467.9625
2973.90632	25384.3625
2976.35131	25364.5625
2978.7948	25311.2625
2981.23681	25242.6625
2983.67732	25147.8625
2986.11635	25050.0625
2988.55388	24993.6625
2990.98993	24993.7625
2993.4245	24931.1625
2995.85758	24884.0625
2998.28917	24868.7625
3000.71928	24843.8625
3003.14791	24790.8625
3005.57506	24758.0625
3008.00073	24667.8625
3010.42493	24682.1625
3012.84764	24666.1625
3015.26888	24615.8625
3017.68865	24528.6625
3020.10694	24515.2625
3022.52376	24471.8625
3024.9391	24505.4625
3027.35298	24467.6625
3029.76539	24508.4625
3032.17632	24441.5625
3034.5858	24388.9625
3036.9938	24349.2625
3039.40034	24366.0625
3041.80542	24359.8625
3044.20903	24322.4625
3046.61118	24292.1625
3049.01187	24263.1625
3051.4111	24268.9625
3053.80888	24196.6625
3056.20519	24155.1625
3058.60005	24127.1625
3060.99345	24036.8625
3063.3854	24027.5625
3065.7759	23945.7625
3068.16494	23855.6625
3070.55254	23813.5625
3072.93868	23813.4625
3075.32338	23720.3625
3077.70662	23713.7625
3080.08842	23631.5625
3082.46878	23654.2625
3084.84769	23577.7625
3087.22515	23562.6625
3089.60118	23571.9625
3091.97576	23557.0625
3094.3489	23539.5625
3096.72061	23519.4625
3099.09087	23524.4625
3101.4597	23518.5625
3103.82709	23443.5625
3106.19305	23425.6625
3108.55757	23377.5625
3110.92066	23313.0625
3113.28232	23304.3625
3115.64255	23271.4625
3118.00134	23199.3625
3120.35871	23192.1625
3122.71466	23133.4625
3125.06917	23075.9625
3127.42226	23056.7625
3129.77393	23069.4625
3132.12417	23064.1625
3134.47299	23069.6625
3136.82039	23047.3625
3139.16636	23092.8625
3141.51092	23064.2625
3143.85406	23071.2625
3146.19579	23072.4625
3148.53609	23046.3625
3150.87499	23061.1625
3153.21246	23090.9625
3155.54853	23097.4625
3157.88318	22986.5625
3160.21642	23035.2625
3162.54826	23020.0625
3164.87868	23026.1625
3167.2077	22972.9625
3169.5353	22946.9625
3171.86151	22964.7625
3174.18631	22961.2625
3176.5097	22922.5625
3178.83169	22906.0625
3181.15228	22912.5625
3183.47147	22853.0625
3185.78926	22855.7625
3188.10565	22831.9625
3190.42065	22841.8625
3192.73424	22893.2625
3195.04645	22844.1625
3197.35725	22810.5625
3199.66667	22844.3625
3201.97469	22824.7625
3204.28132	22749.3625
3206.58656	22790.2625
3208.8904	22798.1625
3211.19287	22848.5625
3213.49394	22803.1625
3215.79363	22831.3625
3218.09193	22814.0625
3220.38884	22806.0625
3222.68438	22821.5625
3224.97853	22794.8625
3227.2713	22742.4625
3229.56269	22698.1625
3231.8527	22690.8625
3234.14133	22658.5625
3236.42858	22668.8625
3238.71446	22696.4625
3240.99896	22604.8625
3243.28209	22628.2625
3245.56384	22597.5625
3247.84423	22586.9625
3250.12324	22534.5625
3252.40088	22530.4625
3254.67715	22458.5625
3256.95205	22420.4625
3259.22558	22389.9625
3261.49775	22390.3625
3263.76855	22373.6625
3266.03799	22280.8625
3268.30606	22313.0625
3270.57277	22276.6625
3272.83812	22226.1625
3275.10211	22229.1625
3277.36474	22169.5625
3279.62601	22204.9625
3281.88593	22227.8625
3284.14448	22237.9625
3286.40168	22216.6625
3288.65753	22230.5625
3290.91202	22140.6625
3293.16516	22085.7625
3295.41695	22052.8625
3297.66738	21917.7625
3299.91647	21863.3625
3302.16421	21758.8625
3304.4106	21637.7625
3306.65564	21486.5625
3308.89933	21361.1625
3311.14169	21248.2625
3313.38269	21070.2625
3315.62236	20976.8625
3317.86068	20826.6625
3320.09766	20583.3625
3322.3333	20481.3625
3324.5676	20447.2625
3326.80056	20159.8625
3329.03219	20052.7625
3331.26248	4.0625
3333.49143	0.4625
3335.71905	-1.3375
