Data from AgNPs_FTO_APTES_UA_2uM_CRN_2uM_R6G_10uM_NaF_0.1M_Addition_RamanShift__26__12-29-05-079.txt Node

Date: Wed Feb 02 12:29:05 GMT 2022
User: TCL
Spectrometer: QEP01345
Trigger mode: 4
Integration Time (sec): 7.000000E0
Scans to average: 10
Electric dark correction enabled: true
Nonlinearity correction enabled: false
Boxcar width: 0
XAxis mode: Raman Shifts
Number of Pixels in Spectrum: 1044
>>>>>Begin Spectral Data<<<<<
46.04893	1.0625
50.45542	-0.5375
54.85868	-1.7375
59.25871	-0.8375
63.6555	80.0625
68.04907	81.5625
72.43941	84.1625
76.82654	93.7625
81.21044	93.8625
85.59113	98.9625
89.96862	100.2625
94.34289	105.2625
98.71396	106.8625
103.08183	114.5625
107.4465	118.9625
111.80798	122.2625
116.16626	121.4625
120.52136	127.5625
124.87327	133.3625
129.222	145.8625
133.56755	155.2625
137.90993	166.4625
142.24913	185.2625
146.58517	215.2625
150.91804	250.2625
155.24774	305.3625
159.57429	386.5625
163.89768	500.3625
168.21792	667.7625
172.53501	927.1625
176.84895	1290.0625
181.15975	1809.3625
185.46741	2539.6625
189.77193	3514.5625
194.07331	4687.9625
198.37157	6029.8625
202.6667	7440.6625
206.9587	8848.8625
211.24758	10260.5625
215.53334	11730.6625
219.81599	13378.7625
224.09553	15230.9625
228.37195	17253.3625
232.64527	19514.6625
236.91549	21741.3625
241.18261	23722.9625
245.44663	25450.6625
249.70755	26781.8625
253.96539	27972.8625
258.22014	29054.7625
262.4718	30060.9625
266.72039	30790.4625
270.96589	31280.7625
275.20832	31392.9625
279.44768	31260.5625
283.68397	30965.0625
287.91719	30862.5625
292.14735	31008.7625
296.37445	31501.6625
300.59849	32320.6625
304.81948	33305.4625
309.03742	34078.1625
313.25231	33931.2625
317.46415	32431.3625
321.67296	30115.4625
325.87872	28118.9625
330.08145	27074.6625
334.28114	26918.1625
338.47781	27235.1625
342.67145	27899.0625
346.86207	28969.4625
351.04966	30509.9625
355.23424	32302.1625
359.4158	33660.2625
363.59435	34200.9625
367.76989	34352.3625
371.94243	34175.0625
376.11196	33878.8625
380.27849	33620.2625
384.44203	33283.3625
388.60257	33030.1625
392.76012	32923.3625
396.91468	33401.4625
401.06626	34266.1625
405.21485	34969.2625
409.36047	34387.5625
413.50311	32882.2625
417.64277	31467.6625
421.77947	30717.5625
425.9132	30505.9625
430.04396	30501.0625
434.17176	30611.8625
438.2966	30968.1625
442.41849	31691.4625
446.53742	32700.6625
450.6534	33824.0625
454.76644	34591.0625
458.87653	34698.9625
462.98368	34468.7625
467.08789	33932.5625
471.18916	33138.6625
475.2875	32346.5625
479.38291	31771.0625
483.4754	31330.8625
487.56496	30875.1625
491.6516	30441.8625
495.73531	30164.6625
499.81612	30111.1625
503.89401	30352.2625
507.96899	30593.7625
512.04106	30798.6625
516.11023	30973.3625
520.1765	31015.1625
524.23987	30808.9625
528.30034	30259.4625
532.35792	29657.6625
536.41261	28982.8625
540.46441	28330.9625
544.51333	28058.4625
548.55936	28412.1625
552.60252	29258.3625
556.64279	30260.8625
560.6802	30822.1625
564.71473	31430.0625
568.7464	32692.8625
572.7752	33829.7625
576.80114	33455.6625
580.82422	32766.3625
584.84444	32589.4625
588.86181	32580.6625
592.87633	32751.2625
596.888	33234.6625
600.89682	34094.5625
604.9028	37260.2625
608.90594	45830.8625
612.90624	56848.3625
616.90371	54388.8625
620.89834	38768.9625
624.89015	31229.4625
628.87913	29954.8625
632.86528	30097.4625
636.84862	30343.8625
640.82913	29655.5625
644.80683	28282.6625
648.78172	27229.2625
652.75379	27264.2625
656.72306	28286.9625
660.68952	29683.8625
664.65319	29576.7625
668.61405	28234.8625
672.57211	27581.1625
676.52738	27463.2625
680.47986	27445.1625
684.42955	27211.8625
688.37646	27093.4625
692.32058	27166.2625
696.26192	27532.9625
700.20048	27998.8625
704.13626	28370.3625
708.06928	28342.4625
711.99952	28048.4625
715.927	27844.1625
719.85171	27867.4625
723.77365	27736.2625
727.69284	27308.2625
731.60928	26974.8625
735.52295	26878.7625
739.43388	27033.1625
743.34206	27184.7625
747.24749	27392.7625
751.15017	27771.9625
755.05012	28436.2625
758.94733	29890.7625
762.8418	33002.4625
766.73354	38309.4625
770.62254	43869.2625
774.50882	45964.5625
778.39237	43298.9625
782.27321	37750.3625
786.15132	32474.0625
790.02671	29389.7625
793.89938	27924.5625
797.76935	27270.6625
801.6366	27016.2625
805.50115	26865.4625
809.36299	26651.8625
813.22213	26460.1625
817.07857	26351.4625
820.93231	26373.7625
824.78336	26451.6625
828.63172	26527.4625
832.47738	26634.1625
836.32036	26630.4625
840.16066	26579.6625
843.99827	26472.9625
847.8332	26389.1625
851.66546	26257.5625
855.49504	26236.5625
859.32195	26100.9625
863.1462	25930.9625
866.96777	25788.4625
870.78668	25679.8625
874.60293	25711.2625
878.41652	25827.7625
882.22745	25993.7625
886.03573	26117.1625
889.84136	26073.0625
893.64433	25884.2625
897.44466	25759.4625
901.24235	25741.4625
905.0374	25723.9625
908.8298	25609.2625
912.61957	25636.0625
916.40671	25902.9625
920.19121	26341.3625
923.97308	26765.5625
927.75233	27029.9625
931.52895	27176.5625
935.30295	26764.4625
939.07433	25919.7625
942.84309	25197.5625
946.60924	24786.6625
950.37278	24593.7625
954.13371	24402.6625
957.89203	24299.8625
961.64774	24211.2625
965.40086	24146.3625
969.15137	24062.9625
972.89929	23973.9625
976.64461	23919.3625
980.38733	23949.2625
984.12747	24100.9625
987.86502	24288.8625
991.59999	24593.5625
995.33237	25108.9625
999.06217	25879.3625
1002.78939	26970.6625
1006.51404	27858.9625
1010.23611	28602.1625
1013.95561	28966.0625
1017.67255	28867.2625
1021.38692	28338.1625
1025.09872	27908.7625
1028.80796	27854.9625
1032.51465	28372.4625
1036.21877	29011.8625
1039.92035	29203.5625
1043.61937	28920.2625
1047.31584	28302.5625
1051.00976	27676.7625
1054.70114	27218.8625
1058.38998	27149.8625
1062.07627	27272.7625
1065.76003	27540.9625
1069.44126	27797.9625
1073.11995	28244.4625
1076.79611	28599.1625
1080.46974	28879.9625
1084.14085	29509.0625
1087.80943	30300.5625
1091.47549	30680.8625
1095.13903	30282.2625
1098.80005	29342.6625
1102.45857	28381.0625
1106.11456	27790.2625
1109.76805	27678.6625
1113.41903	27992.0625
1117.06751	28696.6625
1120.71348	29624.6625
1124.35696	30718.6625
1127.99793	31815.9625
1131.63641	31911.7625
1135.2724	30841.0625
1138.90589	29677.2625
1142.5369	28980.7625
1146.16542	28611.2625
1149.79145	28402.3625
1153.415	28538.4625
1157.03607	28939.0625
1160.65467	29652.0625
1164.27079	30935.4625
1167.88443	32825.2625
1171.49561	35778.4625
1175.10432	40281.4625
1178.71056	46143.1625
1182.31434	50808.9625
1185.91565	52602.3625
1189.51451	52078.5625
1193.11091	49402.6625
1196.70485	45764.5625
1200.29634	42470.3625
1203.88538	39977.8625
1207.47197	37545.4625
1211.05612	35585.2625
1214.63782	34604.7625
1218.21708	34348.6625
1221.79391	34515.5625
1225.36829	34748.6625
1228.94024	34872.3625
1232.50976	34764.9625
1236.07685	34589.8625
1239.6415	34385.1625
1243.20374	34136.2625
1246.76355	34072.3625
1250.32093	34484.7625
1253.8759	35366.0625
1257.42845	36605.0625
1260.97859	37953.0625
1264.52631	39197.5625
1268.07163	40501.4625
1271.61453	41747.6625
1275.15503	43092.2625
1278.69312	44046.0625
1282.22882	44856.6625
1285.76211	46042.4625
1289.29301	47589.3625
1292.82151	49285.0625
1296.34761	51127.0625
1299.87133	53636.5625
1303.39266	57566.3625
1306.9116	63259.4625
1310.42815	70104.4625
1313.94233	75061.1625
1317.45412	75647.3625
1320.96354	72755.0625
1324.47058	68781.3625
1327.97525	64941.5625
1331.47754	62256.5625
1334.97747	60888.8625
1338.47502	60461.8625
1341.97022	60539.2625
1345.46305	60748.5625
1348.95352	61387.5625
1352.44163	62991.0625
1355.92738	66620.2625
1359.41078	73604.7625
1362.89183	81381.2625
1366.37053	80863.3625
1369.84688	70822.5625
1373.32088	59476.8625
1376.79254	52056.2625
1380.26186	48687.0625
1383.72883	47217.5625
1387.19347	46137.7625
1390.65578	44886.2625
1394.11575	44115.7625
1397.57339	44264.7625
1401.0287	45060.2625
1404.48168	46123.2625
1407.93234	46877.6625
1411.38068	47064.1625
1414.82669	46386.4625
1418.27039	44867.4625
1421.71177	43013.5625
1425.15083	41435.2625
1428.58758	40429.0625
1432.02203	40265.1625
1435.45416	40626.8625
1438.88399	41086.9625
1442.31151	41450.4625
1445.73673	41931.6625
1449.15965	42410.9625
1452.58027	42604.8625
1455.9986	42529.1625
1459.41463	42599.7625
1462.82837	43145.8625
1466.23982	44005.4625
1469.64898	44940.7625
1473.05586	45562.1625
1476.46045	45907.7625
1479.86276	46234.0625
1483.26279	46690.4625
1486.66054	47288.2625
1490.05602	48216.0625
1493.44922	49665.7625
1496.84016	51466.5625
1500.22882	54330.1625
1503.61521	58452.6625
1506.99934	63578.3625
1510.38121	69141.6625
1513.76081	72757.4625
1517.13816	71330.1625
1520.51324	65175.3625
1523.88607	58182.6625
1527.25665	53028.9625
1530.62498	49857.4625
1533.99105	47969.9625
1537.35488	46728.9625
1540.71647	45812.8625
1544.07581	45095.8625
1547.4329	44469.5625
1550.78776	43792.6625
1554.14038	43520.7625
1557.49077	43737.1625
1560.83892	44270.0625
1564.18484	45030.0625
1567.52853	45764.8625
1570.86999	46195.8625
1574.20922	46596.3625
1577.54624	46606.2625
1580.88103	45346.5625
1584.2136	43715.2625
1587.54395	43592.6625
1590.87208	45272.4625
1594.19801	48472.0625
1597.52172	52109.3625
1600.84321	53680.8625
1604.16251	51535.3625
1607.47959	47367.0625
1610.79447	42790.1625
1614.10715	38798.1625
1617.41763	35568.3625
1620.7259	33499.1625
1624.03199	32547.8625
1627.33587	32628.0625
1630.63757	33624.8625
1633.93707	35784.8625
1637.23439	39121.5625
1640.52951	43579.3625
1643.82246	48888.9625
1647.11321	53992.9625
1650.40179	57007.5625
1653.68819	55140.5625
1656.97241	48094.2625
1660.25446	39965.0625
1663.53433	33769.4625
1666.81203	29926.3625
1670.08756	27682.9625
1673.36092	26324.6625
1676.63211	25502.4625
1679.90115	24836.1625
1683.16801	24400.1625
1686.43272	24099.0625
1689.69527	23897.5625
1692.95567	23708.5625
1696.2139	23587.6625
1699.46999	23546.9625
1702.72392	23450.3625
1705.97571	23364.7625
1709.22535	23373.9625
1712.47284	23331.1625
1715.71819	23354.2625
1718.96139	23293.7625
1722.20246	23260.9625
1725.44139	23181.0625
1728.67818	23001.9625
1731.91284	22854.0625
1735.14537	22714.3625
1738.37576	22580.0625
1741.60403	22480.3625
1744.83017	22370.7625
1748.05418	22349.4625
1751.27607	22305.0625
1754.49584	22290.2625
1757.71349	22263.3625
1760.92903	22224.0625
1764.14244	22216.6625
1767.35375	22213.4625
1770.56294	22130.7625
1773.77002	22072.4625
1776.97499	22018.9625
1780.17785	21960.2625
1783.37861	21911.1625
1786.57727	21893.4625
1789.77382	21868.0625
1792.96828	21832.0625
1796.16064	21775.2625
1799.3509	21795.4625
1802.53907	21706.0625
1805.72514	21644.8625
1808.90913	21579.3625
1812.09102	21563.1625
1815.27083	21529.3625
1818.44856	21502.8625
1821.6242	21475.3625
1824.79776	21472.2625
1827.96924	21466.1625
1831.13864	21461.5625
1834.30597	21446.4625
1837.47122	21403.6625
1840.6344	21391.8625
1843.7955	21402.8625
1846.95454	21414.3625
1850.11151	21426.7625
1853.26642	21400.4625
1856.41926	21426.4625
1859.57004	21433.3625
1862.71876	21472.2625
1865.86542	21513.4625
1869.01003	21500.6625
1872.15258	21540.6625
1875.29308	21553.8625
1878.43152	21565.7625
1881.56792	21627.7625
1884.70227	21678.3625
1887.83457	21701.2625
1890.96482	21750.7625
1894.09304	21726.0625
1897.21921	21743.0625
1900.34335	21772.7625
1903.46544	21797.8625
1906.58551	21804.9625
1909.70353	21807.4625
1912.81953	21796.7625
1915.93349	21790.3625
1919.04543	21766.2625
1922.15534	21720.0625
1925.26322	21648.7625
1928.36908	21549.8625
1931.47292	21432.2625
1934.57473	21308.7625
1937.67453	21189.0625
1940.77232	21051.9625
1943.86808	20949.4625
1946.96184	20831.4625
1950.05358	20739.2625
1953.14331	20626.0625
1956.23103	20530.8625
1959.31675	20410.4625
1962.40046	20408.9625
1965.48217	20291.0625
1968.56188	20262.4625
1971.63959	20190.5625
1974.7153	20142.7625
1977.78901	20083.6625
1980.86073	20015.3625
1983.93046	19895.2625
1986.99819	19836.2625
1990.06394	19767.4625
1993.1277	19721.6625
1996.18947	19631.0625
1999.24925	19584.2625
2002.30706	19528.2625
2005.36288	19489.6625
2008.41672	19405.6625
2011.46859	19382.9625
2014.51848	19314.6625
2017.56639	19274.4625
2020.61233	19229.7625
2023.6563	19215.6625
2026.6983	19162.1625
2029.73833	19090.2625
2032.7764	19054.9625
2035.8125	19056.6625
2038.84664	18998.6625
2041.87881	18969.1625
2044.90903	18985.8625
2047.93729	18923.9625
2050.96359	18905.0625
2053.98794	18877.2625
2057.01034	18837.4625
2060.03078	18817.8625
2063.04927	18798.0625
2066.06582	18778.3625
2069.08042	18737.2625
2072.09307	18749.3625
2075.10378	18733.5625
2078.11255	18705.1625
2081.11938	18720.2625
2084.12426	18690.8625
2087.12722	18650.7625
2090.12824	18671.8625
2093.12732	18655.1625
2096.12447	18647.9625
2099.11969	18654.5625
2102.11299	18680.9625
2105.10435	18645.1625
2108.09379	18661.9625
2111.08131	18701.2625
2114.0669	18660.1625
2117.05057	18665.6625
2120.03233	18714.7625
2123.01216	18718.1625
2125.99008	18702.8625
2128.96609	18743.3625
2131.94018	18738.3625
2134.91236	18763.9625
2137.88263	18754.2625
2140.851	18732.5625
2143.81746	18728.6625
2146.78201	18763.3625
2149.74466	18750.0625
2152.7054	18765.7625
2155.66425	18743.3625
2158.6212	18762.4625
2161.57625	18750.3625
2164.52941	18739.0625
2167.48067	18721.8625
2170.43004	18768.5625
2173.37752	18733.8625
2176.32311	18700.3625
2179.26681	18776.7625
2182.20863	18754.2625
2185.14856	18794.5625
2188.08661	18778.1625
2191.02278	18741.6625
2193.95707	18743.3625
2196.88948	18682.5625
2199.82001	18720.9625
2202.74867	18715.3625
2205.67545	18699.1625
2208.60037	18678.8625
2211.52341	18675.9625
2214.44458	18641.4625
2217.36388	18638.5625
2220.28132	18577.5625
2223.1969	18544.9625
2226.11061	18525.2625
2229.02246	18476.6625
2231.93245	18446.9625
2234.84058	18432.4625
2237.74686	18408.3625
2240.65128	18338.8625
2243.55385	18320.2625
2246.45456	18362.7625
2249.35343	18307.7625
2252.25044	18321.2625
2255.14561	18266.2625
2258.03893	18239.9625
2260.93041	18219.2625
2263.82004	18173.2625
2266.70783	18142.7625
2269.59378	18064.4625
2272.4779	18047.0625
2275.36017	17973.1625
2278.24061	17955.6625
2281.11922	17945.3625
2283.996	17908.6625
2286.87094	17879.9625
2289.74405	17821.7625
2292.61534	17813.1625
2295.4848	17785.6625
2298.35243	17772.9625
2301.21824	17755.0625
2304.08223	17796.7625
2306.94439	17824.1625
2309.80474	17806.3625
2312.66327	17822.1625
2315.51999	17811.2625
2318.37489	17775.6625
2321.22797	17793.8625
2324.07925	17785.5625
2326.92871	17761.6625
2329.77637	17769.6625
2332.62222	17747.4625
2335.46626	17734.4625
2338.3085	17738.7625
2341.14893	17745.0625
2343.98756	17752.4625
2346.8244	17783.0625
2349.65943	17798.4625
2352.49267	17783.7625
2355.32411	17803.0625
2358.15376	17819.4625
2360.98161	17807.8625
2363.80768	17814.0625
2366.63195	17789.8625
2369.45444	17741.0625
2372.27514	17742.4625
2375.09405	17702.2625
2377.91118	17659.4625
2380.72652	17562.0625
2383.54009	17526.5625
2386.35187	17512.8625
2389.16188	17425.1625
2391.97011	17443.9625
2394.77657	17381.5625
2397.58125	17338.2625
2400.38416	17286.2625
2403.18529	17259.0625
2405.98466	17236.4625
2408.78226	17188.5625
2411.57809	17159.4625
2414.37216	17166.7625
2417.16446	17153.1625
2419.955	17103.0625
2422.74378	17079.0625
2425.5308	17078.2625
2428.31606	17075.5625
2431.09956	17082.6625
2433.88131	17064.8625
2436.6613	17055.2625
2439.43954	17051.1625
2442.21603	17052.3625
2444.99077	17046.9625
2447.76377	17058.6625
2450.53501	17070.1625
2453.30451	17057.9625
2456.07226	17059.1625
2458.83827	17048.9625
2461.60254	17019.3625
2464.36507	17008.4625
2467.12586	16978.0625
2469.88492	17010.3625
2472.64224	17028.4625
2475.39782	17034.7625
2478.15167	17054.8625
2480.90379	17069.3625
2483.65417	17076.6625
2486.40283	17087.2625
2489.14976	17145.9625
2491.89497	17175.7625
2494.63845	17195.4625
2497.3802	17158.6625
2500.12024	17159.8625
2502.85855	17175.6625
2505.59514	17170.3625
2508.33002	17095.6625
2511.06318	17045.3625
2513.79462	17055.3625
2516.52435	16971.0625
2519.25237	16961.1625
2521.97867	16899.1625
2524.70327	16860.1625
2527.42616	16840.4625
2530.14734	16834.8625
2532.86681	16819.0625
2535.58458	16791.2625
2538.30065	16783.9625
2541.01501	16784.5625
2543.72768	16769.6625
2546.43864	16805.8625
2549.14791	16781.3625
2551.85548	16761.5625
2554.56136	16739.4625
2557.26554	16730.5625
2559.96803	16725.4625
2562.66883	16699.5625
2565.36794	16703.5625
2568.06536	16691.7625
2570.7611	16669.1625
2573.45514	16684.9625
2576.14751	16621.5625
2578.83819	16610.6625
2581.52719	16623.8625
2584.21451	16594.1625
2586.90015	16602.1625
2589.58411	16600.9625
2592.2664	16563.7625
2594.94701	16554.9625
2597.62594	16562.7625
2600.30321	16542.1625
2602.9788	16558.9625
2605.65273	16508.7625
2608.32498	16532.9625
2610.99557	16523.7625
2613.66449	16539.8625
2616.33175	16526.6625
2618.99734	16586.4625
2621.66128	16550.4625
2624.32355	16522.7625
2626.98416	16553.6625
2629.64311	16508.4625
2632.30041	16503.9625
2634.95605	16526.4625
2637.61004	16496.0625
2640.26238	16476.9625
2642.91306	16474.1625
2645.56209	16435.0625
2648.20948	16438.0625
2650.85521	16404.1625
2653.4993	16390.3625
2656.14175	16353.8625
2658.78255	16384.8625
2661.42171	16353.4625
2664.05923	16430.5625
2666.6951	16421.4625
2669.32934	16469.8625
2671.96194	16474.8625
2674.59291	16472.3625
2677.22224	16459.0625
2679.84993	16488.0625
2682.476	16449.1625
2685.10043	16466.5625
2687.72324	16453.8625
2690.34441	16409.9625
2692.96396	16458.4625
2695.58188	16455.3625
2698.19818	16434.3625
2700.81285	16429.4625
2703.4259	16430.8625
2706.03733	16472.1625
2708.64714	16440.5625
2711.25533	16421.5625
2713.86191	16470.1625
2716.46687	16491.9625
2719.07021	16519.9625
2721.67194	16484.7625
2724.27206	16473.6625
2726.87057	16474.7625
2729.46747	16483.5625
2732.06276	16504.1625
2734.65644	16499.5625
2737.24852	16474.2625
2739.83899	16439.8625
2742.42786	16477.9625
2745.01513	16399.2625
2747.60079	16425.4625
2750.18486	16398.8625
2752.76733	16396.5625
2755.3482	16387.1625
2757.92747	16394.7625
2760.50515	16332.2625
2763.08123	16345.3625
2765.65573	16348.0625
2768.22863	16360.8625
2770.79994	16317.6625
2773.36967	16330.7625
2775.9378	16322.3625
2778.50435	16332.6625
2781.06932	16291.4625
2783.6327	16280.0625
2786.1945	16275.6625
2788.75471	16264.2625
2791.31335	16243.3625
2793.87041	16217.5625
2796.42589	16180.6625
2798.97979	16213.5625
2801.53212	16172.5625
2804.08288	16173.7625
2806.63206	16117.5625
2809.17967	16129.7625
2811.72571	16083.4625
2814.27018	16055.2625
2816.81308	16073.2625
2819.35442	16073.9625
2821.89419	16076.2625
2824.43239	16071.0625
2826.96904	16098.8625
2829.50412	16097.0625
2832.03763	16074.3625
2834.56959	16107.6625
2837.1	16094.4625
2839.62884	16096.4625
2842.15613	16084.8625
2844.68186	16199.3625
2847.20604	16256.6625
2849.72867	16312.7625
2852.24974	16296.9625
2854.76927	16308.3625
2857.28724	16254.5625
2859.80367	16227.5625
2862.31855	16213.1625
2864.83189	16187.0625
2867.34368	16191.2625
2869.85393	16196.5625
2872.36264	16175.3625
2874.8698	16213.4625
2877.37543	16198.2625
2879.87952	16222.4625
2882.38207	16212.0625
2884.88308	16150.1625
2887.38256	16148.8625
2889.88051	16141.7625
2892.37692	16167.8625
2894.8718	16203.2625
2897.36515	16220.1625
2899.85698	16190.1625
2902.34727	16203.2625
2904.83604	16227.7625
2907.32328	16243.8625
2909.809	16203.5625
2912.29319	16243.9625
2914.77587	16221.9625
2917.25702	16218.6625
2919.73665	16197.7625
2922.21476	16201.6625
2924.69136	16177.2625
2927.16644	16199.9625
2929.64	16137.9625
2932.11205	16097.9625
2934.58258	16041.9625
2937.05161	16021.8625
2939.51912	15981.4625
2941.98513	15939.6625
2944.44962	15881.7625
2946.91261	15820.5625
2949.37409	15835.9625
2951.83407	15760.4625
2954.29254	15754.9625
2956.74951	15719.8625
2959.20498	15701.0625
2961.65895	15665.2625
2964.11142	15651.7625
2966.56239	15597.5625
2969.01186	15565.4625
2971.45984	15505.4625
2973.90632	15478.0625
2976.35131	15459.5625
2978.7948	15408.1625
2981.23681	15345.3625
2983.67732	15281.0625
2986.11635	15231.0625
2988.55388	15185.0625
2990.98993	15175.2625
2993.4245	15150.2625
2995.85758	15107.1625
2998.28917	15085.2625
3000.71928	15099.2625
3003.14791	15027.9625
3005.57506	15041.4625
3008.00073	14990.6625
3010.42493	14985.0625
3012.84764	14958.5625
3015.26888	14938.7625
3017.68865	14878.8625
3020.10694	14872.2625
3022.52376	14831.5625
3024.9391	14846.2625
3027.35298	14802.0625
3029.76539	14766.2625
3032.17632	14728.4625
3034.5858	14706.8625
3036.9938	14697.5625
3039.40034	14684.5625
3041.80542	14653.2625
3044.20903	14643.3625
3046.61118	14602.9625
3049.01187	14591.7625
3051.4111	14565.2625
3053.80888	14531.9625
3056.20519	14481.5625
3058.60005	14437.2625
3060.99345	14448.6625
3063.3854	14385.8625
3065.7759	14336.4625
3068.16494	14284.8625
3070.55254	14257.2625
3072.93868	14255.1625
3075.32338	14183.8625
3077.70662	14161.1625
3080.08842	14113.6625
3082.46878	14089.9625
3084.84769	14067.3625
3087.22515	14025.5625
3089.60118	14004.8625
3091.97576	13992.1625
3094.3489	14019.9625
3096.72061	13983.0625
3099.09087	13955.9625
3101.4597	13918.5625
3103.82709	13923.9625
3106.19305	13895.4625
3108.55757	13843.7625
3110.92066	13832.6625
3113.28232	13817.4625
3115.64255	13769.2625
3118.00134	13774.6625
3120.35871	13713.2625
3122.71466	13686.3625
3125.06917	13663.8625
3127.42226	13629.5625
3129.77393	13623.8625
3132.12417	13655.7625
3134.47299	13622.8625
3136.82039	13623.4625
3139.16636	13635.2625
3141.51092	13590.8625
3143.85406	13626.4625
3146.19579	13604.4625
3148.53609	13619.4625
3150.87499	13602.3625
3153.21246	13597.6625
3155.54853	13644.4625
3157.88318	13591.7625
3160.21642	13608.0625
3162.54826	13597.6625
3164.87868	13589.5625
3167.2077	13585.6625
3169.5353	13551.1625
3171.86151	13545.3625
3174.18631	13522.0625
3176.5097	13516.5625
3178.83169	13504.3625
3181.15228	13480.3625
3183.47147	13451.7625
3185.78926	13446.4625
3188.10565	13438.1625
3190.42065	13436.2625
3192.73424	13463.4625
3195.04645	13448.0625
3197.35725	13436.3625
3199.66667	13443.4625
3201.97469	13473.7625
3204.28132	13431.1625
3206.58656	13484.9625
3208.8904	13442.9625
3211.19287	13485.8625
3213.49394	13493.5625
3215.79363	13491.9625
3218.09193	13489.2625
3220.38884	13451.7625
3222.68438	13487.6625
3224.97853	13439.7625
3227.2713	13437.8625
3229.56269	13392.5625
3231.8527	13413.4625
3234.14133	13365.6625
3236.42858	13372.4625
3238.71446	13337.4625
3240.99896	13314.5625
3243.28209	13312.0625
3245.56384	13298.2625
3247.84423	13319.2625
3250.12324	13274.0625
3252.40088	13249.5625
3254.67715	13236.2625
3256.95205	13183.4625
3259.22558	13196.7625
3261.49775	13179.6625
3263.76855	13177.2625
3266.03799	13139.3625
3268.30606	13135.8625
3270.57277	13057.6625
3272.83812	13051.0625
3275.10211	13054.8625
3277.36474	13013.8625
3279.62601	13058.0625
3281.88593	13052.8625
3284.14448	13034.8625
3286.40168	13051.4625
3288.65753	13021.3625
3290.91202	13004.4625
3293.16516	12931.0625
3295.41695	12904.2625
3297.66738	12868.0625
3299.91647	12819.0625
3302.16421	12736.5625
3304.4106	12672.7625
3306.65564	12600.4625
3308.89933	12508.0625
3311.14169	12409.9625
3313.38269	12338.9625
3315.62236	12281.7625
3317.86068	12175.0625
3320.09766	12050.1625
3322.3333	11987.2625
3324.5676	11958.3625
3326.80056	11757.7625
3329.03219	11688.2625
3331.26248	2.0625
3333.49143	-0.0375
3335.71905	-0.4375
