Data from AgNPs_FTO_APTES_UA_2uM_CRN_50uM_R6G_10uM_NaF_0.1M_Addition_RamanShift__34__15-15-55-274.txt Node

Date: Wed Feb 02 15:15:55 GMT 2022
User: TCL
Spectrometer: QEP01345
Trigger mode: 4
Integration Time (sec): 7.000000E0
Scans to average: 10
Electric dark correction enabled: true
Nonlinearity correction enabled: false
Boxcar width: 0
XAxis mode: Raman Shifts
Number of Pixels in Spectrum: 1044
>>>>>Begin Spectral Data<<<<<
46.04893	1.0625
50.45542	-0.6375
54.85868	-1.3375
59.25871	-0.7375
63.6555	82.3625
68.04907	87.6625
72.43941	92.0625
76.82654	98.5625
81.21044	100.4625
85.59113	107.2625
89.96862	109.6625
94.34289	115.1625
98.71396	114.6625
103.08183	120.6625
107.4465	123.5625
111.80798	126.5625
116.16626	129.8625
120.52136	129.7625
124.87327	137.4625
129.222	143.0625
133.56755	153.0625
137.90993	160.6625
142.24913	178.0625
146.58517	193.4625
150.91804	225.0625
155.24774	269.2625
159.57429	327.2625
163.89768	416.0625
168.21792	545.7625
172.53501	741.9625
176.84895	1026.3625
181.15975	1438.9625
185.46741	2019.2625
189.77193	2783.6625
194.07331	3734.6625
198.37157	4787.3625
202.6667	5933.2625
206.9587	7040.9625
211.24758	8143.4625
215.53334	9280.1625
219.81599	10460.6625
224.09553	11785.7625
228.37195	13238.2625
232.64527	14777.2625
236.91549	16391.9625
241.18261	18022.7625
245.44663	19506.6625
249.70755	20859.9625
253.96539	22024.5625
258.22014	23053.4625
262.4718	23858.6625
266.72039	24531.2625
270.96589	24826.7625
275.20832	24891.7625
279.44768	24805.8625
283.68397	24603.1625
287.91719	24407.4625
292.14735	24324.1625
296.37445	24322.6625
300.59849	24489.4625
304.81948	24620.4625
309.03742	24636.0625
313.25231	24436.3625
317.46415	23934.4625
321.67296	23275.6625
325.87872	22684.9625
330.08145	22405.8625
334.28114	22355.2625
338.47781	22538.9625
342.67145	22752.9625
346.86207	23152.5625
351.04966	23594.2625
355.23424	24022.5625
359.4158	24526.8625
363.59435	24825.4625
367.76989	25027.8625
371.94243	25191.8625
376.11196	25293.3625
380.27849	25397.2625
384.44203	25464.6625
388.60257	25648.4625
392.76012	25900.0625
396.91468	26203.3625
401.06626	26603.9625
405.21485	26902.4625
409.36047	26802.8625
413.50311	26459.0625
417.64277	26161.4625
421.77947	26072.3625
425.9132	26104.2625
430.04396	26283.0625
434.17176	26485.8625
438.2966	26804.0625
442.41849	27423.7625
446.53742	28448.9625
450.6534	29541.9625
454.76644	30342.6625
458.87653	30591.1625
462.98368	30274.0625
467.08789	29765.4625
471.18916	29274.5625
475.2875	28927.1625
479.38291	28773.2625
483.4754	28649.2625
487.56496	28284.2625
491.6516	27708.2625
495.73531	27088.3625
499.81612	26703.5625
503.89401	26691.4625
507.96899	26629.0625
512.04106	26492.9625
516.11023	26300.6625
520.1765	26099.8625
524.23987	25912.8625
528.30034	25774.3625
532.35792	25563.5625
536.41261	25306.9625
540.46441	24947.5625
544.51333	24906.8625
548.55936	25181.8625
552.60252	25759.8625
556.64279	26470.4625
560.6802	27056.7625
564.71473	27477.5625
568.7464	28095.5625
572.7752	28842.7625
576.80114	29238.1625
580.82422	29528.4625
584.84444	30053.9625
588.86181	30882.8625
592.87633	31902.1625
596.888	32451.5625
600.89682	32035.6625
604.9028	32352.7625
608.90594	34616.6625
612.90624	37048.5625
616.90371	34764.8625
620.89834	29141.4625
624.89015	26651.3625
628.87913	26360.6625
632.86528	26432.3625
636.84862	26235.3625
640.82913	25702.5625
644.80683	24954.7625
648.78172	24448.5625
652.75379	24376.8625
656.72306	24723.7625
660.68952	25129.1625
664.65319	25000.6625
668.61405	24537.7625
672.57211	24409.4625
676.52738	24501.2625
680.47986	24428.9625
684.42955	24257.7625
688.37646	24202.8625
692.32058	24357.2625
696.26192	24700.1625
700.20048	25018.9625
704.13626	25202.8625
708.06928	25126.3625
711.99952	24944.5625
715.927	24970.4625
719.85171	25091.7625
723.77365	25043.5625
727.69284	24681.1625
731.60928	24384.2625
735.52295	24302.9625
739.43388	24307.2625
743.34206	24446.5625
747.24749	24531.0625
751.15017	24787.4625
755.05012	25249.2625
758.94733	26034.0625
762.8418	27371.6625
766.73354	29349.6625
770.62254	31197.5625
774.50882	31563.2625
778.39237	30193.3625
782.27321	28026.4625
786.15132	26192.9625
790.02671	25101.6625
793.89938	24626.6625
797.76935	24463.0625
801.6366	24369.1625
805.50115	24366.1625
809.36299	24214.4625
813.22213	24122.4625
817.07857	24063.1625
820.93231	23978.3625
824.78336	23967.4625
828.63172	23922.2625
832.47738	23931.1625
836.32036	24055.0625
840.16066	24203.4625
843.99827	24314.2625
847.8332	24149.9625
851.66546	23997.6625
855.49504	23891.2625
859.32195	23876.3625
863.1462	23742.5625
866.96777	23633.3625
870.78668	23550.6625
874.60293	23494.2625
878.41652	23545.1625
882.22745	23662.6625
886.03573	23728.3625
889.84136	23679.7625
893.64433	23542.9625
897.44466	23419.3625
901.24235	23331.3625
905.0374	23283.9625
908.8298	23313.9625
912.61957	23424.6625
916.40671	23660.0625
920.19121	24077.0625
923.97308	24469.7625
927.75233	24608.9625
931.52895	24491.8625
935.30295	24161.8625
939.07433	23664.9625
942.84309	23329.8625
946.60924	23149.9625
950.37278	23077.0625
954.13371	22988.1625
957.89203	22889.3625
961.64774	22830.9625
965.40086	22811.0625
969.15137	22717.9625
972.89929	22665.1625
976.64461	22638.7625
980.38733	22672.2625
984.12747	22785.6625
987.86502	23060.5625
991.59999	23375.8625
995.33237	23871.7625
999.06217	24776.5625
1002.78939	25766.4625
1006.51404	26254.9625
1010.23611	26452.9625
1013.95561	26603.6625
1017.67255	26516.4625
1021.38692	26156.2625
1025.09872	25955.0625
1028.80796	26342.6625
1032.51465	27431.6625
1036.21877	28489.0625
1039.92035	28720.2625
1043.61937	28157.3625
1047.31584	27247.9625
1051.00976	26278.2625
1054.70114	25747.4625
1058.38998	25551.7625
1062.07627	25559.5625
1065.76003	25576.8625
1069.44126	25683.3625
1073.11995	25944.2625
1076.79611	26218.1625
1080.46974	26462.0625
1084.14085	26710.1625
1087.80943	27027.4625
1091.47549	27231.0625
1095.13903	27170.3625
1098.80005	26806.9625
1102.45857	26253.5625
1106.11456	25874.8625
1109.76805	25799.2625
1113.41903	25912.8625
1117.06751	26099.4625
1120.71348	26373.9625
1124.35696	26653.4625
1127.99793	27008.4625
1131.63641	27198.1625
1135.2724	26967.7625
1138.90589	26810.8625
1142.5369	26768.4625
1146.16542	26928.1625
1149.79145	27215.6625
1153.415	27564.2625
1157.03607	28093.8625
1160.65467	28939.2625
1164.27079	30258.8625
1167.88443	31899.4625
1171.49561	33867.9625
1175.10432	36381.3625
1178.71056	39653.5625
1182.31434	42491.1625
1185.91565	43846.6625
1189.51451	43449.2625
1193.11091	41960.0625
1196.70485	40265.0625
1200.29634	38813.7625
1203.88538	37778.7625
1207.47197	37121.2625
1211.05612	36504.6625
1214.63782	35743.9625
1218.21708	35073.2625
1221.79391	34663.3625
1225.36829	34331.0625
1228.94024	33680.4625
1232.50976	32804.1625
1236.07685	32110.2625
1239.6415	31832.7625
1243.20374	31891.1625
1246.76355	32298.0625
1250.32093	32885.7625
1253.8759	33690.7625
1257.42845	34642.9625
1260.97859	35628.0625
1264.52631	36599.5625
1268.07163	37597.7625
1271.61453	38793.7625
1275.15503	40140.4625
1278.69312	41465.4625
1282.22882	42626.4625
1285.76211	43859.6625
1289.29301	45507.3625
1292.82151	47625.1625
1296.34761	50375.1625
1299.87133	53720.9625
1303.39266	57466.6625
1306.9116	61106.7625
1310.42815	64048.2625
1313.94233	65565.7625
1317.45412	65177.8625
1320.96354	63656.2625
1324.47058	62032.4625
1327.97525	60442.9625
1331.47754	59287.9625
1334.97747	58516.6625
1338.47502	57841.0625
1341.97022	56674.0625
1345.46305	55170.3625
1348.95352	54031.7625
1352.44163	53942.8625
1355.92738	55389.5625
1359.41078	58229.0625
1362.89183	60717.9625
1366.37053	59930.4625
1369.84688	55089.9625
1373.32088	49003.7625
1376.79254	44906.0625
1380.26186	43611.9625
1383.72883	43820.9625
1387.19347	44106.0625
1390.65578	43925.6625
1394.11575	44026.5625
1397.57339	44785.3625
1401.0287	45906.1625
1404.48168	46851.1625
1407.93234	46922.7625
1411.38068	45921.8625
1414.82669	44231.4625
1418.27039	42160.6625
1421.71177	40018.0625
1425.15083	38313.5625
1428.58758	37363.7625
1432.02203	37483.6625
1435.45416	38518.8625
1438.88399	39777.0625
1442.31151	40894.6625
1445.73673	41742.6625
1449.15965	42491.2625
1452.58027	42841.8625
1455.9986	42835.0625
1459.41463	42806.8625
1462.82837	43301.4625
1466.23982	44088.1625
1469.64898	44872.8625
1473.05586	45332.1625
1476.46045	45498.8625
1479.86276	45271.1625
1483.26279	44653.5625
1486.66054	44137.3625
1490.05602	44022.2625
1493.44922	44046.9625
1496.84016	44116.7625
1500.22882	44480.2625
1503.61521	45232.3625
1506.99934	46378.8625
1510.38121	47586.1625
1513.76081	48114.5625
1517.13816	47471.7625
1520.51324	45897.3625
1523.88607	44589.9625
1527.25665	43870.0625
1530.62498	43810.4625
1533.99105	43778.1625
1537.35488	43529.1625
1540.71647	42871.8625
1544.07581	41891.0625
1547.4329	40855.6625
1550.78776	39898.4625
1554.14038	39261.5625
1557.49077	38936.6625
1560.83892	38673.8625
1564.18484	38613.8625
1567.52853	38751.4625
1570.86999	39132.8625
1574.20922	39916.6625
1577.54624	40656.0625
1580.88103	41110.8625
1584.2136	41873.0625
1587.54395	43528.0625
1590.87208	46160.9625
1594.19801	49302.0625
1597.52172	52016.7625
1600.84321	52520.4625
1604.16251	49825.8625
1607.47959	45177.4625
1610.79447	40406.7625
1614.10715	36427.2625
1617.41763	33630.8625
1620.7259	31925.2625
1624.03199	31223.0625
1627.33587	31586.9625
1630.63757	32840.2625
1633.93707	35037.6625
1637.23439	38450.8625
1640.52951	43174.5625
1643.82246	48680.2625
1647.11321	53013.0625
1650.40179	53581.5625
1653.68819	49460.2625
1656.97241	42658.7625
1660.25446	36094.3625
1663.53433	31412.2625
1666.81203	28420.8625
1670.08756	26612.1625
1673.36092	25458.3625
1676.63211	24719.2625
1679.90115	24205.5625
1683.16801	23794.6625
1686.43272	23540.5625
1689.69527	23308.3625
1692.95567	23141.4625
1696.2139	23095.6625
1699.46999	22986.0625
1702.72392	22938.9625
1705.97571	22841.3625
1709.22535	22781.9625
1712.47284	22736.6625
1715.71819	22717.6625
1718.96139	22642.4625
1722.20246	22576.8625
1725.44139	22505.3625
1728.67818	22387.0625
1731.91284	22325.2625
1735.14537	22189.5625
1738.37576	22092.3625
1741.60403	22060.7625
1744.83017	21990.2625
1748.05418	21965.1625
1751.27607	21904.3625
1754.49584	21868.7625
1757.71349	21856.6625
1760.92903	21849.1625
1764.14244	21856.5625
1767.35375	21831.0625
1770.56294	21762.0625
1773.77002	21769.1625
1776.97499	21708.2625
1780.17785	21667.7625
1783.37861	21670.9625
1786.57727	21603.6625
1789.77382	21583.6625
1792.96828	21581.7625
1796.16064	21509.1625
1799.3509	21514.0625
1802.53907	21460.1625
1805.72514	21401.5625
1808.90913	21343.8625
1812.09102	21324.4625
1815.27083	21291.6625
1818.44856	21276.9625
1821.6242	21246.4625
1824.79776	21238.5625
1827.96924	21173.6625
1831.13864	21158.4625
1834.30597	21180.7625
1837.47122	21188.4625
1840.6344	21167.3625
1843.7955	21185.2625
1846.95454	21169.1625
1850.11151	21174.0625
1853.26642	21178.1625
1856.41926	21137.5625
1859.57004	21123.4625
1862.71876	21130.1625
1865.86542	21106.4625
1869.01003	21111.6625
1872.15258	21135.4625
1875.29308	21102.4625
1878.43152	21103.1625
1881.56792	21116.2625
1884.70227	21093.5625
1887.83457	21068.0625
1890.96482	21068.8625
1894.09304	21054.1625
1897.21921	21094.3625
1900.34335	21081.6625
1903.46544	21053.7625
1906.58551	21065.5625
1909.70353	21029.7625
1912.81953	20993.0625
1915.93349	20996.5625
1919.04543	20979.5625
1922.15534	20933.6625
1925.26322	20910.8625
1928.36908	20879.6625
1931.47292	20856.1625
1934.57473	20775.9625
1937.67453	20696.6625
1940.77232	20649.4625
1943.86808	20589.5625
1946.96184	20578.8625
1950.05358	20494.3625
1953.14331	20459.8625
1956.23103	20433.7625
1959.31675	20353.7625
1962.40046	20300.8625
1965.48217	20291.7625
1968.56188	20158.9625
1971.63959	20135.9625
1974.7153	20110.6625
1977.78901	20086.1625
1980.86073	19989.8625
1983.93046	19909.7625
1986.99819	19858.1625
1990.06394	19832.0625
1993.1277	19782.0625
1996.18947	19717.3625
1999.24925	19674.2625
2002.30706	19592.3625
2005.36288	19571.7625
2008.41672	19563.1625
2011.46859	19488.2625
2014.51848	19423.4625
2017.56639	19358.5625
2020.61233	19338.5625
2023.6563	19336.5625
2026.6983	19312.3625
2029.73833	19272.5625
2032.7764	19234.7625
2035.8125	19249.7625
2038.84664	19223.4625
2041.87881	19224.1625
2044.90903	19229.0625
2047.93729	19204.4625
2050.96359	19162.6625
2053.98794	19139.6625
2057.01034	19132.9625
2060.03078	19129.4625
2063.04927	19080.9625
2066.06582	19085.2625
2069.08042	19091.9625
2072.09307	19055.7625
2075.10378	19037.0625
2078.11255	19024.4625
2081.11938	19024.6625
2084.12426	19012.8625
2087.12722	18990.5625
2090.12824	19000.0625
2093.12732	19030.5625
2096.12447	19018.2625
2099.11969	19044.4625
2102.11299	19062.0625
2105.10435	19096.0625
2108.09379	19096.7625
2111.08131	19113.0625
2114.0669	19102.5625
2117.05057	19138.2625
2120.03233	19168.6625
2123.01216	19178.8625
2125.99008	19162.0625
2128.96609	19214.7625
2131.94018	19209.1625
2134.91236	19228.6625
2137.88263	19224.7625
2140.851	19264.2625
2143.81746	19296.8625
2146.78201	19334.9625
2149.74466	19320.6625
2152.7054	19331.5625
2155.66425	19339.5625
2158.6212	19357.2625
2161.57625	19362.4625
2164.52941	19319.9625
2167.48067	19316.5625
2170.43004	19310.3625
2173.37752	19308.1625
2176.32311	19318.1625
2179.26681	19320.0625
2182.20863	19348.6625
2185.14856	19363.3625
2188.08661	19375.0625
2191.02278	19380.1625
2193.95707	19384.5625
2196.88948	19360.2625
2199.82001	19388.5625
2202.74867	19375.5625
2205.67545	19422.3625
2208.60037	19420.5625
2211.52341	19353.9625
2214.44458	19345.1625
2217.36388	19339.0625
2220.28132	19354.0625
2223.1969	19319.4625
2226.11061	19289.3625
2229.02246	19244.8625
2231.93245	19212.6625
2234.84058	19216.6625
2237.74686	19141.1625
2240.65128	19164.9625
2243.55385	19140.0625
2246.45456	19134.5625
2249.35343	19102.4625
2252.25044	19045.6625
2255.14561	19053.9625
2258.03893	19029.0625
2260.93041	19034.4625
2263.82004	18953.7625
2266.70783	18910.7625
2269.59378	18859.3625
2272.4779	18823.1625
2275.36017	18737.3625
2278.24061	18777.1625
2281.11922	18746.9625
2283.996	18716.3625
2286.87094	18708.3625
2289.74405	18710.3625
2292.61534	18709.4625
2295.4848	18713.8625
2298.35243	18762.5625
2301.21824	18742.7625
2304.08223	18757.3625
2306.94439	18823.1625
2309.80474	18785.1625
2312.66327	18810.9625
2315.51999	18787.2625
2318.37489	18794.6625
2321.22797	18804.4625
2324.07925	18786.1625
2326.92871	18766.7625
2329.77637	18766.4625
2332.62222	18787.0625
2335.46626	18780.9625
2338.3085	18780.0625
2341.14893	18789.7625
2343.98756	18752.3625
2346.8244	18759.9625
2349.65943	18799.0625
2352.49267	18762.8625
2355.32411	18768.1625
2358.15376	18718.8625
2360.98161	18713.0625
2363.80768	18683.5625
2366.63195	18683.7625
2369.45444	18647.9625
2372.27514	18620.0625
2375.09405	18578.0625
2377.91118	18582.4625
2380.72652	18582.1625
2383.54009	18520.5625
2386.35187	18532.0625
2389.16188	18510.3625
2391.97011	18484.4625
2394.77657	18476.5625
2397.58125	18464.3625
2400.38416	18439.8625
2403.18529	18384.5625
2405.98466	18336.8625
2408.78226	18347.1625
2411.57809	18364.9625
2414.37216	18274.3625
2417.16446	18313.0625
2419.955	18294.3625
2422.74378	18276.8625
2425.5308	18257.1625
2428.31606	18263.5625
2431.09956	18237.2625
2433.88131	18210.9625
2436.6613	18267.4625
2439.43954	18238.0625
2442.21603	18256.7625
2444.99077	18221.0625
2447.76377	18195.3625
2450.53501	18206.5625
2453.30451	18238.0625
2456.07226	18218.4625
2458.83827	18237.2625
2461.60254	18249.4625
2464.36507	18253.3625
2467.12586	18251.8625
2469.88492	18261.8625
2472.64224	18274.4625
2475.39782	18291.4625
2478.15167	18307.0625
2480.90379	18307.5625
2483.65417	18316.2625
2486.40283	18354.5625
2489.14976	18359.0625
2491.89497	18365.0625
2494.63845	18406.7625
2497.3802	18361.1625
2500.12024	18365.0625
2502.85855	18382.1625
2505.59514	18401.3625
2508.33002	18384.5625
2511.06318	18364.9625
2513.79462	18348.8625
2516.52435	18368.2625
2519.25237	18344.8625
2521.97867	18310.8625
2524.70327	18307.4625
2527.42616	18290.1625
2530.14734	18327.4625
2532.86681	18323.0625
2535.58458	18345.4625
2538.30065	18283.5625
2541.01501	18284.3625
2543.72768	18267.6625
2546.43864	18242.8625
2549.14791	18247.2625
2551.85548	18254.7625
2554.56136	18243.0625
2557.26554	18263.1625
2559.96803	18251.9625
2562.66883	18259.6625
2565.36794	18268.2625
2568.06536	18267.5625
2570.7611	18268.8625
2573.45514	18244.3625
2576.14751	18246.6625
2578.83819	18246.9625
2581.52719	18240.0625
2584.21451	18229.6625
2586.90015	18257.8625
2589.58411	18242.2625
2592.2664	18231.7625
2594.94701	18208.1625
2597.62594	18217.3625
2600.30321	18197.8625
2602.9788	18175.2625
2605.65273	18192.0625
2608.32498	18166.3625
2610.99557	18211.4625
2613.66449	18214.2625
2616.33175	18216.7625
2618.99734	18237.5625
2621.66128	18205.5625
2624.32355	18175.7625
2626.98416	18221.2625
2629.64311	18223.4625
2632.30041	18258.7625
2634.95605	18210.9625
2637.61004	18218.6625
2640.26238	18195.9625
2642.91306	18199.3625
2645.56209	18177.2625
2648.20948	18155.9625
2650.85521	18129.2625
2653.4993	18143.3625
2656.14175	18168.7625
2658.78255	18215.5625
2661.42171	18213.5625
2664.05923	18257.2625
2666.6951	18248.1625
2669.32934	18285.5625
2671.96194	18245.7625
2674.59291	18278.1625
2677.22224	18270.3625
2679.84993	18297.7625
2682.476	18249.1625
2685.10043	18239.6625
2687.72324	18232.5625
2690.34441	18209.3625
2692.96396	18213.9625
2695.58188	18202.2625
2698.19818	18184.4625
2700.81285	18201.7625
2703.4259	18242.7625
2706.03733	18311.5625
2708.64714	18317.1625
2711.25533	18299.7625
2713.86191	18267.5625
2716.46687	18326.3625
2719.07021	18341.1625
2721.67194	18411.8625
2724.27206	18398.8625
2726.87057	18445.9625
2729.46747	18462.9625
2732.06276	18450.5625
2734.65644	18385.8625
2737.24852	18420.7625
2739.83899	18374.0625
2742.42786	18393.6625
2745.01513	18355.3625
2747.60079	18368.4625
2750.18486	18345.5625
2752.76733	18387.8625
2755.3482	18408.0625
2757.92747	18462.7625
2760.50515	18451.4625
2763.08123	18484.8625
2765.65573	18430.5625
2768.22863	18467.7625
2770.79994	18404.8625
2773.36967	18443.8625
2775.9378	18420.1625
2778.50435	18422.9625
2781.06932	18435.6625
2783.6327	18419.1625
2786.1945	18433.4625
2788.75471	18436.9625
2791.31335	18392.6625
2793.87041	18399.8625
2796.42589	18346.4625
2798.97979	18362.8625
2801.53212	18337.6625
2804.08288	18335.5625
2806.63206	18272.8625
2809.17967	18232.4625
2811.72571	18195.7625
2814.27018	18229.0625
2816.81308	18182.0625
2819.35442	18161.8625
2821.89419	18129.3625
2824.43239	18127.9625
2826.96904	18150.3625
2829.50412	18155.7625
2832.03763	18111.9625
2834.56959	18113.6625
2837.1	18089.9625
2839.62884	18127.3625
2842.15613	18088.2625
2844.68186	18149.0625
2847.20604	18165.2625
2849.72867	18203.7625
2852.24974	18198.2625
2854.76927	18192.2625
2857.28724	18163.9625
2859.80367	18149.6625
2862.31855	18126.8625
2864.83189	18137.6625
2867.34368	18147.0625
2869.85393	18166.9625
2872.36264	18125.5625
2874.8698	18160.3625
2877.37543	18152.7625
2879.87952	18165.8625
2882.38207	18175.5625
2884.88308	18175.7625
2887.38256	18202.2625
2889.88051	18185.9625
2892.37692	18227.9625
2894.8718	18224.2625
2897.36515	18254.9625
2899.85698	18294.5625
2902.34727	18310.6625
2904.83604	18330.6625
2907.32328	18349.1625
2909.809	18365.9625
2912.29319	18348.5625
2914.77587	18310.8625
2917.25702	18370.3625
2919.73665	18363.4625
2922.21476	18338.5625
2924.69136	18300.4625
2927.16644	18373.9625
2929.64	18379.7625
2932.11205	18379.6625
2934.58258	18328.1625
2937.05161	18323.0625
2939.51912	18359.5625
2941.98513	18334.8625
2944.44962	18249.6625
2946.91261	18160.6625
2949.37409	18215.9625
2951.83407	18192.8625
2954.29254	18188.6625
2956.74951	18180.7625
2959.20498	18184.0625
2961.65895	18140.1625
2964.11142	18168.6625
2966.56239	18130.9625
2969.01186	18120.6625
2971.45984	18083.5625
2973.90632	18044.1625
2976.35131	18015.8625
2978.7948	17962.0625
2981.23681	17899.0625
2983.67732	17913.5625
2986.11635	17875.8625
2988.55388	17849.0625
2990.98993	17839.9625
2993.4245	17787.2625
2995.85758	17796.9625
2998.28917	17760.5625
3000.71928	17752.0625
3003.14791	17721.6625
3005.57506	17694.0625
3008.00073	17653.2625
3010.42493	17631.0625
3012.84764	17619.8625
3015.26888	17636.5625
3017.68865	17604.8625
3020.10694	17580.4625
3022.52376	17549.1625
3024.9391	17545.0625
3027.35298	17497.2625
3029.76539	17490.8625
3032.17632	17495.7625
3034.5858	17490.0625
3036.9938	17495.7625
3039.40034	17474.9625
3041.80542	17469.1625
3044.20903	17447.6625
3046.61118	17424.3625
3049.01187	17375.7625
3051.4111	17380.5625
3053.80888	17301.8625
3056.20519	17328.2625
3058.60005	17272.5625
3060.99345	17269.6625
3063.3854	17251.0625
3065.7759	17194.4625
3068.16494	17194.7625
3070.55254	17108.0625
3072.93868	17094.2625
3075.32338	17069.2625
3077.70662	17040.9625
3080.08842	17044.6625
3082.46878	16998.1625
3084.84769	17003.1625
3087.22515	17012.4625
3089.60118	17003.9625
3091.97576	17005.3625
3094.3489	17011.2625
3096.72061	17004.2625
3099.09087	16995.4625
3101.4597	16976.2625
3103.82709	17002.0625
3106.19305	16953.4625
3108.55757	16960.0625
3110.92066	16887.8625
3113.28232	16869.3625
3115.64255	16798.9625
3118.00134	16756.8625
3120.35871	16755.0625
3122.71466	16729.0625
3125.06917	16733.1625
3127.42226	16705.1625
3129.77393	16740.6625
3132.12417	16705.7625
3134.47299	16732.8625
3136.82039	16685.6625
3139.16636	16701.3625
3141.51092	16694.6625
3143.85406	16730.8625
3146.19579	16733.7625
3148.53609	16720.2625
3150.87499	16751.2625
3153.21246	16733.5625
3155.54853	16775.7625
3157.88318	16722.4625
3160.21642	16713.5625
3162.54826	16745.3625
3164.87868	16736.0625
3167.2077	16759.1625
3169.5353	16758.5625
3171.86151	16742.9625
3174.18631	16726.0625
3176.5097	16692.2625
3178.83169	16699.9625
3181.15228	16685.7625
3183.47147	16649.7625
3185.78926	16672.1625
3188.10565	16686.8625
3190.42065	16680.5625
3192.73424	16648.1625
3195.04645	16675.5625
3197.35725	16636.1625
3199.66667	16625.8625
3201.97469	16665.5625
3204.28132	16634.6625
3206.58656	16640.5625
3208.8904	16673.7625
3211.19287	16688.2625
3213.49394	16684.6625
3215.79363	16702.9625
3218.09193	16694.2625
3220.38884	16681.8625
3222.68438	16712.8625
3224.97853	16691.1625
3227.2713	16649.9625
3229.56269	16640.1625
3231.8527	16689.4625
3234.14133	16636.7625
3236.42858	16642.3625
3238.71446	16631.0625
3240.99896	16577.9625
3243.28209	16592.4625
3245.56384	16593.2625
3247.84423	16611.0625
3250.12324	16560.1625
3252.40088	16584.1625
3254.67715	16542.2625
3256.95205	16553.8625
3259.22558	16543.1625
3261.49775	16481.3625
3263.76855	16497.6625
3266.03799	16469.4625
3268.30606	16424.1625
3270.57277	16427.4625
3272.83812	16467.0625
3275.10211	16375.9625
3277.36474	16371.2625
3279.62601	16386.4625
3281.88593	16353.1625
3284.14448	16406.2625
3286.40168	16389.5625
3288.65753	16366.2625
3290.91202	16350.7625
3293.16516	16295.0625
3295.41695	16283.3625
3297.66738	16167.9625
3299.91647	16107.6625
3302.16421	16014.4625
3304.4106	15991.3625
3306.65564	15872.7625
3308.89933	15811.4625
3311.14169	15717.9625
3313.38269	15657.4625
3315.62236	15591.8625
3317.86068	15454.9625
3320.09766	15284.5625
3322.3333	15170.2625
3324.5676	15175.2625
3326.80056	14941.9625
3329.03219	14901.6625
3331.26248	4.2625
3333.49143	-0.1375
3335.71905	-2.4375
