Data from AgNPs_FTO_APTES_UA_5uM_CRN_50uM_R6G_10uM_NaF_0.1M_Addition_RamanShift__15__14-00-06-816.txt Node

Date: Mon Feb 07 14:00:06 GMT 2022
User: TCL
Spectrometer: QEP01345
Trigger mode: 4
Integration Time (sec): 7.000000E0
Scans to average: 10
Electric dark correction enabled: true
Nonlinearity correction enabled: false
Boxcar width: 0
XAxis mode: Raman Shifts
Number of Pixels in Spectrum: 1044
>>>>>Begin Spectral Data<<<<<
46.04893	0.6625
50.45542	-1.4375
54.85868	-2.2375
59.25871	-0.1375
63.6555	71.8625
68.04907	75.3625
72.43941	75.2625
76.82654	82.8625
81.21044	81.9625
85.59113	85.7625
89.96862	90.0625
94.34289	90.3625
98.71396	95.5625
103.08183	97.5625
107.4465	100.2625
111.80798	100.2625
116.16626	109.0625
120.52136	111.2625
124.87327	117.0625
129.222	127.7625
133.56755	135.0625
137.90993	151.4625
142.24913	161.9625
146.58517	186.8625
150.91804	217.8625
155.24774	266.5625
159.57429	331.5625
163.89768	428.1625
168.21792	583.2625
172.53501	786.6625
176.84895	1114.3625
181.15975	1562.8625
185.46741	2193.0625
189.77193	3039.9625
194.07331	4066.3625
198.37157	5243.2625
202.6667	6493.1625
206.9587	7703.3625
211.24758	8916.8625
215.53334	10126.2625
219.81599	11364.6625
224.09553	12756.0625
228.37195	14262.7625
232.64527	15935.6625
236.91549	17707.6625
241.18261	19472.7625
245.44663	21239.2625
249.70755	22744.5625
253.96539	24104.3625
258.22014	25267.2625
262.4718	26241.4625
266.72039	26922.7625
270.96589	27421.0625
275.20832	27603.7625
279.44768	27557.0625
283.68397	27467.6625
287.91719	27393.4625
292.14735	27376.9625
296.37445	27405.5625
300.59849	27477.3625
304.81948	27443.6625
309.03742	27280.1625
313.25231	26803.0625
317.46415	26097.1625
321.67296	25283.4625
325.87872	24681.7625
330.08145	24336.2625
334.28114	24257.1625
338.47781	24409.5625
342.67145	24628.3625
346.86207	24926.1625
351.04966	25339.0625
355.23424	25684.8625
359.4158	26044.7625
363.59435	26292.1625
367.76989	26438.8625
371.94243	26616.2625
376.11196	26715.7625
380.27849	26836.0625
384.44203	26956.0625
388.60257	27137.1625
392.76012	27442.9625
396.91468	27856.3625
401.06626	28280.2625
405.21485	28539.5625
409.36047	28452.7625
413.50311	28090.8625
417.64277	27807.3625
421.77947	27679.0625
425.9132	27732.8625
430.04396	27884.6625
434.17176	28043.9625
438.2966	28240.4625
442.41849	28614.7625
446.53742	29217.0625
450.6534	29965.3625
454.76644	30477.7625
458.87653	30809.3625
462.98368	30837.6625
467.08789	30794.2625
471.18916	30565.3625
475.2875	30509.1625
479.38291	30532.1625
483.4754	30450.1625
487.56496	30118.8625
491.6516	29503.6625
495.73531	28992.1625
499.81612	28676.8625
503.89401	28633.7625
507.96899	28713.6625
512.04106	28685.5625
516.11023	28456.5625
520.1765	28177.7625
524.23987	27824.7625
528.30034	27431.3625
532.35792	27182.0625
536.41261	26986.0625
540.46441	26803.2625
544.51333	26942.3625
548.55936	27334.7625
552.60252	28046.6625
556.64279	28746.8625
560.6802	29179.8625
564.71473	29470.6625
568.7464	30042.0625
572.7752	30856.3625
576.80114	31531.9625
580.82422	32101.1625
584.84444	32611.6625
588.86181	32794.2625
592.87633	32763.6625
596.888	32557.7625
600.89682	32358.8625
604.9028	32916.8625
608.90594	34678.6625
612.90624	36375.9625
616.90371	34205.2625
620.89834	29600.1625
624.89015	27641.2625
628.87913	27497.0625
632.86528	27749.0625
636.84862	27790.9625
640.82913	27448.1625
644.80683	26847.1625
648.78172	26359.2625
652.75379	26167.7625
656.72306	26294.7625
660.68952	26553.6625
664.65319	26544.2625
668.61405	26217.5625
672.57211	26142.9625
676.52738	26158.3625
680.47986	26205.0625
684.42955	26066.1625
688.37646	25993.8625
692.32058	26034.0625
696.26192	26303.9625
700.20048	26538.3625
704.13626	26761.8625
708.06928	26786.3625
711.99952	26729.8625
715.927	26633.6625
719.85171	26649.8625
723.77365	26533.9625
727.69284	26250.8625
731.60928	25961.2625
735.52295	25844.9625
739.43388	25776.9625
743.34206	25793.0625
747.24749	25909.2625
751.15017	26151.0625
755.05012	26641.1625
758.94733	27344.3625
762.8418	28639.8625
766.73354	30565.2625
770.62254	32230.7625
774.50882	32499.2625
778.39237	30987.1625
782.27321	28942.0625
786.15132	27359.8625
790.02671	26337.8625
793.89938	25835.8625
797.76935	25637.2625
801.6366	25590.4625
805.50115	25489.5625
809.36299	25388.8625
813.22213	25238.8625
817.07857	25159.1625
820.93231	25135.0625
824.78336	25024.4625
828.63172	24894.2625
832.47738	24800.0625
836.32036	24785.1625
840.16066	24814.9625
843.99827	24912.5625
847.8332	24815.8625
851.66546	24756.7625
855.49504	24761.0625
859.32195	24774.4625
863.1462	24663.7625
866.96777	24601.3625
870.78668	24516.8625
874.60293	24524.8625
878.41652	24499.0625
882.22745	24557.4625
886.03573	24609.1625
889.84136	24630.5625
893.64433	24505.1625
897.44466	24464.5625
901.24235	24368.3625
905.0374	24328.5625
908.8298	24260.9625
912.61957	24362.4625
916.40671	24612.5625
920.19121	24993.3625
923.97308	25141.0625
927.75233	25071.8625
931.52895	24818.4625
935.30295	24509.9625
939.07433	24133.7625
942.84309	23821.9625
946.60924	23616.9625
950.37278	23485.4625
954.13371	23462.5625
957.89203	23440.2625
961.64774	23394.0625
965.40086	23389.2625
969.15137	23298.0625
972.89929	23223.5625
976.64461	23081.4625
980.38733	23045.0625
984.12747	23067.9625
987.86502	23207.1625
991.59999	23409.1625
995.33237	23630.3625
999.06217	24066.6625
1002.78939	24499.7625
1006.51404	24812.7625
1010.23611	24991.2625
1013.95561	25140.1625
1017.67255	25224.0625
1021.38692	25117.3625
1025.09872	24843.9625
1028.80796	24808.3625
1032.51465	25101.3625
1036.21877	25481.4625
1039.92035	25591.7625
1043.61937	25487.5625
1047.31584	25261.2625
1051.00976	25066.6625
1054.70114	24977.4625
1058.38998	25191.0625
1062.07627	25503.2625
1065.76003	25827.2625
1069.44126	26079.3625
1073.11995	26300.2625
1076.79611	26505.2625
1080.46974	26621.5625
1084.14085	26732.4625
1087.80943	26928.7625
1091.47549	27248.8625
1095.13903	27362.4625
1098.80005	27247.6625
1102.45857	26730.7625
1106.11456	26183.2625
1109.76805	25843.7625
1113.41903	25841.1625
1117.06751	25964.5625
1120.71348	26127.8625
1124.35696	26362.2625
1127.99793	26629.9625
1131.63641	26852.4625
1135.2724	26727.6625
1138.90589	26651.4625
1142.5369	26634.2625
1146.16542	26791.4625
1149.79145	27099.4625
1153.415	27435.6625
1157.03607	27901.7625
1160.65467	28729.7625
1164.27079	29907.9625
1167.88443	31371.9625
1171.49561	33160.7625
1175.10432	35248.0625
1178.71056	37817.9625
1182.31434	40260.7625
1185.91565	41741.6625
1189.51451	42059.1625
1193.11091	41492.7625
1196.70485	40261.3625
1200.29634	38603.5625
1203.88538	37334.0625
1207.47197	36606.7625
1211.05612	36046.8625
1214.63782	35341.2625
1218.21708	34486.9625
1221.79391	33507.8625
1225.36829	32799.2625
1228.94024	32198.2625
1232.50976	31661.0625
1236.07685	31321.7625
1239.6415	31220.8625
1243.20374	31257.4625
1246.76355	31491.6625
1250.32093	31937.0625
1253.8759	32507.2625
1257.42845	33390.2625
1260.97859	34187.8625
1264.52631	34980.8625
1268.07163	35838.2625
1271.61453	36781.6625
1275.15503	37746.5625
1278.69312	38821.0625
1282.22882	39977.6625
1285.76211	41102.2625
1289.29301	42466.5625
1292.82151	44309.6625
1296.34761	46608.4625
1299.87133	49232.5625
1303.39266	51890.7625
1306.9116	54331.5625
1310.42815	56310.9625
1313.94233	57317.0625
1317.45412	57336.0625
1320.96354	57072.0625
1324.47058	56890.4625
1327.97525	56831.3625
1331.47754	56816.8625
1334.97747	56870.6625
1338.47502	56912.7625
1341.97022	56818.8625
1345.46305	56382.5625
1348.95352	55443.8625
1352.44163	54219.8625
1355.92738	53400.5625
1359.41078	53627.5625
1362.89183	54024.6625
1366.37053	52848.5625
1369.84688	49460.6625
1373.32088	45420.6625
1376.79254	42542.0625
1380.26186	41502.8625
1383.72883	41706.4625
1387.19347	42085.8625
1390.65578	42106.8625
1394.11575	42206.5625
1397.57339	42621.9625
1401.0287	43287.0625
1404.48168	43724.2625
1407.93234	43493.2625
1411.38068	42499.3625
1414.82669	40805.0625
1418.27039	38777.6625
1421.71177	36924.8625
1425.15083	35439.2625
1428.58758	34586.8625
1432.02203	34626.8625
1435.45416	35312.2625
1438.88399	36333.1625
1442.31151	37369.9625
1445.73673	38214.4625
1449.15965	38878.1625
1452.58027	39555.6625
1455.9986	40070.5625
1459.41463	40516.1625
1462.82837	41097.4625
1466.23982	41689.2625
1469.64898	42087.9625
1473.05586	42167.5625
1476.46045	42019.5625
1479.86276	41541.1625
1483.26279	41047.3625
1486.66054	40702.5625
1490.05602	40691.0625
1493.44922	40904.6625
1496.84016	41343.6625
1500.22882	42201.9625
1503.61521	43434.7625
1506.99934	44887.1625
1510.38121	46171.3625
1513.76081	46557.2625
1517.13816	46035.4625
1520.51324	44931.9625
1523.88607	43975.1625
1527.25665	43533.1625
1530.62498	43312.6625
1533.99105	43211.5625
1537.35488	42817.3625
1540.71647	42121.2625
1544.07581	41072.4625
1547.4329	39869.3625
1550.78776	38992.7625
1554.14038	38417.1625
1557.49077	38041.9625
1560.83892	37972.7625
1564.18484	37933.5625
1567.52853	38015.0625
1570.86999	38321.8625
1574.20922	38959.9625
1577.54624	39633.2625
1580.88103	40025.4625
1584.2136	40359.8625
1587.54395	41208.8625
1590.87208	42698.7625
1594.19801	44492.6625
1597.52172	46175.4625
1600.84321	46520.6625
1604.16251	44699.1625
1607.47959	41688.4625
1610.79447	38559.6625
1614.10715	35670.1625
1617.41763	33035.4625
1620.7259	31116.6625
1624.03199	29991.2625
1627.33587	29778.4625
1630.63757	30350.5625
1633.93707	32030.4625
1637.23439	34840.2625
1640.52951	38873.3625
1643.82246	43452.8625
1647.11321	47125.9625
1650.40179	48174.5625
1653.68819	45681.1625
1656.97241	40719.0625
1660.25446	35344.9625
1663.53433	30882.2625
1666.81203	27799.1625
1670.08756	25733.9625
1673.36092	24361.2625
1676.63211	23488.1625
1679.90115	22883.6625
1683.16801	22468.6625
1686.43272	22103.9625
1689.69527	21847.9625
1692.95567	21684.1625
1696.2139	21540.7625
1699.46999	21431.0625
1702.72392	21321.4625
1705.97571	21210.1625
1709.22535	21159.8625
1712.47284	21121.6625
1715.71819	21031.3625
1718.96139	20952.4625
1722.20246	20824.1625
1725.44139	20779.1625
1728.67818	20652.1625
1731.91284	20550.2625
1735.14537	20368.0625
1738.37576	20292.6625
1741.60403	20225.7625
1744.83017	20153.7625
1748.05418	20091.1625
1751.27607	20118.1625
1754.49584	20066.6625
1757.71349	20032.4625
1760.92903	20017.5625
1764.14244	19988.4625
1767.35375	19959.0625
1770.56294	19901.3625
1773.77002	19827.2625
1776.97499	19767.4625
1780.17785	19743.7625
1783.37861	19673.9625
1786.57727	19639.1625
1789.77382	19597.4625
1792.96828	19567.5625
1796.16064	19498.9625
1799.3509	19500.0625
1802.53907	19436.8625
1805.72514	19336.0625
1808.90913	19307.4625
1812.09102	19256.5625
1815.27083	19224.7625
1818.44856	19181.1625
1821.6242	19113.0625
1824.79776	19140.4625
1827.96924	19103.4625
1831.13864	19089.8625
1834.30597	19095.8625
1837.47122	19058.8625
1840.6344	19043.7625
1843.7955	19028.9625
1846.95454	19035.4625
1850.11151	19023.8625
1853.26642	19004.7625
1856.41926	18996.3625
1859.57004	18972.3625
1862.71876	18981.5625
1865.86542	18911.8625
1869.01003	18900.8625
1872.15258	18866.2625
1875.29308	18850.6625
1878.43152	18814.6625
1881.56792	18759.3625
1884.70227	18749.7625
1887.83457	18713.5625
1890.96482	18704.4625
1894.09304	18670.5625
1897.21921	18621.3625
1900.34335	18634.7625
1903.46544	18613.0625
1906.58551	18609.3625
1909.70353	18583.7625
1912.81953	18521.3625
1915.93349	18492.6625
1919.04543	18474.7625
1922.15534	18406.1625
1925.26322	18358.3625
1928.36908	18302.6625
1931.47292	18273.6625
1934.57473	18222.4625
1937.67453	18173.5625
1940.77232	18119.2625
1943.86808	18090.7625
1946.96184	18026.5625
1950.05358	18006.5625
1953.14331	17933.2625
1956.23103	17864.2625
1959.31675	17801.6625
1962.40046	17739.3625
1965.48217	17682.2625
1968.56188	17633.2625
1971.63959	17574.2625
1974.7153	17536.3625
1977.78901	17513.0625
1980.86073	17430.7625
1983.93046	17364.9625
1986.99819	17280.2625
1990.06394	17237.6625
1993.1277	17193.2625
1996.18947	17135.3625
1999.24925	17113.1625
2002.30706	17042.0625
2005.36288	16978.9625
2008.41672	16976.8625
2011.46859	16916.0625
2014.51848	16876.6625
2017.56639	16787.2625
2020.61233	16732.6625
2023.6563	16717.9625
2026.6983	16660.6625
2029.73833	16606.0625
2032.7764	16591.3625
2035.8125	16533.8625
2038.84664	16534.8625
2041.87881	16490.9625
2044.90903	16449.1625
2047.93729	16420.5625
2050.96359	16395.1625
2053.98794	16372.9625
2057.01034	16371.0625
2060.03078	16361.4625
2063.04927	16332.6625
2066.06582	16320.6625
2069.08042	16306.2625
2072.09307	16256.5625
2075.10378	16284.6625
2078.11255	16247.8625
2081.11938	16249.2625
2084.12426	16262.2625
2087.12722	16244.6625
2090.12824	16206.7625
2093.12732	16170.9625
2096.12447	16183.8625
2099.11969	16228.6625
2102.11299	16212.2625
2105.10435	16188.0625
2108.09379	16198.6625
2111.08131	16175.9625
2114.0669	16195.5625
2117.05057	16246.5625
2120.03233	16236.4625
2123.01216	16247.9625
2125.99008	16291.2625
2128.96609	16275.5625
2131.94018	16279.4625
2134.91236	16292.4625
2137.88263	16283.2625
2140.851	16318.9625
2143.81746	16346.1625
2146.78201	16315.7625
2149.74466	16271.4625
2152.7054	16275.2625
2155.66425	16271.0625
2158.6212	16222.4625
2161.57625	16242.9625
2164.52941	16220.8625
2167.48067	16255.8625
2170.43004	16237.1625
2173.37752	16188.6625
2176.32311	16204.0625
2179.26681	16209.1625
2182.20863	16210.7625
2185.14856	16187.5625
2188.08661	16214.7625
2191.02278	16216.9625
2193.95707	16194.3625
2196.88948	16161.9625
2199.82001	16146.0625
2202.74867	16131.0625
2205.67545	16108.9625
2208.60037	16093.8625
2211.52341	16080.6625
2214.44458	16053.1625
2217.36388	16015.3625
2220.28132	15983.5625
2223.1969	15920.9625
2226.11061	15922.7625
2229.02246	15911.8625
2231.93245	15835.0625
2234.84058	15808.1625
2237.74686	15754.2625
2240.65128	15736.8625
2243.55385	15712.1625
2246.45456	15726.3625
2249.35343	15708.4625
2252.25044	15622.9625
2255.14561	15626.4625
2258.03893	15608.2625
2260.93041	15567.2625
2263.82004	15531.6625
2266.70783	15493.1625
2269.59378	15437.8625
2272.4779	15390.6625
2275.36017	15350.4625
2278.24061	15344.3625
2281.11922	15307.2625
2283.996	15269.9625
2286.87094	15235.4625
2289.74405	15195.7625
2292.61534	15179.3625
2295.4848	15176.0625
2298.35243	15198.3625
2301.21824	15191.5625
2304.08223	15170.4625
2306.94439	15197.5625
2309.80474	15195.0625
2312.66327	15175.9625
2315.51999	15176.3625
2318.37489	15135.2625
2321.22797	15142.4625
2324.07925	15111.9625
2326.92871	15060.5625
2329.77637	15064.4625
2332.62222	15036.6625
2335.46626	15004.9625
2338.3085	15003.1625
2341.14893	14984.1625
2343.98756	14983.7625
2346.8244	15004.1625
2349.65943	14969.3625
2352.49267	14981.4625
2355.32411	14980.3625
2358.15376	14976.8625
2360.98161	14934.9625
2363.80768	14948.2625
2366.63195	14953.7625
2369.45444	14925.5625
2372.27514	14858.3625
2375.09405	14900.9625
2377.91118	14849.8625
2380.72652	14822.9625
2383.54009	14812.5625
2386.35187	14768.1625
2389.16188	14725.5625
2391.97011	14701.6625
2394.77657	14639.9625
2397.58125	14624.8625
2400.38416	14606.6625
2403.18529	14596.0625
2405.98466	14571.9625
2408.78226	14548.1625
2411.57809	14510.5625
2414.37216	14513.8625
2417.16446	14498.5625
2419.955	14462.0625
2422.74378	14464.7625
2425.5308	14436.5625
2428.31606	14417.9625
2431.09956	14427.9625
2433.88131	14404.6625
2436.6613	14419.4625
2439.43954	14390.4625
2442.21603	14388.1625
2444.99077	14370.4625
2447.76377	14383.5625
2450.53501	14342.7625
2453.30451	14341.3625
2456.07226	14329.8625
2458.83827	14324.9625
2461.60254	14327.2625
2464.36507	14330.4625
2467.12586	14297.1625
2469.88492	14303.9625
2472.64224	14301.3625
2475.39782	14334.5625
2478.15167	14342.5625
2480.90379	14298.3625
2483.65417	14302.4625
2486.40283	14294.9625
2489.14976	14318.2625
2491.89497	14322.3625
2494.63845	14321.3625
2497.3802	14304.6625
2500.12024	14291.4625
2502.85855	14287.4625
2505.59514	14275.1625
2508.33002	14286.1625
2511.06318	14242.4625
2513.79462	14245.1625
2516.52435	14220.1625
2519.25237	14197.1625
2521.97867	14192.5625
2524.70327	14191.3625
2527.42616	14175.9625
2530.14734	14173.6625
2532.86681	14178.9625
2535.58458	14163.2625
2538.30065	14161.0625
2541.01501	14154.8625
2543.72768	14148.4625
2546.43864	14135.6625
2549.14791	14099.1625
2551.85548	14096.5625
2554.56136	14068.8625
2557.26554	14023.3625
2559.96803	14008.6625
2562.66883	13989.0625
2565.36794	13980.0625
2568.06536	13977.9625
2570.7611	13950.5625
2573.45514	13932.5625
2576.14751	13921.4625
2578.83819	13897.5625
2581.52719	13905.7625
2584.21451	13881.2625
2586.90015	13888.1625
2589.58411	13862.7625
2592.2664	13879.1625
2594.94701	13843.8625
2597.62594	13835.2625
2600.30321	13811.1625
2602.9788	13819.2625
2605.65273	13813.2625
2608.32498	13807.7625
2610.99557	13770.8625
2613.66449	13762.8625
2616.33175	13800.5625
2618.99734	13804.6625
2621.66128	13768.0625
2624.32355	13772.9625
2626.98416	13746.0625
2629.64311	13773.6625
2632.30041	13781.5625
2634.95605	13740.1625
2637.61004	13719.1625
2640.26238	13726.7625
2642.91306	13713.8625
2645.56209	13679.7625
2648.20948	13704.5625
2650.85521	13705.6625
2653.4993	13716.0625
2656.14175	13687.6625
2658.78255	13734.2625
2661.42171	13726.3625
2664.05923	13737.3625
2666.6951	13731.6625
2669.32934	13761.3625
2671.96194	13728.2625
2674.59291	13751.7625
2677.22224	13742.5625
2679.84993	13744.2625
2682.476	13705.4625
2685.10043	13712.0625
2687.72324	13710.1625
2690.34441	13692.1625
2692.96396	13697.8625
2695.58188	13698.8625
2698.19818	13684.9625
2700.81285	13704.9625
2703.4259	13686.4625
2706.03733	13771.2625
2708.64714	13719.4625
2711.25533	13733.4625
2713.86191	13703.2625
2716.46687	13743.1625
2719.07021	13740.4625
2721.67194	13768.0625
2724.27206	13770.2625
2726.87057	13754.1625
2729.46747	13776.4625
2732.06276	13798.3625
2734.65644	13769.5625
2737.24852	13756.4625
2739.83899	13766.1625
2742.42786	13741.2625
2745.01513	13709.2625
2747.60079	13741.2625
2750.18486	13681.6625
2752.76733	13698.3625
2755.3482	13682.3625
2757.92747	13706.3625
2760.50515	13675.5625
2763.08123	13678.3625
2765.65573	13671.8625
2768.22863	13685.9625
2770.79994	13648.8625
2773.36967	13661.2625
2775.9378	13672.5625
2778.50435	13649.1625
2781.06932	13631.3625
2783.6327	13645.8625
2786.1945	13647.7625
2788.75471	13655.1625
2791.31335	13605.7625
2793.87041	13568.5625
2796.42589	13561.2625
2798.97979	13564.8625
2801.53212	13542.4625
2804.08288	13519.0625
2806.63206	13452.4625
2809.17967	13421.7625
2811.72571	13420.9625
2814.27018	13414.0625
2816.81308	13380.2625
2819.35442	13355.2625
2821.89419	13339.6625
2824.43239	13340.0625
2826.96904	13320.3625
2829.50412	13302.7625
2832.03763	13257.6625
2834.56959	13268.0625
2837.1	13248.7625
2839.62884	13279.2625
2842.15613	13242.5625
2844.68186	13299.6625
2847.20604	13325.7625
2849.72867	13335.2625
2852.24974	13294.5625
2854.76927	13309.2625
2857.28724	13295.2625
2859.80367	13261.2625
2862.31855	13263.5625
2864.83189	13243.4625
2867.34368	13213.4625
2869.85393	13207.7625
2872.36264	13168.5625
2874.8698	13148.1625
2877.37543	13155.1625
2879.87952	13135.1625
2882.38207	13165.4625
2884.88308	13139.2625
2887.38256	13150.4625
2889.88051	13170.7625
2892.37692	13154.6625
2894.8718	13157.5625
2897.36515	13165.5625
2899.85698	13160.6625
2902.34727	13209.3625
2904.83604	13206.5625
2907.32328	13223.7625
2909.809	13217.3625
2912.29319	13252.7625
2914.77587	13256.4625
2917.25702	13248.9625
2919.73665	13253.9625
2922.21476	13250.6625
2924.69136	13197.9625
2927.16644	13213.2625
2929.64	13208.4625
2932.11205	13175.3625
2934.58258	13117.7625
2937.05161	13168.9625
2939.51912	13135.3625
2941.98513	13133.4625
2944.44962	13107.7625
2946.91261	13033.2625
2949.37409	13055.2625
2951.83407	13036.9625
2954.29254	13053.9625
2956.74951	13019.4625
2959.20498	13010.5625
2961.65895	12970.9625
2964.11142	12993.2625
2966.56239	12933.2625
2969.01186	12963.2625
2971.45984	12914.3625
2973.90632	12929.0625
2976.35131	12895.0625
2978.7948	12882.5625
2981.23681	12829.1625
2983.67732	12855.5625
2986.11635	12778.2625
2988.55388	12757.3625
2990.98993	12751.5625
2993.4245	12703.2625
2995.85758	12669.6625
2998.28917	12597.7625
3000.71928	12615.8625
3003.14791	12601.7625
3005.57506	12579.6625
3008.00073	12503.4625
3010.42493	12408.3625
3012.84764	12471.6625
3015.26888	12466.4625
3017.68865	12404.7625
3020.10694	12416.4625
3022.52376	12384.7625
3024.9391	12396.8625
3027.35298	12368.3625
3029.76539	12368.9625
3032.17632	12301.9625
3034.5858	12329.9625
3036.9938	12293.1625
3039.40034	12312.3625
3041.80542	12327.2625
3044.20903	12287.8625
3046.61118	12279.3625
3049.01187	12227.4625
3051.4111	12258.3625
3053.80888	12221.3625
3056.20519	12200.3625
3058.60005	12164.3625
3060.99345	12155.3625
3063.3854	12138.6625
3065.7759	12080.8625
3068.16494	12012.1625
3070.55254	11989.1625
3072.93868	11966.9625
3075.32338	11949.7625
3077.70662	11915.9625
3080.08842	11853.5625
3082.46878	11863.9625
3084.84769	11840.0625
3087.22515	11819.6625
3089.60118	11798.1625
3091.97576	11827.8625
3094.3489	11808.7625
3096.72061	11814.1625
3099.09087	11798.7625
3101.4597	11812.6625
3103.82709	11794.5625
3106.19305	11802.2625
3108.55757	11779.1625
3110.92066	11745.3625
3113.28232	11749.9625
3115.64255	11725.0625
3118.00134	11702.2625
3120.35871	11689.2625
3122.71466	11643.7625
3125.06917	11617.8625
3127.42226	11584.7625
3129.77393	11575.6625
3132.12417	11523.5625
3134.47299	11535.1625
3136.82039	11533.6625
3139.16636	11523.2625
3141.51092	11514.3625
3143.85406	11501.4625
3146.19579	11513.3625
3148.53609	11512.6625
3150.87499	11541.0625
3153.21246	11536.6625
3155.54853	11542.5625
3157.88318	11542.6625
3160.21642	11538.1625
3162.54826	11556.9625
3164.87868	11544.0625
3167.2077	11542.2625
3169.5353	11560.0625
3171.86151	11522.7625
3174.18631	11506.7625
3176.5097	11513.4625
3178.83169	11505.4625
3181.15228	11486.8625
3183.47147	11468.0625
3185.78926	11460.3625
3188.10565	11421.8625
3190.42065	11417.9625
3192.73424	11431.8625
3195.04645	11432.2625
3197.35725	11385.4625
3199.66667	11370.6625
3201.97469	11394.7625
3204.28132	11412.2625
3206.58656	11415.9625
3208.8904	11406.8625
3211.19287	11402.4625
3213.49394	11422.6625
3215.79363	11426.5625
3218.09193	11402.6625
3220.38884	11392.5625
3222.68438	11426.5625
3224.97853	11382.4625
3227.2713	11386.7625
3229.56269	11380.9625
3231.8527	11349.4625
3234.14133	11336.7625
3236.42858	11319.8625
3238.71446	11284.6625
3240.99896	11282.4625
3243.28209	11265.4625
3245.56384	11255.4625
3247.84423	11248.6625
3250.12324	11244.9625
3252.40088	11203.6625
3254.67715	11210.5625
3256.95205	11204.6625
3259.22558	11192.1625
3261.49775	11157.4625
3263.76855	11153.9625
3266.03799	11144.3625
3268.30606	11110.2625
3270.57277	11106.5625
3272.83812	11059.6625
3275.10211	11022.2625
3277.36474	11034.7625
3279.62601	11018.3625
3281.88593	11005.5625
3284.14448	11008.3625
3286.40168	11039.4625
3288.65753	11026.1625
3290.91202	10985.7625
3293.16516	10965.7625
3295.41695	10921.3625
3297.66738	10864.8625
3299.91647	10809.6625
3302.16421	10767.5625
3304.4106	10702.6625
3306.65564	10643.5625
3308.89933	10557.0625
3311.14169	10488.4625
3313.38269	10405.2625
3315.62236	10353.8625
3317.86068	10269.6625
3320.09766	10192.7625
3322.3333	10104.9625
3324.5676	10067.5625
3326.80056	9904.0625
3329.03219	9806.5625
3331.26248	2.3625
3333.49143	0.2625
3335.71905	0.0625
