Data from AgNPs_FTO_APTES_UA_5uM_CRN_50uM_R6G_10uM_NaF_0.1M_Addition_RamanShift__43__14-32-46-859.txt Node

Date: Mon Feb 07 14:32:46 GMT 2022
User: TCL
Spectrometer: QEP01345
Trigger mode: 4
Integration Time (sec): 7.000000E0
Scans to average: 10
Electric dark correction enabled: true
Nonlinearity correction enabled: false
Boxcar width: 0
XAxis mode: Raman Shifts
Number of Pixels in Spectrum: 1044
>>>>>Begin Spectral Data<<<<<
46.04893	-0.7375
50.45542	-1.2375
54.85868	-0.6375
59.25871	0.3625
63.6555	70.1625
68.04907	76.4625
72.43941	81.3625
76.82654	83.3625
81.21044	83.9625
85.59113	86.4625
89.96862	89.1625
94.34289	91.0625
98.71396	96.6625
103.08183	99.2625
107.4465	101.4625
111.80798	105.5625
116.16626	107.2625
120.52136	114.5625
124.87327	121.2625
129.222	128.4625
133.56755	138.5625
137.90993	151.8625
142.24913	167.3625
146.58517	196.0625
150.91804	224.8625
155.24774	270.6625
159.57429	339.4625
163.89768	444.6625
168.21792	599.8625
172.53501	819.9625
176.84895	1135.7625
181.15975	1607.1625
185.46741	2265.7625
189.77193	3126.8625
194.07331	4180.3625
198.37157	5399.8625
202.6667	6667.2625
206.9587	7912.9625
211.24758	9146.2625
215.53334	10386.0625
219.81599	11674.1625
224.09553	13093.5625
228.37195	14632.7625
232.64527	16332.6625
236.91549	18076.2625
241.18261	19893.3625
245.44663	21607.8625
249.70755	23142.8625
253.96539	24543.6625
258.22014	25703.2625
262.4718	26717.8625
266.72039	27353.6625
270.96589	27767.9625
275.20832	27899.8625
279.44768	27767.7625
283.68397	27607.2625
287.91719	27475.9625
292.14735	27390.0625
296.37445	27436.5625
300.59849	27506.7625
304.81948	27576.0625
309.03742	27491.0625
313.25231	27188.4625
317.46415	26611.8625
321.67296	25975.1625
325.87872	25403.9625
330.08145	25134.3625
334.28114	25063.2625
338.47781	25133.9625
342.67145	25357.4625
346.86207	25644.4625
351.04966	26001.9625
355.23424	26424.8625
359.4158	26751.9625
363.59435	27072.9625
367.76989	27278.5625
371.94243	27438.5625
376.11196	27499.8625
380.27849	27553.3625
384.44203	27635.0625
388.60257	27816.3625
392.76012	28209.3625
396.91468	28637.1625
401.06626	29056.0625
405.21485	29366.4625
409.36047	29248.5625
413.50311	29013.5625
417.64277	28877.4625
421.77947	28992.0625
425.9132	29158.5625
430.04396	29396.6625
434.17176	29561.4625
438.2966	29688.1625
442.41849	30090.3625
446.53742	30798.7625
450.6534	31614.4625
454.76644	32196.6625
458.87653	32412.8625
462.98368	32389.3625
467.08789	32129.3625
471.18916	31788.5625
475.2875	31542.4625
479.38291	31524.7625
483.4754	31444.0625
487.56496	31199.2625
491.6516	30507.6625
495.73531	29868.2625
499.81612	29404.0625
503.89401	29380.4625
507.96899	29466.0625
512.04106	29487.0625
516.11023	29266.3625
520.1765	28822.6625
524.23987	28309.9625
528.30034	27987.1625
532.35792	27679.2625
536.41261	27433.5625
540.46441	27232.0625
544.51333	27280.0625
548.55936	27631.7625
552.60252	28279.6625
556.64279	29003.9625
560.6802	29638.1625
564.71473	30110.1625
568.7464	30911.7625
572.7752	32100.2625
576.80114	33459.0625
580.82422	34593.5625
584.84444	35818.5625
588.86181	37247.6625
592.87633	38180.3625
596.888	37603.9625
600.89682	35713.6625
604.9028	34677.3625
608.90594	35418.7625
612.90624	36364.8625
616.90371	34070.4625
620.89834	29738.8625
624.89015	27885.0625
628.87913	27785.1625
632.86528	27998.4625
636.84862	27989.1625
640.82913	27483.3625
644.80683	26903.9625
648.78172	26503.3625
652.75379	26497.3625
656.72306	26666.3625
660.68952	26895.7625
664.65319	26729.4625
668.61405	26375.7625
672.57211	26336.7625
676.52738	26405.7625
680.47986	26421.0625
684.42955	26272.0625
688.37646	26157.9625
692.32058	26290.1625
696.26192	26606.5625
700.20048	26993.0625
704.13626	27228.0625
708.06928	27359.8625
711.99952	27343.4625
715.927	27360.4625
719.85171	27356.9625
723.77365	27142.8625
727.69284	26731.9625
731.60928	26358.9625
735.52295	26191.0625
739.43388	26149.6625
743.34206	26212.6625
747.24749	26395.9625
751.15017	26716.0625
755.05012	27250.5625
758.94733	28064.6625
762.8418	29265.8625
766.73354	30958.8625
770.62254	32373.4625
774.50882	32295.9625
778.39237	30789.5625
782.27321	28932.4625
786.15132	27538.7625
790.02671	26592.4625
793.89938	26150.1625
797.76935	25912.6625
801.6366	25895.8625
805.50115	25865.1625
809.36299	25752.6625
813.22213	25654.5625
817.07857	25544.3625
820.93231	25457.2625
824.78336	25249.7625
828.63172	25039.9625
832.47738	24904.6625
836.32036	24845.4625
840.16066	24858.3625
843.99827	24932.4625
847.8332	24904.3625
851.66546	24872.6625
855.49504	24866.7625
859.32195	24849.6625
863.1462	24791.0625
866.96777	24734.9625
870.78668	24673.5625
874.60293	24664.2625
878.41652	24601.1625
882.22745	24650.0625
886.03573	24719.4625
889.84136	24718.6625
893.64433	24665.6625
897.44466	24591.5625
901.24235	24521.8625
905.0374	24434.4625
908.8298	24453.8625
912.61957	24526.1625
916.40671	24871.5625
920.19121	25382.3625
923.97308	25635.4625
927.75233	25483.4625
931.52895	25053.4625
935.30295	24542.4625
939.07433	24124.2625
942.84309	23763.5625
946.60924	23595.8625
950.37278	23514.9625
954.13371	23494.4625
957.89203	23490.1625
961.64774	23543.2625
965.40086	23525.8625
969.15137	23452.2625
972.89929	23267.8625
976.64461	23102.2625
980.38733	23048.7625
984.12747	23038.9625
987.86502	23130.3625
991.59999	23259.4625
995.33237	23403.2625
999.06217	23662.6625
1002.78939	24122.2625
1006.51404	24463.0625
1010.23611	24797.3625
1013.95561	25086.0625
1017.67255	25178.9625
1021.38692	25008.2625
1025.09872	24627.7625
1028.80796	24385.2625
1032.51465	24367.1625
1036.21877	24539.9625
1039.92035	24664.5625
1043.61937	24731.3625
1047.31584	24710.6625
1051.00976	24698.4625
1054.70114	24763.4625
1058.38998	24953.6625
1062.07627	25298.4625
1065.76003	25674.6625
1069.44126	26001.7625
1073.11995	26361.0625
1076.79611	26665.0625
1080.46974	26766.4625
1084.14085	26861.8625
1087.80943	27114.7625
1091.47549	27425.5625
1095.13903	27595.1625
1098.80005	27308.8625
1102.45857	26679.5625
1106.11456	26031.6625
1109.76805	25711.7625
1113.41903	25637.6625
1117.06751	25793.5625
1120.71348	26013.2625
1124.35696	26272.4625
1127.99793	26554.5625
1131.63641	26832.1625
1135.2724	26865.1625
1138.90589	26832.5625
1142.5369	27073.7625
1146.16542	27433.9625
1149.79145	27886.7625
1153.415	28337.1625
1157.03607	28936.3625
1160.65467	30095.5625
1164.27079	31758.5625
1167.88443	33641.0625
1171.49561	35397.0625
1175.10432	37272.2625
1178.71056	39624.0625
1182.31434	41817.3625
1185.91565	42900.0625
1189.51451	42702.3625
1193.11091	41918.0625
1196.70485	40761.6625
1200.29634	39587.4625
1203.88538	38911.1625
1207.47197	38944.4625
1211.05612	39004.5625
1214.63782	38308.7625
1218.21708	36881.0625
1221.79391	35198.5625
1225.36829	33892.8625
1228.94024	33089.1625
1232.50976	32492.2625
1236.07685	32087.0625
1239.6415	31896.2625
1243.20374	31985.1625
1246.76355	32269.2625
1250.32093	32760.0625
1253.8759	33462.6625
1257.42845	34322.7625
1260.97859	35225.1625
1264.52631	36208.9625
1268.07163	37187.8625
1271.61453	38324.9625
1275.15503	39405.1625
1278.69312	40892.7625
1282.22882	42482.0625
1285.76211	44391.6625
1289.29301	46703.2625
1292.82151	49538.4625
1296.34761	52914.3625
1299.87133	56643.2625
1303.39266	59980.0625
1306.9116	62290.1625
1310.42815	63515.2625
1313.94233	63751.0625
1317.45412	63194.3625
1320.96354	62592.8625
1324.47058	62305.8625
1327.97525	62422.0625
1331.47754	62480.9625
1334.97747	62190.0625
1338.47502	61574.0625
1341.97022	60531.8625
1345.46305	59176.8625
1348.95352	57885.2625
1352.44163	57001.2625
1355.92738	57113.5625
1359.41078	58183.0625
1362.89183	58946.5625
1366.37053	57937.9625
1369.84688	54198.8625
1373.32088	49036.8625
1376.79254	45418.4625
1380.26186	44497.5625
1383.72883	45173.3625
1387.19347	45886.1625
1390.65578	45860.3625
1394.11575	45931.6625
1397.57339	46659.5625
1401.0287	47688.6625
1404.48168	48381.9625
1407.93234	48078.8625
1411.38068	46548.7625
1414.82669	44244.1625
1418.27039	41630.5625
1421.71177	39259.8625
1425.15083	37457.4625
1428.58758	36560.8625
1432.02203	36895.3625
1435.45416	38059.3625
1438.88399	39601.2625
1442.31151	40839.5625
1445.73673	41645.6625
1449.15965	42349.4625
1452.58027	42645.5625
1455.9986	42759.9625
1459.41463	42957.9625
1462.82837	43437.5625
1466.23982	44097.4625
1469.64898	44663.9625
1473.05586	44989.1625
1476.46045	44823.4625
1479.86276	44413.4625
1483.26279	43767.5625
1486.66054	43367.3625
1490.05602	43318.3625
1493.44922	43494.9625
1496.84016	43806.5625
1500.22882	44269.1625
1503.61521	44902.4625
1506.99934	45781.9625
1510.38121	46505.6625
1513.76081	46772.5625
1517.13816	46570.9625
1520.51324	46250.3625
1523.88607	46357.1625
1527.25665	46871.7625
1530.62498	47306.4625
1533.99105	47283.9625
1537.35488	46621.6625
1540.71647	45263.7625
1544.07581	43664.7625
1547.4329	41908.0625
1550.78776	40465.5625
1554.14038	39440.8625
1557.49077	38787.4625
1560.83892	38449.9625
1564.18484	38251.6625
1567.52853	38364.3625
1570.86999	38810.7625
1574.20922	39876.9625
1577.54624	41107.6625
1580.88103	41975.3625
1584.2136	43155.2625
1587.54395	44874.5625
1590.87208	47312.1625
1594.19801	49952.2625
1597.52172	51968.1625
1600.84321	51894.2625
1604.16251	48758.1625
1607.47959	44330.4625
1610.79447	40039.0625
1614.10715	36334.7625
1617.41763	33455.7625
1620.7259	31534.8625
1624.03199	30598.5625
1627.33587	30603.7625
1630.63757	31707.4625
1633.93707	34126.5625
1637.23439	38169.0625
1640.52951	43944.7625
1643.82246	50767.7625
1647.11321	56121.6625
1650.40179	56896.8625
1653.68819	52252.6625
1656.97241	44799.3625
1660.25446	37402.7625
1663.53433	31880.7625
1666.81203	28212.4625
1670.08756	25889.7625
1673.36092	24423.3625
1676.63211	23502.9625
1679.90115	22853.2625
1683.16801	22366.0625
1686.43272	22007.7625
1689.69527	21740.1625
1692.95567	21570.8625
1696.2139	21379.2625
1699.46999	21263.1625
1702.72392	21159.5625
1705.97571	21028.6625
1709.22535	20979.6625
1712.47284	20914.8625
1715.71819	20820.2625
1718.96139	20745.2625
1722.20246	20645.4625
1725.44139	20538.0625
1728.67818	20416.5625
1731.91284	20270.0625
1735.14537	20158.5625
1738.37576	20018.0625
1741.60403	19933.0625
1744.83017	19831.1625
1748.05418	19777.8625
1751.27607	19753.5625
1754.49584	19716.8625
1757.71349	19734.9625
1760.92903	19690.9625
1764.14244	19667.4625
1767.35375	19639.0625
1770.56294	19601.8625
1773.77002	19507.1625
1776.97499	19480.0625
1780.17785	19398.6625
1783.37861	19364.0625
1786.57727	19320.2625
1789.77382	19261.7625
1792.96828	19203.3625
1796.16064	19156.4625
1799.3509	19104.4625
1802.53907	19069.4625
1805.72514	18983.6625
1808.90913	18933.8625
1812.09102	18855.9625
1815.27083	18806.7625
1818.44856	18802.3625
1821.6242	18777.6625
1824.79776	18722.5625
1827.96924	18703.1625
1831.13864	18702.2625
1834.30597	18690.6625
1837.47122	18666.6625
1840.6344	18615.1625
1843.7955	18609.4625
1846.95454	18608.9625
1850.11151	18619.6625
1853.26642	18548.0625
1856.41926	18553.2625
1859.57004	18578.1625
1862.71876	18556.0625
1865.86542	18486.5625
1869.01003	18444.7625
1872.15258	18403.3625
1875.29308	18411.9625
1878.43152	18343.5625
1881.56792	18361.3625
1884.70227	18350.2625
1887.83457	18270.3625
1890.96482	18264.0625
1894.09304	18215.7625
1897.21921	18175.4625
1900.34335	18167.7625
1903.46544	18154.1625
1906.58551	18115.7625
1909.70353	18103.7625
1912.81953	18028.4625
1915.93349	18029.3625
1919.04543	18000.6625
1922.15534	17946.5625
1925.26322	17870.5625
1928.36908	17834.4625
1931.47292	17781.9625
1934.57473	17757.0625
1937.67453	17688.5625
1940.77232	17638.5625
1943.86808	17579.4625
1946.96184	17512.7625
1950.05358	17535.4625
1953.14331	17430.1625
1956.23103	17406.6625
1959.31675	17351.7625
1962.40046	17257.9625
1965.48217	17218.3625
1968.56188	17162.2625
1971.63959	17106.8625
1974.7153	17030.9625
1977.78901	16953.1625
1980.86073	16896.5625
1983.93046	16837.7625
1986.99819	16816.3625
1990.06394	16759.8625
1993.1277	16703.2625
1996.18947	16674.8625
1999.24925	16607.0625
2002.30706	16564.7625
2005.36288	16509.5625
2008.41672	16473.0625
2011.46859	16405.7625
2014.51848	16367.6625
2017.56639	16310.2625
2020.61233	16249.9625
2023.6563	16226.8625
2026.6983	16148.2625
2029.73833	16133.5625
2032.7764	16098.0625
2035.8125	16064.1625
2038.84664	15999.6625
2041.87881	15969.0625
2044.90903	15965.8625
2047.93729	15928.0625
2050.96359	15903.5625
2053.98794	15866.6625
2057.01034	15858.8625
2060.03078	15821.2625
2063.04927	15799.7625
2066.06582	15798.6625
2069.08042	15833.9625
2072.09307	15763.9625
2075.10378	15740.6625
2078.11255	15726.3625
2081.11938	15733.8625
2084.12426	15711.9625
2087.12722	15727.3625
2090.12824	15705.6625
2093.12732	15679.6625
2096.12447	15674.8625
2099.11969	15661.8625
2102.11299	15669.9625
2105.10435	15669.2625
2108.09379	15655.9625
2111.08131	15697.7625
2114.0669	15673.3625
2117.05057	15691.2625
2120.03233	15732.9625
2123.01216	15688.3625
2125.99008	15707.6625
2128.96609	15683.2625
2131.94018	15712.9625
2134.91236	15666.7625
2137.88263	15703.5625
2140.851	15685.9625
2143.81746	15695.2625
2146.78201	15678.8625
2149.74466	15630.6625
2152.7054	15662.4625
2155.66425	15643.6625
2158.6212	15621.9625
2161.57625	15623.6625
2164.52941	15596.1625
2167.48067	15628.9625
2170.43004	15577.4625
2173.37752	15568.9625
2176.32311	15581.0625
2179.26681	15581.5625
2182.20863	15586.7625
2185.14856	15576.4625
2188.08661	15578.9625
2191.02278	15592.0625
2193.95707	15564.6625
2196.88948	15532.8625
2199.82001	15494.3625
2202.74867	15490.4625
2205.67545	15472.7625
2208.60037	15416.5625
2211.52341	15367.7625
2214.44458	15368.2625
2217.36388	15354.9625
2220.28132	15322.4625
2223.1969	15283.8625
2226.11061	15271.1625
2229.02246	15207.3625
2231.93245	15214.1625
2234.84058	15156.4625
2237.74686	15134.5625
2240.65128	15152.5625
2243.55385	15121.5625
2246.45456	15069.6625
2249.35343	15038.8625
2252.25044	15003.1625
2255.14561	14971.1625
2258.03893	14911.8625
2260.93041	14905.8625
2263.82004	14863.4625
2266.70783	14799.3625
2269.59378	14706.5625
2272.4779	14708.1625
2275.36017	14650.9625
2278.24061	14634.4625
2281.11922	14641.0625
2283.996	14573.9625
2286.87094	14536.8625
2289.74405	14499.9625
2292.61534	14518.5625
2295.4848	14484.3625
2298.35243	14465.3625
2301.21824	14481.1625
2304.08223	14466.1625
2306.94439	14458.3625
2309.80474	14483.7625
2312.66327	14448.9625
2315.51999	14448.1625
2318.37489	14389.8625
2321.22797	14378.5625
2324.07925	14343.1625
2326.92871	14324.0625
2329.77637	14296.1625
2332.62222	14270.4625
2335.46626	14282.1625
2338.3085	14254.5625
2341.14893	14246.1625
2343.98756	14232.1625
2346.8244	14231.6625
2349.65943	14222.0625
2352.49267	14214.3625
2355.32411	14229.2625
2358.15376	14199.9625
2360.98161	14234.7625
2363.80768	14213.0625
2366.63195	14186.4625
2369.45444	14179.2625
2372.27514	14151.8625
2375.09405	14148.4625
2377.91118	14105.0625
2380.72652	14053.4625
2383.54009	14018.6625
2386.35187	14012.9625
2389.16188	13977.4625
2391.97011	13936.5625
2394.77657	13918.7625
2397.58125	13875.4625
2400.38416	13843.6625
2403.18529	13835.0625
2405.98466	13842.3625
2408.78226	13784.0625
2411.57809	13773.4625
2414.37216	13783.1625
2417.16446	13774.9625
2419.955	13752.2625
2422.74378	13754.0625
2425.5308	13687.5625
2428.31606	13698.3625
2431.09956	13674.6625
2433.88131	13673.4625
2436.6613	13694.0625
2439.43954	13668.7625
2442.21603	13668.1625
2444.99077	13662.2625
2447.76377	13647.0625
2450.53501	13605.8625
2453.30451	13617.2625
2456.07226	13594.5625
2458.83827	13618.3625
2461.60254	13606.9625
2464.36507	13595.0625
2467.12586	13597.5625
2469.88492	13570.0625
2472.64224	13624.1625
2475.39782	13619.6625
2478.15167	13618.4625
2480.90379	13560.8625
2483.65417	13584.3625
2486.40283	13574.1625
2489.14976	13599.5625
2491.89497	13596.2625
2494.63845	13579.2625
2497.3802	13585.2625
2500.12024	13586.1625
2502.85855	13580.5625
2505.59514	13540.2625
2508.33002	13520.6625
2511.06318	13534.6625
2513.79462	13475.6625
2516.52435	13491.0625
2519.25237	13484.9625
2521.97867	13465.3625
2524.70327	13480.1625
2527.42616	13456.4625
2530.14734	13478.1625
2532.86681	13454.0625
2535.58458	13448.9625
2538.30065	13408.2625
2541.01501	13412.0625
2543.72768	13381.7625
2546.43864	13393.8625
2549.14791	13374.6625
2551.85548	13352.4625
2554.56136	13353.1625
2557.26554	13326.8625
2559.96803	13324.4625
2562.66883	13336.4625
2565.36794	13264.3625
2568.06536	13260.8625
2570.7611	13237.7625
2573.45514	13233.5625
2576.14751	13236.8625
2578.83819	13183.1625
2581.52719	13194.3625
2584.21451	13178.0625
2586.90015	13206.4625
2589.58411	13187.3625
2592.2664	13198.8625
2594.94701	13172.6625
2597.62594	13164.5625
2600.30321	13134.3625
2602.9788	13134.4625
2605.65273	13100.3625
2608.32498	13136.4625
2610.99557	13109.2625
2613.66449	13119.7625
2616.33175	13144.6625
2618.99734	13121.9625
2621.66128	13123.5625
2624.32355	13120.5625
2626.98416	13070.9625
2629.64311	13053.7625
2632.30041	13087.6625
2634.95605	13028.8625
2637.61004	13047.4625
2640.26238	13044.5625
2642.91306	13048.3625
2645.56209	13055.8625
2648.20948	13030.4625
2650.85521	13067.7625
2653.4993	13070.9625
2656.14175	13059.9625
2658.78255	13071.6625
2661.42171	13076.8625
2664.05923	13108.4625
2666.6951	13085.8625
2669.32934	13117.2625
2671.96194	13111.2625
2674.59291	13115.6625
2677.22224	13100.0625
2679.84993	13116.9625
2682.476	13095.0625
2685.10043	13070.6625
2687.72324	13066.2625
2690.34441	13049.2625
2692.96396	13049.4625
2695.58188	13064.4625
2698.19818	13020.1625
2700.81285	13083.6625
2703.4259	13121.3625
2706.03733	13142.1625
2708.64714	13095.0625
2711.25533	13086.2625
2713.86191	13081.6625
2716.46687	13139.1625
2719.07021	13096.3625
2721.67194	13135.4625
2724.27206	13131.3625
2726.87057	13146.4625
2729.46747	13166.3625
2732.06276	13182.6625
2734.65644	13166.1625
2737.24852	13140.8625
2739.83899	13147.4625
2742.42786	13135.4625
2745.01513	13122.7625
2747.60079	13121.6625
2750.18486	13097.5625
2752.76733	13095.0625
2755.3482	13094.6625
2757.92747	13123.2625
2760.50515	13094.0625
2763.08123	13089.1625
2765.65573	13123.2625
2768.22863	13110.4625
2770.79994	13064.9625
2773.36967	13116.2625
2775.9378	13088.3625
2778.50435	13064.2625
2781.06932	13073.2625
2783.6327	13056.4625
2786.1945	13071.7625
2788.75471	13102.4625
2791.31335	13054.6625
2793.87041	13018.0625
2796.42589	12969.5625
2798.97979	12989.1625
2801.53212	12973.6625
2804.08288	12956.8625
2806.63206	12898.8625
2809.17967	12881.6625
2811.72571	12865.1625
2814.27018	12849.4625
2816.81308	12827.6625
2819.35442	12762.4625
2821.89419	12738.2625
2824.43239	12753.1625
2826.96904	12754.9625
2829.50412	12746.6625
2832.03763	12724.4625
2834.56959	12715.1625
2837.1	12715.1625
2839.62884	12739.1625
2842.15613	12727.4625
2844.68186	12752.7625
2847.20604	12777.9625
2849.72867	12786.9625
2852.24974	12786.9625
2854.76927	12797.1625
2857.28724	12767.8625
2859.80367	12738.1625
2862.31855	12707.0625
2864.83189	12700.7625
2867.34368	12678.6625
2869.85393	12640.4625
2872.36264	12627.1625
2874.8698	12625.8625
2877.37543	12598.8625
2879.87952	12599.4625
2882.38207	12577.9625
2884.88308	12589.9625
2887.38256	12591.9625
2889.88051	12587.0625
2892.37692	12584.3625
2894.8718	12574.4625
2897.36515	12618.2625
2899.85698	12613.2625
2902.34727	12621.8625
2904.83604	12627.6625
2907.32328	12635.6625
2909.809	12651.6625
2912.29319	12660.8625
2914.77587	12632.0625
2917.25702	12660.5625
2919.73665	12655.1625
2922.21476	12670.7625
2924.69136	12643.1625
2927.16644	12691.9625
2929.64	12594.8625
2932.11205	12595.3625
2934.58258	12593.7625
2937.05161	12595.9625
2939.51912	12593.7625
2941.98513	12593.2625
2944.44962	12502.8625
2946.91261	12471.4625
2949.37409	12474.5625
2951.83407	12426.3625
2954.29254	12434.1625
2956.74951	12412.0625
2959.20498	12393.0625
2961.65895	12387.3625
2964.11142	12389.9625
2966.56239	12355.6625
2969.01186	12356.6625
2971.45984	12354.4625
2973.90632	12338.9625
2976.35131	12293.0625
2978.7948	12271.6625
2981.23681	12228.2625
2983.67732	12207.3625
2986.11635	12154.6625
2988.55388	12129.0625
2990.98993	12094.5625
2993.4245	12069.2625
2995.85758	12015.5625
2998.28917	11984.8625
3000.71928	11979.9625
3003.14791	11942.4625
3005.57506	11935.1625
3008.00073	11893.5625
3010.42493	11783.2625
3012.84764	11828.4625
3015.26888	11825.8625
3017.68865	11765.2625
3020.10694	11763.2625
3022.52376	11724.9625
3024.9391	11717.2625
3027.35298	11700.5625
3029.76539	11695.4625
3032.17632	11674.8625
3034.5858	11638.7625
3036.9938	11655.8625
3039.40034	11650.1625
3041.80542	11652.2625
3044.20903	11627.6625
3046.61118	11609.6625
3049.01187	11609.6625
3051.4111	11536.0625
3053.80888	11540.7625
3056.20519	11534.3625
3058.60005	11481.7625
3060.99345	11472.8625
3063.3854	11427.7625
3065.7759	11369.9625
3068.16494	11317.0625
3070.55254	11304.9625
3072.93868	11262.9625
3075.32338	11242.1625
3077.70662	11193.1625
3080.08842	11135.3625
3082.46878	11150.1625
3084.84769	11113.8625
3087.22515	11101.9625
3089.60118	11098.3625
3091.97576	11117.2625
3094.3489	11093.1625
3096.72061	11060.0625
3099.09087	11064.4625
3101.4597	11073.7625
3103.82709	11062.9625
3106.19305	11038.3625
3108.55757	11032.5625
3110.92066	10971.6625
3113.28232	10975.2625
3115.64255	10956.0625
3118.00134	10928.7625
3120.35871	10919.2625
3122.71466	10897.9625
3125.06917	10859.2625
3127.42226	10862.6625
3129.77393	10826.3625
3132.12417	10786.7625
3134.47299	10796.1625
3136.82039	10766.0625
3139.16636	10775.0625
3141.51092	10720.7625
3143.85406	10732.8625
3146.19579	10735.4625
3148.53609	10746.6625
3150.87499	10739.2625
3153.21246	10748.4625
3155.54853	10747.1625
3157.88318	10722.9625
3160.21642	10756.3625
3162.54826	10737.2625
3164.87868	10734.1625
3167.2077	10743.9625
3169.5353	10732.0625
3171.86151	10741.3625
3174.18631	10692.4625
3176.5097	10689.1625
3178.83169	10682.4625
3181.15228	10697.9625
3183.47147	10659.5625
3185.78926	10661.3625
3188.10565	10618.5625
3190.42065	10602.5625
3192.73424	10613.6625
3195.04645	10568.6625
3197.35725	10531.1625
3199.66667	10535.5625
3201.97469	10510.1625
3204.28132	10526.4625
3206.58656	10528.3625
3208.8904	10535.2625
3211.19287	10522.1625
3213.49394	10537.9625
3215.79363	10517.5625
3218.09193	10523.6625
3220.38884	10523.1625
3222.68438	10527.2625
3224.97853	10511.1625
3227.2713	10478.2625
3229.56269	10460.0625
3231.8527	10470.9625
3234.14133	10456.2625
3236.42858	10437.1625
3238.71446	10424.5625
3240.99896	10391.2625
3243.28209	10394.0625
3245.56384	10381.0625
3247.84423	10375.4625
3250.12324	10346.4625
3252.40088	10325.4625
3254.67715	10337.1625
3256.95205	10293.2625
3259.22558	10276.8625
3261.49775	10281.6625
3263.76855	10232.1625
3266.03799	10212.1625
3268.30606	10178.6625
3270.57277	10162.8625
3272.83812	10136.0625
3275.10211	10101.8625
3277.36474	10093.7625
3279.62601	10101.5625
3281.88593	10075.7625
3284.14448	10095.8625
3286.40168	10100.9625
3288.65753	10076.8625
3290.91202	10096.0625
3293.16516	10073.0625
3295.41695	10020.6625
3297.66738	9973.9625
3299.91647	9906.2625
3302.16421	9858.0625
3304.4106	9801.7625
3306.65564	9740.2625
3308.89933	9644.7625
3311.14169	9596.9625
3313.38269	9494.6625
3315.62236	9421.9625
3317.86068	9341.2625
3320.09766	9248.5625
3322.3333	9202.3625
3324.5676	9156.7625
3326.80056	9004.1625
3329.03219	8946.0625
3331.26248	3.3625
3333.49143	-1.0375
3335.71905	0.1625
