Data from AgNPs_FTO_APTES_UA_5uM_CRN_1uM_R6G_10uM_NaF_0.1M_Addition_RamanShift__2__10-19-36-566.txt Node

Date: Mon Feb 07 10:19:36 GMT 2022
User: TCL
Spectrometer: QEP01345
Trigger mode: 4
Integration Time (sec): 7.000000E0
Scans to average: 10
Electric dark correction enabled: true
Nonlinearity correction enabled: false
Boxcar width: 0
XAxis mode: Raman Shifts
Number of Pixels in Spectrum: 1044
>>>>>Begin Spectral Data<<<<<
46.04893	-1.2375
50.45542	-2.1375
54.85868	-0.6375
59.25871	-0.8375
63.6555	90.7625
68.04907	95.4625
72.43941	99.7625
76.82654	102.5625
81.21044	105.9625
85.59113	109.0625
89.96862	111.1625
94.34289	115.2625
98.71396	118.3625
103.08183	122.3625
107.4465	126.0625
111.80798	129.9625
116.16626	133.4625
120.52136	139.8625
124.87327	143.1625
129.222	155.5625
133.56755	161.5625
137.90993	181.3625
142.24913	193.4625
146.58517	219.9625
150.91804	257.4625
155.24774	312.9625
159.57429	384.3625
163.89768	499.7625
168.21792	664.7625
172.53501	906.6625
176.84895	1258.6625
181.15975	1775.4625
185.46741	2486.6625
189.77193	3430.4625
194.07331	4597.1625
198.37157	5912.2625
202.6667	7293.2625
206.9587	8685.2625
211.24758	10069.1625
215.53334	11445.6625
219.81599	12956.3625
224.09553	14626.6625
228.37195	16468.7625
232.64527	18483.7625
236.91549	20511.3625
241.18261	22508.0625
245.44663	24288.7625
249.70755	25934.0625
253.96539	27295.6625
258.22014	28430.9625
262.4718	29478.2625
266.72039	30094.4625
270.96589	30408.5625
275.20832	30413.2625
279.44768	30145.0625
283.68397	29858.6625
287.91719	29589.8625
292.14735	29426.8625
296.37445	29437.7625
300.59849	29630.9625
304.81948	29953.1625
309.03742	30090.5625
313.25231	29992.5625
317.46415	29602.9625
321.67296	28829.5625
325.87872	28246.7625
330.08145	27943.3625
334.28114	27910.4625
338.47781	28061.2625
342.67145	28388.1625
346.86207	28804.6625
351.04966	29396.1625
355.23424	30049.8625
359.4158	30686.4625
363.59435	31186.0625
367.76989	31504.2625
371.94243	31734.2625
376.11196	31858.7625
380.27849	31964.2625
384.44203	32114.6625
388.60257	32329.6625
392.76012	32591.2625
396.91468	32997.1625
401.06626	33534.9625
405.21485	34001.7625
409.36047	34004.9625
413.50311	33725.2625
417.64277	33696.4625
421.77947	33906.3625
425.9132	34083.4625
430.04396	34288.4625
434.17176	34365.8625
438.2966	34540.8625
442.41849	35056.8625
446.53742	36167.3625
450.6534	37513.3625
454.76644	38469.6625
458.87653	38598.0625
462.98368	38024.4625
467.08789	37166.1625
471.18916	36167.4625
475.2875	35277.5625
479.38291	34704.0625
483.4754	34483.8625
487.56496	34262.2625
491.6516	33997.6625
495.73531	33724.8625
499.81612	33713.4625
503.89401	33873.8625
507.96899	33989.5625
512.04106	33746.3625
516.11023	33301.9625
520.1765	32897.9625
524.23987	32661.4625
528.30034	32465.2625
532.35792	32183.2625
536.41261	31641.4625
540.46441	31034.8625
544.51333	30815.2625
548.55936	31069.4625
552.60252	31824.9625
556.64279	32709.0625
560.6802	33456.0625
564.71473	33903.5625
568.7464	34633.0625
572.7752	35777.5625
576.80114	36921.4625
580.82422	38278.5625
584.84444	40318.0625
588.86181	42841.8625
592.87633	44770.8625
596.888	44584.9625
600.89682	41992.0625
604.9028	41101.1625
608.90594	44100.8625
612.90624	47838.8625
616.90371	45267.1625
620.89834	37792.7625
624.89015	34296.0625
628.87913	33755.5625
632.86528	33589.3625
636.84862	33067.6625
640.82913	32080.1625
644.80683	31103.2625
648.78172	30528.9625
652.75379	30672.0625
656.72306	31227.1625
660.68952	31839.7625
664.65319	31647.7625
668.61405	31065.9625
672.57211	30960.3625
676.52738	31140.6625
680.47986	31011.7625
684.42955	30636.4625
688.37646	30502.5625
692.32058	30880.2625
696.26192	31591.1625
700.20048	32330.5625
704.13626	32643.6625
708.06928	32422.4625
711.99952	32086.5625
715.927	32180.1625
719.85171	32524.9625
723.77365	32455.2625
727.69284	31733.6625
731.60928	31061.4625
735.52295	30838.6625
739.43388	30895.7625
743.34206	31062.7625
747.24749	31310.7625
751.15017	31691.5625
755.05012	32268.3625
758.94733	33228.3625
762.8418	34825.9625
766.73354	37184.6625
770.62254	39582.6625
774.50882	40072.6625
778.39237	38463.9625
782.27321	35871.3625
786.15132	33648.7625
790.02671	32243.5625
793.89938	31664.0625
797.76935	31523.2625
801.6366	31539.2625
805.50115	31517.5625
809.36299	31344.4625
813.22213	31034.2625
817.07857	30768.9625
820.93231	30567.3625
824.78336	30496.6625
828.63172	30471.8625
832.47738	30550.8625
836.32036	30782.3625
840.16066	31064.3625
843.99827	31351.9625
847.8332	31205.7625
851.66546	30935.4625
855.49504	30781.0625
859.32195	30766.4625
863.1462	30612.2625
866.96777	30384.3625
870.78668	30240.3625
874.60293	30219.2625
878.41652	30253.4625
882.22745	30408.3625
886.03573	30565.0625
889.84136	30549.0625
893.64433	30311.2625
897.44466	30124.6625
901.24235	30005.4625
905.0374	29927.0625
908.8298	29913.0625
912.61957	29999.3625
916.40671	30341.7625
920.19121	30917.6625
923.97308	31651.6625
927.75233	32206.3625
931.52895	32136.5625
935.30295	31639.6625
939.07433	30806.3625
942.84309	30318.7625
946.60924	30176.0625
950.37278	30149.0625
954.13371	29940.4625
957.89203	29705.7625
961.64774	29553.3625
965.40086	29570.6625
969.15137	29582.5625
972.89929	29486.8625
976.64461	29599.4625
980.38733	29752.3625
984.12747	29997.5625
987.86502	30400.3625
991.59999	30914.3625
995.33237	31816.6625
999.06217	33204.3625
1002.78939	34880.5625
1006.51404	35910.4625
1010.23611	36386.4625
1013.95561	36622.0625
1017.67255	36464.2625
1021.38692	35767.9625
1025.09872	35382.0625
1028.80796	36276.4625
1032.51465	38473.6625
1036.21877	40606.0625
1039.92035	41077.1625
1043.61937	40213.0625
1047.31584	38283.5625
1051.00976	36259.3625
1054.70114	34987.1625
1058.38998	34412.5625
1062.07627	34160.2625
1065.76003	34059.3625
1069.44126	34246.5625
1073.11995	34807.6625
1076.79611	35550.8625
1080.46974	36008.1625
1084.14085	36320.8625
1087.80943	36796.7625
1091.47549	37005.6625
1095.13903	36827.3625
1098.80005	36127.4625
1102.45857	35154.6625
1106.11456	34517.1625
1109.76805	34203.6625
1113.41903	34141.7625
1117.06751	34180.4625
1120.71348	34432.5625
1124.35696	34768.2625
1127.99793	35119.6625
1131.63641	35512.5625
1135.2724	35446.9625
1138.90589	35254.8625
1142.5369	35265.8625
1146.16542	35432.0625
1149.79145	35714.1625
1153.415	35971.6625
1157.03607	36542.9625
1160.65467	37801.1625
1164.27079	39993.9625
1167.88443	42501.6625
1171.49561	45022.0625
1175.10432	48040.1625
1178.71056	52342.9625
1182.31434	56649.8625
1185.91565	58800.0625
1189.51451	58208.8625
1193.11091	55747.8625
1196.70485	53116.9625
1200.29634	51027.4625
1203.88538	50046.0625
1207.47197	49603.8625
1211.05612	48955.9625
1214.63782	47983.3625
1218.21708	46857.8625
1221.79391	46037.4625
1225.36829	45505.6625
1228.94024	44534.6625
1232.50976	42958.7625
1236.07685	41629.9625
1239.6415	40989.9625
1243.20374	40964.2625
1246.76355	41543.6625
1250.32093	42584.1625
1253.8759	43918.6625
1257.42845	45464.5625
1260.97859	47097.0625
1264.52631	48748.6625
1268.07163	50580.7625
1271.61453	52663.2625
1275.15503	54898.9625
1278.69312	57243.0625
1282.22882	59221.9625
1285.76211	61268.3625
1289.29301	63530.8625
1292.82151	66418.3625
1296.34761	70366.4625
1299.87133	75728.1625
1303.39266	82025.5625
1306.9116	88069.5625
1310.42815	92124.8625
1313.94233	93073.2625
1317.45412	90732.6625
1320.96354	86692.0625
1324.47058	83030.8625
1327.97525	80471.1625
1331.47754	78643.5625
1334.97747	77364.4625
1338.47502	75769.5625
1341.97022	73217.1625
1345.46305	70591.5625
1348.95352	69356.5625
1352.44163	70506.3625
1355.92738	74445.9625
1359.41078	80534.6625
1362.89183	85298.3625
1366.37053	84918.3625
1369.84688	78094.9625
1373.32088	68288.0625
1376.79254	61124.9625
1380.26186	58412.5625
1383.72883	58155.5625
1387.19347	57851.9625
1390.65578	56840.9625
1394.11575	56267.7625
1397.57339	56952.0625
1401.0287	58409.2625
1404.48168	59883.3625
1407.93234	60296.9625
1411.38068	59292.0625
1414.82669	57196.6625
1418.27039	54660.6625
1421.71177	52016.8625
1425.15083	49901.4625
1428.58758	49060.6625
1432.02203	49855.0625
1435.45416	51679.8625
1438.88399	53635.5625
1442.31151	54908.2625
1445.73673	55527.5625
1449.15965	55825.9625
1452.58027	55476.0625
1455.9986	54665.3625
1459.41463	54317.9625
1462.82837	55039.9625
1466.23982	56526.6625
1469.64898	58357.6625
1473.05586	59552.8625
1476.46045	60136.9625
1479.86276	60095.6625
1483.26279	59581.2625
1486.66054	59100.4625
1490.05602	59016.8625
1493.44922	59267.5625
1496.84016	59290.7625
1500.22882	59358.3625
1503.61521	60077.2625
1506.99934	61320.6625
1510.38121	62595.9625
1513.76081	63213.1625
1517.13816	62265.1625
1520.51324	60484.3625
1523.88607	59092.9625
1527.25665	58831.1625
1530.62498	59072.6625
1533.99105	59068.4625
1537.35488	58434.6625
1540.71647	57263.0625
1544.07581	55679.2625
1547.4329	54103.1625
1550.78776	52557.0625
1554.14038	51380.8625
1557.49077	50544.5625
1560.83892	49805.9625
1564.18484	49451.2625
1567.52853	49403.6625
1570.86999	49807.2625
1574.20922	50620.1625
1577.54624	51332.4625
1580.88103	51774.2625
1584.2136	52937.7625
1587.54395	56045.8625
1590.87208	61209.5625
1594.19801	67385.4625
1597.52172	72557.1625
1600.84321	73579.6625
1604.16251	68958.8625
1607.47959	61049.3625
1610.79447	53161.7625
1614.10715	46993.7625
1617.41763	42884.6625
1620.7259	40616.3625
1624.03199	39811.4625
1627.33587	40328.1625
1630.63757	42018.0625
1633.93707	45097.1625
1637.23439	49868.1625
1640.52951	57073.3625
1643.82246	66020.0625
1647.11321	73443.2625
1650.40179	74318.1625
1653.68819	67337.9625
1656.97241	56585.6625
1660.25446	46918.8625
1663.53433	40464.0625
1666.81203	36481.5625
1670.08756	34187.7625
1673.36092	32785.0625
1676.63211	31820.2625
1679.90115	31245.7625
1683.16801	30721.4625
1686.43272	30330.6625
1689.69527	30114.4625
1692.95567	29913.4625
1696.2139	29806.9625
1699.46999	29683.9625
1702.72392	29614.9625
1705.97571	29537.3625
1709.22535	29417.1625
1712.47284	29378.0625
1715.71819	29389.5625
1718.96139	29330.4625
1722.20246	29244.6625
1725.44139	29148.2625
1728.67818	28969.2625
1731.91284	28824.7625
1735.14537	28633.8625
1738.37576	28514.2625
1741.60403	28416.3625
1744.83017	28299.4625
1748.05418	28280.0625
1751.27607	28178.0625
1754.49584	28122.6625
1757.71349	28114.5625
1760.92903	28074.5625
1764.14244	28082.4625
1767.35375	28103.6625
1770.56294	28110.5625
1773.77002	27996.4625
1776.97499	27966.2625
1780.17785	27941.7625
1783.37861	27944.1625
1786.57727	27933.8625
1789.77382	27861.3625
1792.96828	27834.8625
1796.16064	27795.3625
1799.3509	27765.9625
1802.53907	27693.9625
1805.72514	27605.2625
1808.90913	27535.0625
1812.09102	27474.6625
1815.27083	27440.6625
1818.44856	27428.2625
1821.6242	27401.0625
1824.79776	27344.9625
1827.96924	27351.1625
1831.13864	27314.7625
1834.30597	27285.0625
1837.47122	27288.1625
1840.6344	27267.9625
1843.7955	27248.8625
1846.95454	27273.2625
1850.11151	27218.4625
1853.26642	27213.2625
1856.41926	27249.8625
1859.57004	27221.9625
1862.71876	27228.0625
1865.86542	27210.7625
1869.01003	27216.0625
1872.15258	27164.9625
1875.29308	27184.8625
1878.43152	27139.5625
1881.56792	27156.3625
1884.70227	27140.0625
1887.83457	27165.8625
1890.96482	27130.2625
1894.09304	27093.8625
1897.21921	27111.5625
1900.34335	27120.8625
1903.46544	27029.4625
1906.58551	27055.8625
1909.70353	26979.5625
1912.81953	26993.5625
1915.93349	26961.3625
1919.04543	26961.6625
1922.15534	26867.8625
1925.26322	26876.4625
1928.36908	26797.9625
1931.47292	26728.3625
1934.57473	26687.9625
1937.67453	26653.5625
1940.77232	26594.8625
1943.86808	26496.2625
1946.96184	26387.8625
1950.05358	26340.5625
1953.14331	26336.6625
1956.23103	26234.5625
1959.31675	26189.8625
1962.40046	26123.9625
1965.48217	26076.4625
1968.56188	25990.0625
1971.63959	25946.4625
1974.7153	25882.7625
1977.78901	25800.2625
1980.86073	25748.3625
1983.93046	25662.4625
1986.99819	25568.5625
1990.06394	25514.0625
1993.1277	25460.5625
1996.18947	25410.7625
1999.24925	25336.0625
2002.30706	25232.1625
2005.36288	25163.2625
2008.41672	25146.0625
2011.46859	25059.3625
2014.51848	25052.4625
2017.56639	24999.3625
2020.61233	24936.6625
2023.6563	24892.3625
2026.6983	24859.4625
2029.73833	24812.6625
2032.7764	24836.3625
2035.8125	24835.3625
2038.84664	24757.4625
2041.87881	24756.4625
2044.90903	24696.4625
2047.93729	24685.4625
2050.96359	24687.2625
2053.98794	24656.5625
2057.01034	24609.8625
2060.03078	24649.1625
2063.04927	24659.4625
2066.06582	24642.1625
2069.08042	24670.0625
2072.09307	24595.5625
2075.10378	24581.5625
2078.11255	24564.3625
2081.11938	24548.3625
2084.12426	24499.3625
2087.12722	24537.2625
2090.12824	24486.9625
2093.12732	24518.5625
2096.12447	24495.0625
2099.11969	24517.9625
2102.11299	24553.7625
2105.10435	24547.9625
2108.09379	24548.7625
2111.08131	24574.2625
2114.0669	24573.1625
2117.05057	24616.3625
2120.03233	24633.6625
2123.01216	24643.2625
2125.99008	24704.3625
2128.96609	24748.6625
2131.94018	24734.0625
2134.91236	24745.2625
2137.88263	24780.9625
2140.851	24794.1625
2143.81746	24827.4625
2146.78201	24855.4625
2149.74466	24898.7625
2152.7054	24896.8625
2155.66425	24849.2625
2158.6212	24835.7625
2161.57625	24827.1625
2164.52941	24828.8625
2167.48067	24825.0625
2170.43004	24831.8625
2173.37752	24828.4625
2176.32311	24850.9625
2179.26681	24833.6625
2182.20863	24855.6625
2185.14856	24906.9625
2188.08661	24936.5625
2191.02278	24966.6625
2193.95707	24933.1625
2196.88948	24953.0625
2199.82001	24929.2625
2202.74867	24955.9625
2205.67545	24958.9625
2208.60037	24947.7625
2211.52341	24949.1625
2214.44458	24940.3625
2217.36388	24900.4625
2220.28132	24890.3625
2223.1969	24851.0625
2226.11061	24847.6625
2229.02246	24797.3625
2231.93245	24780.6625
2234.84058	24736.0625
2237.74686	24735.7625
2240.65128	24736.1625
2243.55385	24679.8625
2246.45456	24642.7625
2249.35343	24565.3625
2252.25044	24541.4625
2255.14561	24485.9625
2258.03893	24433.1625
2260.93041	24417.1625
2263.82004	24374.2625
2266.70783	24323.8625
2269.59378	24248.2625
2272.4779	24182.1625
2275.36017	24107.3625
2278.24061	24098.3625
2281.11922	24117.6625
2283.996	24098.5625
2286.87094	24096.6625
2289.74405	24095.5625
2292.61534	24062.7625
2295.4848	24111.4625
2298.35243	24114.4625
2301.21824	24180.8625
2304.08223	24220.8625
2306.94439	24309.3625
2309.80474	24319.0625
2312.66327	24328.4625
2315.51999	24345.8625
2318.37489	24313.4625
2321.22797	24306.2625
2324.07925	24279.4625
2326.92871	24280.1625
2329.77637	24254.9625
2332.62222	24245.0625
2335.46626	24247.2625
2338.3085	24269.0625
2341.14893	24313.5625
2343.98756	24324.9625
2346.8244	24364.6625
2349.65943	24336.1625
2352.49267	24317.6625
2355.32411	24290.6625
2358.15376	24309.3625
2360.98161	24218.2625
2363.80768	24179.8625
2366.63195	24193.2625
2369.45444	24100.0625
2372.27514	24080.7625
2375.09405	24049.3625
2377.91118	24019.2625
2380.72652	23952.1625
2383.54009	23916.3625
2386.35187	23887.0625
2389.16188	23845.5625
2391.97011	23867.7625
2394.77657	23823.9625
2397.58125	23840.7625
2400.38416	23788.7625
2403.18529	23739.6625
2405.98466	23734.9625
2408.78226	23648.4625
2411.57809	23630.9625
2414.37216	23625.8625
2417.16446	23639.5625
2419.955	23550.4625
2422.74378	23502.1625
2425.5308	23526.0625
2428.31606	23486.0625
2431.09956	23525.1625
2433.88131	23459.3625
2436.6613	23529.4625
2439.43954	23515.8625
2442.21603	23503.0625
2444.99077	23498.3625
2447.76377	23489.4625
2450.53501	23465.6625
2453.30451	23484.3625
2456.07226	23486.4625
2458.83827	23486.0625
2461.60254	23484.9625
2464.36507	23517.9625
2467.12586	23522.0625
2469.88492	23541.4625
2472.64224	23546.7625
2475.39782	23582.7625
2478.15167	23642.8625
2480.90379	23691.1625
2483.65417	23710.0625
2486.40283	23728.4625
2489.14976	23794.9625
2491.89497	23728.2625
2494.63845	23817.6625
2497.3802	23765.3625
2500.12024	23767.1625
2502.85855	23775.8625
2505.59514	23755.7625
2508.33002	23723.7625
2511.06318	23679.3625
2513.79462	23632.7625
2516.52435	23628.2625
2519.25237	23697.6625
2521.97867	23654.9625
2524.70327	23703.2625
2527.42616	23681.8625
2530.14734	23660.7625
2532.86681	23624.0625
2535.58458	23676.8625
2538.30065	23654.4625
2541.01501	23650.2625
2543.72768	23661.6625
2546.43864	23627.6625
2549.14791	23602.2625
2551.85548	23642.1625
2554.56136	23625.0625
2557.26554	23578.3625
2559.96803	23628.5625
2562.66883	23643.5625
2565.36794	23642.4625
2568.06536	23637.0625
2570.7611	23622.6625
2573.45514	23645.9625
2576.14751	23672.4625
2578.83819	23628.7625
2581.52719	23626.3625
2584.21451	23613.2625
2586.90015	23674.5625
2589.58411	23657.0625
2592.2664	23629.8625
2594.94701	23628.8625
2597.62594	23657.2625
2600.30321	23575.5625
2602.9788	23580.3625
2605.65273	23573.8625
2608.32498	23653.8625
2610.99557	23671.8625
2613.66449	23693.1625
2616.33175	23638.2625
2618.99734	23654.2625
2621.66128	23624.6625
2624.32355	23620.5625
2626.98416	23614.5625
2629.64311	23620.7625
2632.30041	23629.2625
2634.95605	23590.1625
2637.61004	23532.2625
2640.26238	23549.8625
2642.91306	23536.6625
2645.56209	23486.7625
2648.20948	23473.9625
2650.85521	23497.1625
2653.4993	23510.7625
2656.14175	23528.2625
2658.78255	23580.0625
2661.42171	23539.9625
2664.05923	23614.0625
2666.6951	23659.5625
2669.32934	23679.3625
2671.96194	23631.8625
2674.59291	23701.8625
2677.22224	23674.3625
2679.84993	23661.2625
2682.476	23613.2625
2685.10043	23611.4625
2687.72324	23563.6625
2690.34441	23545.3625
2692.96396	23550.6625
2695.58188	23494.9625
2698.19818	23450.5625
2700.81285	23517.2625
2703.4259	23562.9625
2706.03733	23583.5625
2708.64714	23557.1625
2711.25533	23600.2625
2713.86191	23596.7625
2716.46687	23662.8625
2719.07021	23659.7625
2721.67194	23726.5625
2724.27206	23694.3625
2726.87057	23706.7625
2729.46747	23719.2625
2732.06276	23773.8625
2734.65644	23770.0625
2737.24852	23785.0625
2739.83899	23727.4625
2742.42786	23745.9625
2745.01513	23705.6625
2747.60079	23718.9625
2750.18486	23689.5625
2752.76733	23664.4625
2755.3482	23664.5625
2757.92747	23678.5625
2760.50515	23673.6625
2763.08123	23712.7625
2765.65573	23721.6625
2768.22863	23698.0625
2770.79994	23697.8625
2773.36967	23731.6625
2775.9378	23790.8625
2778.50435	23749.4625
2781.06932	23710.1625
2783.6327	23789.3625
2786.1945	23761.3625
2788.75471	23779.8625
2791.31335	23729.6625
2793.87041	23720.7625
2796.42589	23635.8625
2798.97979	23621.6625
2801.53212	23595.9625
2804.08288	23568.3625
2806.63206	23514.2625
2809.17967	23506.1625
2811.72571	23477.9625
2814.27018	23449.6625
2816.81308	23399.5625
2819.35442	23346.8625
2821.89419	23339.3625
2824.43239	23354.2625
2826.96904	23386.4625
2829.50412	23381.2625
2832.03763	23322.2625
2834.56959	23352.1625
2837.1	23318.4625
2839.62884	23323.7625
2842.15613	23318.1625
2844.68186	23418.9625
2847.20604	23390.0625
2849.72867	23445.9625
2852.24974	23476.3625
2854.76927	23462.6625
2857.28724	23457.0625
2859.80367	23436.5625
2862.31855	23412.7625
2864.83189	23373.1625
2867.34368	23331.9625
2869.85393	23327.3625
2872.36264	23307.8625
2874.8698	23321.7625
2877.37543	23370.3625
2879.87952	23370.6625
2882.38207	23373.4625
2884.88308	23364.4625
2887.38256	23449.5625
2889.88051	23464.5625
2892.37692	23476.5625
2894.8718	23472.7625
2897.36515	23504.1625
2899.85698	23543.3625
2902.34727	23584.0625
2904.83604	23599.1625
2907.32328	23654.8625
2909.809	23629.8625
2912.29319	23694.0625
2914.77587	23680.7625
2917.25702	23646.2625
2919.73665	23616.6625
2922.21476	23589.7625
2924.69136	23581.9625
2927.16644	23601.5625
2929.64	23526.5625
2932.11205	23498.9625
2934.58258	23445.4625
2937.05161	23468.9625
2939.51912	23459.7625
2941.98513	23442.1625
2944.44962	23385.7625
2946.91261	23324.7625
2949.37409	23354.7625
2951.83407	23338.7625
2954.29254	23258.9625
2956.74951	23245.5625
2959.20498	23249.9625
2961.65895	23234.4625
2964.11142	23248.8625
2966.56239	23194.4625
2969.01186	23199.8625
2971.45984	23170.2625
2973.90632	23150.8625
2976.35131	23111.6625
2978.7948	23026.4625
2981.23681	22967.0625
2983.67732	22972.7625
2986.11635	22954.4625
2988.55388	22893.4625
2990.98993	22848.2625
2993.4245	22753.8625
2995.85758	22661.1625
2998.28917	22642.7625
3000.71928	22587.0625
3003.14791	22600.3625
3005.57506	22582.9625
3008.00073	22511.8625
3010.42493	22548.8625
3012.84764	22512.9625
3015.26888	22525.3625
3017.68865	22441.7625
3020.10694	22425.6625
3022.52376	22367.3625
3024.9391	22361.9625
3027.35298	22332.4625
3029.76539	22382.7625
3032.17632	22347.6625
3034.5858	22281.3625
3036.9938	22250.1625
3039.40034	22231.8625
3041.80542	22280.8625
3044.20903	22245.0625
3046.61118	22247.5625
3049.01187	22233.5625
3051.4111	22180.5625
3053.80888	22136.9625
3056.20519	22146.9625
3058.60005	22092.8625
3060.99345	22065.7625
3063.3854	22008.6625
3065.7759	21947.2625
3068.16494	21910.3625
3070.55254	21827.1625
3072.93868	21811.9625
3075.32338	21766.3625
3077.70662	21688.9625
3080.08842	21641.7625
3082.46878	21654.8625
3084.84769	21645.3625
3087.22515	21622.7625
3089.60118	21646.7625
3091.97576	21652.3625
3094.3489	21657.6625
3096.72061	21664.5625
3099.09087	21655.6625
3101.4597	21630.6625
3103.82709	21656.3625
3106.19305	21591.0625
3108.55757	21578.4625
3110.92066	21516.3625
3113.28232	21529.0625
3115.64255	21464.1625
3118.00134	21434.2625
3120.35871	21380.9625
3122.71466	21314.4625
3125.06917	21288.2625
3127.42226	21288.6625
3129.77393	21290.5625
3132.12417	21226.8625
3134.47299	21247.5625
3136.82039	21248.9625
3139.16636	21253.3625
3141.51092	21278.5625
3143.85406	21260.4625
3146.19579	21268.7625
3148.53609	21249.7625
3150.87499	21257.3625
3153.21246	21191.3625
3155.54853	21253.0625
3157.88318	21250.9625
3160.21642	21286.9625
3162.54826	21268.2625
3164.87868	21270.1625
3167.2077	21258.7625
3169.5353	21289.9625
3171.86151	21266.1625
3174.18631	21262.7625
3176.5097	21248.8625
3178.83169	21221.2625
3181.15228	21233.1625
3183.47147	21171.0625
3185.78926	21166.5625
3188.10565	21141.8625
3190.42065	21139.1625
3192.73424	21147.9625
3195.04645	21118.0625
3197.35725	21143.8625
3199.66667	21080.8625
3201.97469	21084.4625
3204.28132	21056.2625
3206.58656	21098.7625
3208.8904	21089.5625
3211.19287	21112.0625
3213.49394	21125.9625
3215.79363	21097.9625
3218.09193	21120.9625
3220.38884	21109.4625
3222.68438	21120.5625
3224.97853	21116.8625
3227.2713	21114.0625
3229.56269	21104.9625
3231.8527	21105.9625
3234.14133	21080.3625
3236.42858	21060.9625
3238.71446	21023.6625
3240.99896	20973.6625
3243.28209	21031.8625
3245.56384	20994.7625
3247.84423	21029.7625
3250.12324	20938.8625
3252.40088	20901.4625
3254.67715	20911.8625
3256.95205	20861.9625
3259.22558	20880.5625
3261.49775	20820.6625
3263.76855	20859.2625
3266.03799	20833.3625
3268.30606	20769.6625
3270.57277	20742.3625
3272.83812	20723.6625
3275.10211	20685.0625
3277.36474	20656.5625
3279.62601	20616.7625
3281.88593	20600.7625
3284.14448	20614.3625
3286.40168	20628.9625
3288.65753	20621.7625
3290.91202	20623.1625
3293.16516	20603.1625
3295.41695	20603.3625
3297.66738	20505.3625
3299.91647	20392.7625
3302.16421	20259.8625
3304.4106	20195.0625
3306.65564	20037.9625
3308.89933	19889.3625
3311.14169	19785.1625
3313.38269	19611.0625
3315.62236	19523.5625
3317.86068	19375.8625
3320.09766	19215.6625
3322.3333	19078.0625
3324.5676	19006.5625
3326.80056	18678.4625
3329.03219	18609.1625
3331.26248	5.2625
3333.49143	-0.7375
3335.71905	0.2625
