Data from AgNPs_FTO_APTES_UA_5uM_CRN_200uM_R6G_10uM_NaF_0.1M_Addition_RamanShift__20__16-23-11-787.txt Node

Date: Mon Feb 07 16:23:11 GMT 2022
User: TCL
Spectrometer: QEP01345
Trigger mode: 4
Integration Time (sec): 7.000000E0
Scans to average: 10
Electric dark correction enabled: true
Nonlinearity correction enabled: false
Boxcar width: 0
XAxis mode: Raman Shifts
Number of Pixels in Spectrum: 1044
>>>>>Begin Spectral Data<<<<<
46.04893	-1.8375
50.45542	-1.7375
54.85868	-0.0375
59.25871	-0.7375
63.6555	69.6625
68.04907	73.0625
72.43941	79.3625
76.82654	77.8625
81.21044	82.1625
85.59113	82.9625
89.96862	88.2625
94.34289	91.9625
98.71396	94.0625
103.08183	97.5625
107.4465	99.2625
111.80798	104.0625
116.16626	102.9625
120.52136	108.2625
124.87327	114.9625
129.222	121.2625
133.56755	129.4625
137.90993	143.2625
142.24913	159.3625
146.58517	182.3625
150.91804	212.9625
155.24774	257.1625
159.57429	318.2625
163.89768	412.0625
168.21792	549.5625
172.53501	755.9625
176.84895	1053.4625
181.15975	1488.5625
185.46741	2074.9625
189.77193	2879.0625
194.07331	3860.0625
198.37157	4953.9625
202.6667	6123.5625
206.9587	7269.4625
211.24758	8401.3625
215.53334	9541.5625
219.81599	10757.3625
224.09553	12121.2625
228.37195	13557.3625
232.64527	15120.7625
236.91549	16753.8625
241.18261	18472.6625
245.44663	20029.9625
249.70755	21508.7625
253.96539	22800.9625
258.22014	23853.8625
262.4718	24756.3625
266.72039	25377.3625
270.96589	25812.7625
275.20832	26028.1625
279.44768	26046.7625
283.68397	25937.2625
287.91719	25912.2625
292.14735	26019.5625
296.37445	26202.6625
300.59849	26396.4625
304.81948	26297.4625
309.03742	26027.2625
313.25231	25528.1625
317.46415	24809.3625
321.67296	23980.5625
325.87872	23295.2625
330.08145	22979.1625
334.28114	22925.5625
338.47781	22973.0625
342.67145	23192.5625
346.86207	23519.7625
351.04966	23856.2625
355.23424	24236.4625
359.4158	24498.1625
363.59435	24719.8625
367.76989	24878.5625
371.94243	25013.5625
376.11196	25187.8625
380.27849	25313.5625
384.44203	25512.2625
388.60257	25727.5625
392.76012	26003.8625
396.91468	26320.6625
401.06626	26686.0625
405.21485	26906.3625
409.36047	26783.7625
413.50311	26442.8625
417.64277	26123.4625
421.77947	26094.8625
425.9132	26205.7625
430.04396	26394.2625
434.17176	26614.2625
438.2966	26964.9625
442.41849	27582.0625
446.53742	28420.0625
450.6534	29305.1625
454.76644	30010.8625
458.87653	30297.7625
462.98368	30242.4625
467.08789	30079.7625
471.18916	29892.6625
475.2875	29931.0625
479.38291	30087.1625
483.4754	30016.6625
487.56496	29445.1625
491.6516	28553.4625
495.73531	27777.3625
499.81612	27294.8625
503.89401	27199.2625
507.96899	27231.2625
512.04106	27078.9625
516.11023	26893.2625
520.1765	26577.6625
524.23987	26303.2625
528.30034	26089.8625
532.35792	25872.4625
536.41261	25640.6625
540.46441	25507.1625
544.51333	25600.7625
548.55936	26068.5625
552.60252	26764.4625
556.64279	27555.5625
560.6802	28200.1625
564.71473	28640.3625
568.7464	29258.6625
572.7752	30041.1625
576.80114	30539.1625
580.82422	30793.8625
584.84444	30958.4625
588.86181	31348.0625
592.87633	31839.5625
596.888	32008.8625
600.89682	31816.3625
604.9028	32025.5625
608.90594	33401.2625
612.90624	34848.1625
616.90371	32602.9625
620.89834	27955.1625
624.89015	26018.8625
628.87913	25901.0625
632.86528	26195.1625
636.84862	26252.1625
640.82913	25956.4625
644.80683	25337.9625
648.78172	24768.7625
652.75379	24553.5625
656.72306	24669.9625
660.68952	24894.8625
664.65319	24768.3625
668.61405	24470.2625
672.57211	24353.8625
676.52738	24430.9625
680.47986	24447.6625
684.42955	24440.6625
688.37646	24340.0625
692.32058	24334.0625
696.26192	24494.8625
700.20048	24751.4625
704.13626	24931.6625
708.06928	24986.4625
711.99952	24862.8625
715.927	24784.3625
719.85171	24807.4625
723.77365	24735.4625
727.69284	24565.8625
731.60928	24361.3625
735.52295	24275.3625
739.43388	24281.2625
743.34206	24293.9625
747.24749	24409.4625
751.15017	24632.3625
755.05012	25095.1625
758.94733	25878.8625
762.8418	27226.9625
766.73354	29138.2625
770.62254	30837.3625
774.50882	30981.0625
778.39237	29487.3625
782.27321	27304.2625
786.15132	25581.1625
790.02671	24607.7625
793.89938	24102.1625
797.76935	23891.1625
801.6366	23813.8625
805.50115	23814.4625
809.36299	23701.1625
813.22213	23563.3625
817.07857	23606.1625
820.93231	23601.3625
824.78336	23474.8625
828.63172	23339.2625
832.47738	23235.5625
836.32036	23171.1625
840.16066	23193.8625
843.99827	23256.4625
847.8332	23156.4625
851.66546	23092.3625
855.49504	23045.1625
859.32195	23042.0625
863.1462	23035.3625
866.96777	23004.1625
870.78668	22886.7625
874.60293	22844.6625
878.41652	22873.7625
882.22745	22924.7625
886.03573	22899.4625
889.84136	22928.0625
893.64433	22878.7625
897.44466	22782.6625
901.24235	22733.4625
905.0374	22601.6625
908.8298	22541.4625
912.61957	22689.4625
916.40671	22934.9625
920.19121	23310.1625
923.97308	23500.7625
927.75233	23431.1625
931.52895	23170.8625
935.30295	22842.3625
939.07433	22448.3625
942.84309	22117.6625
946.60924	21946.6625
950.37278	21831.2625
954.13371	21839.4625
957.89203	21777.5625
961.64774	21801.9625
965.40086	21739.5625
969.15137	21650.3625
972.89929	21507.8625
976.64461	21349.4625
980.38733	21293.9625
984.12747	21316.6625
987.86502	21475.1625
991.59999	21655.9625
995.33237	21938.1625
999.06217	22414.1625
1002.78939	22970.2625
1006.51404	23277.6625
1010.23611	23497.2625
1013.95561	23689.0625
1017.67255	23763.9625
1021.38692	23552.3625
1025.09872	23233.2625
1028.80796	23158.2625
1032.51465	23425.1625
1036.21877	23720.8625
1039.92035	23801.8625
1043.61937	23718.4625
1047.31584	23489.2625
1051.00976	23306.4625
1054.70114	23248.4625
1058.38998	23428.7625
1062.07627	23731.6625
1065.76003	23966.6625
1069.44126	24175.8625
1073.11995	24373.9625
1076.79611	24584.5625
1080.46974	24654.7625
1084.14085	24783.9625
1087.80943	24966.7625
1091.47549	25180.4625
1095.13903	25310.3625
1098.80005	25150.8625
1102.45857	24653.7625
1106.11456	24216.9625
1109.76805	24041.6625
1113.41903	24133.2625
1117.06751	24377.8625
1120.71348	24614.1625
1124.35696	24902.2625
1127.99793	25269.3625
1131.63641	25446.6625
1135.2724	25349.8625
1138.90589	25176.9625
1142.5369	25175.0625
1146.16542	25379.0625
1149.79145	25723.2625
1153.415	26125.3625
1157.03607	26730.2625
1160.65467	27548.9625
1164.27079	28799.2625
1167.88443	30396.4625
1171.49561	32302.1625
1175.10432	34660.2625
1178.71056	37668.5625
1182.31434	40316.6625
1185.91565	41792.5625
1189.51451	41946.2625
1193.11091	41274.1625
1196.70485	39911.2625
1200.29634	38426.6625
1203.88538	37108.8625
1207.47197	36202.5625
1211.05612	35527.3625
1214.63782	34795.3625
1218.21708	33916.3625
1221.79391	33157.7625
1225.36829	32511.5625
1228.94024	31814.4625
1232.50976	31113.5625
1236.07685	30471.5625
1239.6415	30247.2625
1243.20374	30291.3625
1246.76355	30586.4625
1250.32093	30932.8625
1253.8759	31547.5625
1257.42845	32387.3625
1260.97859	33207.3625
1264.52631	34002.9625
1268.07163	34872.7625
1271.61453	35799.7625
1275.15503	36895.6625
1278.69312	38140.0625
1282.22882	39311.6625
1285.76211	40667.1625
1289.29301	42380.7625
1292.82151	44676.6625
1296.34761	47524.9625
1299.87133	50653.7625
1303.39266	53660.1625
1306.9116	56492.2625
1310.42815	58849.3625
1313.94233	60400.8625
1317.45412	60805.3625
1320.96354	60674.2625
1324.47058	60375.9625
1327.97525	59933.4625
1331.47754	59563.5625
1334.97747	59381.0625
1338.47502	59196.7625
1341.97022	58705.5625
1345.46305	57803.3625
1348.95352	56341.3625
1352.44163	54790.7625
1355.92738	53984.6625
1359.41078	54416.5625
1362.89183	55165.9625
1366.37053	53912.2625
1369.84688	50157.2625
1373.32088	45711.7625
1376.79254	42898.8625
1380.26186	42028.9625
1383.72883	42528.9625
1387.19347	43311.2625
1390.65578	43870.5625
1394.11575	44507.4625
1397.57339	45493.6625
1401.0287	46574.7625
1404.48168	47301.5625
1407.93234	47143.8625
1411.38068	45918.3625
1414.82669	43706.1625
1418.27039	41002.8625
1421.71177	38469.8625
1425.15083	36434.5625
1428.58758	35348.2625
1432.02203	35335.1625
1435.45416	36159.0625
1438.88399	37488.9625
1442.31151	38702.0625
1445.73673	39685.8625
1449.15965	40640.6625
1452.58027	41665.4625
1455.9986	42440.9625
1459.41463	43038.7625
1462.82837	43574.9625
1466.23982	44089.9625
1469.64898	44383.3625
1473.05586	44359.4625
1476.46045	43944.4625
1479.86276	43238.0625
1483.26279	42328.6625
1486.66054	41536.5625
1490.05602	41189.7625
1493.44922	41068.0625
1496.84016	41094.7625
1500.22882	41565.4625
1503.61521	42423.4625
1506.99934	43666.9625
1510.38121	44888.7625
1513.76081	45340.2625
1517.13816	44850.9625
1520.51324	43858.4625
1523.88607	42979.4625
1527.25665	42692.4625
1530.62498	42773.9625
1533.99105	42983.6625
1537.35488	42876.1625
1540.71647	42362.4625
1544.07581	41342.2625
1547.4329	40171.2625
1550.78776	39150.3625
1554.14038	38421.5625
1557.49077	38061.5625
1560.83892	37858.7625
1564.18484	37838.0625
1567.52853	37929.7625
1570.86999	38198.4625
1574.20922	38988.2625
1577.54624	39888.4625
1580.88103	40561.9625
1584.2136	41257.3625
1587.54395	42581.2625
1590.87208	44483.2625
1594.19801	46731.1625
1597.52172	48756.9625
1600.84321	49095.2625
1604.16251	46998.9625
1607.47959	43314.4625
1610.79447	39365.4625
1614.10715	35780.3625
1617.41763	32733.3625
1620.7259	30594.2625
1624.03199	29469.5625
1627.33587	29369.7625
1630.63757	30220.7625
1633.93707	32234.3625
1637.23439	35577.0625
1640.52951	40277.4625
1643.82246	45572.9625
1647.11321	49606.5625
1650.40179	50349.2625
1653.68819	47140.2625
1656.97241	41174.7625
1660.25446	34992.2625
1663.53433	30108.8625
1666.81203	26729.5625
1670.08756	24607.7625
1673.36092	23297.1625
1676.63211	22446.6625
1679.90115	21793.4625
1683.16801	21321.1625
1686.43272	21005.5625
1689.69527	20723.2625
1692.95567	20543.7625
1696.2139	20414.3625
1699.46999	20260.3625
1702.72392	20149.0625
1705.97571	20062.9625
1709.22535	20010.4625
1712.47284	19924.6625
1715.71819	19853.1625
1718.96139	19813.5625
1722.20246	19742.4625
1725.44139	19636.5625
1728.67818	19480.1625
1731.91284	19388.1625
1735.14537	19269.7625
1738.37576	19198.6625
1741.60403	19128.3625
1744.83017	19026.0625
1748.05418	18985.7625
1751.27607	18987.7625
1754.49584	18969.2625
1757.71349	18914.9625
1760.92903	18914.4625
1764.14244	18878.4625
1767.35375	18838.6625
1770.56294	18790.5625
1773.77002	18700.1625
1776.97499	18635.3625
1780.17785	18624.4625
1783.37861	18582.5625
1786.57727	18548.8625
1789.77382	18543.8625
1792.96828	18502.6625
1796.16064	18455.6625
1799.3509	18378.3625
1802.53907	18357.7625
1805.72514	18286.0625
1808.90913	18228.4625
1812.09102	18250.3625
1815.27083	18147.4625
1818.44856	18086.8625
1821.6242	18099.1625
1824.79776	18058.9625
1827.96924	18028.8625
1831.13864	17995.4625
1834.30597	18011.3625
1837.47122	17939.7625
1840.6344	17946.4625
1843.7955	17938.6625
1846.95454	17905.3625
1850.11151	17902.9625
1853.26642	17886.4625
1856.41926	17892.5625
1859.57004	17878.0625
1862.71876	17861.9625
1865.86542	17828.1625
1869.01003	17803.8625
1872.15258	17803.8625
1875.29308	17810.6625
1878.43152	17768.2625
1881.56792	17770.8625
1884.70227	17755.4625
1887.83457	17721.5625
1890.96482	17712.9625
1894.09304	17671.5625
1897.21921	17642.8625
1900.34335	17641.0625
1903.46544	17642.1625
1906.58551	17603.4625
1909.70353	17562.6625
1912.81953	17562.4625
1915.93349	17534.7625
1919.04543	17486.1625
1922.15534	17464.3625
1925.26322	17422.3625
1928.36908	17379.9625
1931.47292	17394.0625
1934.57473	17360.3625
1937.67453	17311.2625
1940.77232	17226.3625
1943.86808	17177.6625
1946.96184	17114.5625
1950.05358	17031.2625
1953.14331	16986.7625
1956.23103	16915.4625
1959.31675	16863.7625
1962.40046	16843.6625
1965.48217	16789.0625
1968.56188	16738.6625
1971.63959	16660.7625
1974.7153	16628.0625
1977.78901	16584.7625
1980.86073	16535.6625
1983.93046	16464.9625
1986.99819	16462.0625
1990.06394	16388.8625
1993.1277	16299.2625
1996.18947	16256.9625
1999.24925	16236.6625
2002.30706	16200.9625
2005.36288	16146.5625
2008.41672	16100.6625
2011.46859	16048.2625
2014.51848	15987.4625
2017.56639	15954.6625
2020.61233	15896.7625
2023.6563	15872.9625
2026.6983	15829.0625
2029.73833	15783.3625
2032.7764	15742.2625
2035.8125	15733.3625
2038.84664	15716.3625
2041.87881	15705.0625
2044.90903	15661.3625
2047.93729	15612.4625
2050.96359	15604.3625
2053.98794	15607.0625
2057.01034	15586.7625
2060.03078	15570.2625
2063.04927	15549.1625
2066.06582	15561.2625
2069.08042	15563.1625
2072.09307	15511.9625
2075.10378	15520.3625
2078.11255	15470.9625
2081.11938	15487.5625
2084.12426	15448.1625
2087.12722	15440.5625
2090.12824	15470.2625
2093.12732	15451.8625
2096.12447	15455.8625
2099.11969	15436.0625
2102.11299	15419.9625
2105.10435	15401.4625
2108.09379	15414.4625
2111.08131	15444.0625
2114.0669	15441.2625
2117.05057	15468.6625
2120.03233	15462.9625
2123.01216	15473.4625
2125.99008	15506.3625
2128.96609	15497.2625
2131.94018	15523.2625
2134.91236	15509.7625
2137.88263	15517.7625
2140.851	15495.3625
2143.81746	15513.3625
2146.78201	15504.0625
2149.74466	15486.3625
2152.7054	15499.8625
2155.66425	15507.9625
2158.6212	15467.2625
2161.57625	15476.2625
2164.52941	15489.5625
2167.48067	15462.1625
2170.43004	15469.6625
2173.37752	15443.1625
2176.32311	15477.2625
2179.26681	15486.0625
2182.20863	15444.2625
2185.14856	15440.1625
2188.08661	15459.1625
2191.02278	15482.2625
2193.95707	15428.4625
2196.88948	15396.4625
2199.82001	15391.0625
2202.74867	15374.0625
2205.67545	15366.3625
2208.60037	15357.3625
2211.52341	15315.8625
2214.44458	15303.7625
2217.36388	15273.2625
2220.28132	15194.3625
2223.1969	15204.4625
2226.11061	15171.9625
2229.02246	15169.3625
2231.93245	15140.4625
2234.84058	15074.8625
2237.74686	15040.1625
2240.65128	15042.7625
2243.55385	15037.5625
2246.45456	15045.1625
2249.35343	15013.7625
2252.25044	14989.1625
2255.14561	14940.4625
2258.03893	14861.5625
2260.93041	14832.4625
2263.82004	14819.7625
2266.70783	14773.3625
2269.59378	14749.0625
2272.4779	14705.2625
2275.36017	14648.7625
2278.24061	14630.9625
2281.11922	14594.8625
2283.996	14601.7625
2286.87094	14578.0625
2289.74405	14527.3625
2292.61534	14540.6625
2295.4848	14495.5625
2298.35243	14526.4625
2301.21824	14512.5625
2304.08223	14570.8625
2306.94439	14545.9625
2309.80474	14500.2625
2312.66327	14526.9625
2315.51999	14523.5625
2318.37489	14499.3625
2321.22797	14465.6625
2324.07925	14463.0625
2326.92871	14434.3625
2329.77637	14446.5625
2332.62222	14427.9625
2335.46626	14407.6625
2338.3085	14418.0625
2341.14893	14431.7625
2343.98756	14401.6625
2346.8244	14398.7625
2349.65943	14372.2625
2352.49267	14377.6625
2355.32411	14407.9625
2358.15376	14386.8625
2360.98161	14382.4625
2363.80768	14373.0625
2366.63195	14326.8625
2369.45444	14337.3625
2372.27514	14292.5625
2375.09405	14269.5625
2377.91118	14220.7625
2380.72652	14175.7625
2383.54009	14196.6625
2386.35187	14153.5625
2389.16188	14112.7625
2391.97011	14113.2625
2394.77657	14056.0625
2397.58125	14026.2625
2400.38416	13978.1625
2403.18529	13985.5625
2405.98466	13992.1625
2408.78226	13937.3625
2411.57809	13962.5625
2414.37216	13930.4625
2417.16446	13904.9625
2419.955	13914.8625
2422.74378	13900.7625
2425.5308	13889.3625
2428.31606	13869.1625
2431.09956	13857.5625
2433.88131	13849.9625
2436.6613	13873.2625
2439.43954	13874.0625
2442.21603	13843.4625
2444.99077	13816.1625
2447.76377	13825.1625
2450.53501	13814.2625
2453.30451	13812.6625
2456.07226	13795.4625
2458.83827	13798.3625
2461.60254	13790.2625
2464.36507	13771.4625
2467.12586	13781.2625
2469.88492	13786.2625
2472.64224	13785.6625
2475.39782	13780.1625
2478.15167	13798.3625
2480.90379	13799.3625
2483.65417	13792.0625
2486.40283	13784.4625
2489.14976	13831.6625
2491.89497	13820.1625
2494.63845	13847.5625
2497.3802	13810.5625
2500.12024	13851.3625
2502.85855	13791.3625
2505.59514	13831.0625
2508.33002	13793.8625
2511.06318	13779.6625
2513.79462	13750.6625
2516.52435	13760.6625
2519.25237	13743.6625
2521.97867	13719.8625
2524.70327	13730.7625
2527.42616	13695.6625
2530.14734	13720.4625
2532.86681	13674.6625
2535.58458	13723.8625
2538.30065	13698.8625
2541.01501	13684.3625
2543.72768	13685.2625
2546.43864	13631.7625
2549.14791	13638.5625
2551.85548	13632.5625
2554.56136	13591.1625
2557.26554	13572.5625
2559.96803	13578.2625
2562.66883	13540.1625
2565.36794	13546.7625
2568.06536	13547.2625
2570.7611	13519.7625
2573.45514	13529.7625
2576.14751	13511.4625
2578.83819	13471.6625
2581.52719	13527.2625
2584.21451	13482.4625
2586.90015	13511.1625
2589.58411	13503.9625
2592.2664	13501.3625
2594.94701	13483.0625
2597.62594	13486.2625
2600.30321	13458.0625
2602.9788	13427.3625
2605.65273	13410.4625
2608.32498	13448.8625
2610.99557	13453.6625
2613.66449	13472.8625
2616.33175	13474.6625
2618.99734	13467.0625
2621.66128	13454.8625
2624.32355	13443.8625
2626.98416	13442.4625
2629.64311	13428.2625
2632.30041	13437.1625
2634.95605	13438.0625
2637.61004	13406.8625
2640.26238	13408.9625
2642.91306	13412.5625
2645.56209	13389.5625
2648.20948	13412.2625
2650.85521	13371.2625
2653.4993	13379.8625
2656.14175	13405.7625
2658.78255	13448.8625
2661.42171	13407.1625
2664.05923	13419.5625
2666.6951	13415.8625
2669.32934	13424.5625
2671.96194	13438.9625
2674.59291	13435.4625
2677.22224	13419.5625
2679.84993	13438.1625
2682.476	13402.3625
2685.10043	13420.8625
2687.72324	13383.7625
2690.34441	13385.4625
2692.96396	13367.6625
2695.58188	13331.0625
2698.19818	13374.9625
2700.81285	13391.6625
2703.4259	13393.2625
2706.03733	13404.8625
2708.64714	13407.5625
2711.25533	13421.6625
2713.86191	13416.7625
2716.46687	13487.7625
2719.07021	13453.5625
2721.67194	13463.6625
2724.27206	13452.0625
2726.87057	13483.9625
2729.46747	13511.0625
2732.06276	13508.8625
2734.65644	13481.9625
2737.24852	13518.9625
2739.83899	13482.6625
2742.42786	13515.0625
2745.01513	13463.8625
2747.60079	13439.1625
2750.18486	13446.4625
2752.76733	13449.7625
2755.3482	13451.6625
2757.92747	13417.6625
2760.50515	13397.2625
2763.08123	13434.5625
2765.65573	13441.3625
2768.22863	13424.8625
2770.79994	13430.7625
2773.36967	13449.8625
2775.9378	13479.6625
2778.50435	13430.8625
2781.06932	13427.0625
2783.6327	13448.6625
2786.1945	13426.7625
2788.75471	13428.5625
2791.31335	13446.7625
2793.87041	13444.5625
2796.42589	13417.1625
2798.97979	13384.1625
2801.53212	13380.7625
2804.08288	13324.0625
2806.63206	13308.0625
2809.17967	13295.4625
2811.72571	13276.1625
2814.27018	13260.1625
2816.81308	13223.2625
2819.35442	13208.6625
2821.89419	13154.3625
2824.43239	13162.7625
2826.96904	13134.0625
2829.50412	13139.2625
2832.03763	13094.1625
2834.56959	13100.8625
2837.1	13080.4625
2839.62884	13117.9625
2842.15613	13130.9625
2844.68186	13166.5625
2847.20604	13157.5625
2849.72867	13197.6625
2852.24974	13208.6625
2854.76927	13157.9625
2857.28724	13130.8625
2859.80367	13139.0625
2862.31855	13105.3625
2864.83189	13097.2625
2867.34368	13070.0625
2869.85393	13062.8625
2872.36264	13074.6625
2874.8698	13097.6625
2877.37543	13093.3625
2879.87952	13071.8625
2882.38207	13091.4625
2884.88308	13080.7625
2887.38256	13110.4625
2889.88051	13095.0625
2892.37692	13124.2625
2894.8718	13136.3625
2897.36515	13122.8625
2899.85698	13117.2625
2902.34727	13145.4625
2904.83604	13165.2625
2907.32328	13214.6625
2909.809	13218.7625
2912.29319	13188.8625
2914.77587	13193.4625
2917.25702	13186.5625
2919.73665	13184.5625
2922.21476	13189.3625
2924.69136	13178.8625
2927.16644	13193.1625
2929.64	13178.0625
2932.11205	13145.6625
2934.58258	13138.1625
2937.05161	13105.3625
2939.51912	13106.9625
2941.98513	13103.2625
2944.44962	13057.1625
2946.91261	13031.6625
2949.37409	13030.9625
2951.83407	13026.3625
2954.29254	12995.1625
2956.74951	12975.1625
2959.20498	12960.3625
2961.65895	12926.1625
2964.11142	12933.8625
2966.56239	12932.2625
2969.01186	12903.2625
2971.45984	12877.7625
2973.90632	12844.3625
2976.35131	12827.9625
2978.7948	12790.6625
2981.23681	12773.9625
2983.67732	12745.1625
2986.11635	12700.3625
2988.55388	12670.7625
2990.98993	12645.7625
2993.4245	12597.8625
2995.85758	12574.5625
2998.28917	12555.7625
3000.71928	12537.7625
3003.14791	12509.6625
3005.57506	12488.8625
3008.00073	12429.4625
3010.42493	12420.8625
3012.84764	12401.1625
3015.26888	12411.4625
3017.68865	12327.8625
3020.10694	12308.5625
3022.52376	12305.5625
3024.9391	12262.0625
3027.35298	12268.5625
3029.76539	12292.8625
3032.17632	12244.7625
3034.5858	12244.0625
3036.9938	12251.0625
3039.40034	12262.3625
3041.80542	12235.5625
3044.20903	12235.3625
3046.61118	12223.8625
3049.01187	12204.5625
3051.4111	12168.0625
3053.80888	12146.7625
3056.20519	12125.0625
3058.60005	12109.6625
3060.99345	12055.6625
3063.3854	12047.9625
3065.7759	11950.6625
3068.16494	11940.2625
3070.55254	11902.0625
3072.93868	11884.4625
3075.32338	11837.0625
3077.70662	11811.6625
3080.08842	11786.7625
3082.46878	11739.6625
3084.84769	11761.2625
3087.22515	11745.0625
3089.60118	11747.9625
3091.97576	11724.3625
3094.3489	11753.7625
3096.72061	11731.6625
3099.09087	11746.2625
3101.4597	11727.0625
3103.82709	11708.2625
3106.19305	11677.6625
3108.55757	11694.9625
3110.92066	11608.8625
3113.28232	11636.0625
3115.64255	11581.5625
3118.00134	11582.8625
3120.35871	11570.3625
3122.71466	11554.9625
3125.06917	11530.2625
3127.42226	11478.9625
3129.77393	11479.9625
3132.12417	11440.5625
3134.47299	11446.1625
3136.82039	11427.4625
3139.16636	11443.3625
3141.51092	11452.1625
3143.85406	11437.4625
3146.19579	11439.9625
3148.53609	11412.1625
3150.87499	11425.2625
3153.21246	11432.6625
3155.54853	11476.7625
3157.88318	11458.3625
3160.21642	11461.7625
3162.54826	11478.7625
3164.87868	11475.4625
3167.2077	11491.3625
3169.5353	11467.2625
3171.86151	11454.5625
3174.18631	11475.3625
3176.5097	11459.4625
3178.83169	11419.5625
3181.15228	11460.2625
3183.47147	11413.3625
3185.78926	11391.8625
3188.10565	11385.7625
3190.42065	11392.3625
3192.73424	11372.3625
3195.04645	11379.7625
3197.35725	11368.4625
3199.66667	11312.3625
3201.97469	11352.9625
3204.28132	11339.9625
3206.58656	11337.0625
3208.8904	11356.4625
3211.19287	11361.9625
3213.49394	11370.3625
3215.79363	11372.7625
3218.09193	11371.6625
3220.38884	11380.5625
3222.68438	11369.6625
3224.97853	11369.2625
3227.2713	11363.0625
3229.56269	11339.3625
3231.8527	11343.6625
3234.14133	11311.4625
3236.42858	11279.3625
3238.71446	11254.8625
3240.99896	11254.1625
3243.28209	11224.2625
3245.56384	11225.7625
3247.84423	11232.0625
3250.12324	11222.7625
3252.40088	11210.9625
3254.67715	11182.5625
3256.95205	11155.3625
3259.22558	11151.1625
3261.49775	11131.0625
3263.76855	11110.5625
3266.03799	11093.6625
3268.30606	11064.7625
3270.57277	11048.9625
3272.83812	11036.5625
3275.10211	11017.1625
3277.36474	11014.5625
3279.62601	11004.6625
3281.88593	11001.6625
3284.14448	10985.8625
3286.40168	10992.2625
3288.65753	11017.6625
3290.91202	10974.6625
3293.16516	10963.1625
3295.41695	10939.6625
3297.66738	10861.4625
3299.91647	10792.1625
3302.16421	10727.5625
3304.4106	10673.4625
3306.65564	10623.4625
3308.89933	10549.3625
3311.14169	10464.8625
3313.38269	10390.2625
3315.62236	10292.7625
3317.86068	10210.7625
3320.09766	10147.0625
3322.3333	10082.5625
3324.5676	10039.3625
3326.80056	9872.6625
3329.03219	9796.4625
3331.26248	4.4625
3333.49143	1.2625
3335.71905	-0.9375
