Data from AgNPs_FTO_APTES_UA_5uM_CRN_20uM_R6G_10uM_NaF_0.1M_Addition_RamanShift__2__13-05-16-759.txt Node

Date: Mon Feb 07 13:05:16 GMT 2022
User: TCL
Spectrometer: QEP01345
Trigger mode: 4
Integration Time (sec): 7.000000E0
Scans to average: 10
Electric dark correction enabled: true
Nonlinearity correction enabled: false
Boxcar width: 0
XAxis mode: Raman Shifts
Number of Pixels in Spectrum: 1044
>>>>>Begin Spectral Data<<<<<
46.04893	-0.8375
50.45542	-1.9375
54.85868	-0.7375
59.25871	1.1625
63.6555	86.4625
68.04907	91.0625
72.43941	98.8625
76.82654	102.1625
81.21044	104.8625
85.59113	106.8625
89.96862	114.0625
94.34289	111.6625
98.71396	115.1625
103.08183	118.8625
107.4465	126.9625
111.80798	125.2625
116.16626	131.7625
120.52136	137.2625
124.87327	150.0625
129.222	160.2625
133.56755	167.8625
137.90993	184.0625
142.24913	200.6625
146.58517	233.2625
150.91804	270.6625
155.24774	333.3625
159.57429	417.3625
163.89768	543.9625
168.21792	725.6625
172.53501	990.0625
176.84895	1391.4625
181.15975	1960.4625
185.46741	2752.6625
189.77193	3811.9625
194.07331	5069.3625
198.37157	6513.9625
202.6667	8028.9625
206.9587	9535.0625
211.24758	11031.6625
215.53334	12511.1625
219.81599	14139.9625
224.09553	15947.7625
228.37195	17902.3625
232.64527	20024.5625
236.91549	22191.7625
241.18261	24372.9625
245.44663	26334.6625
249.70755	28087.7625
253.96539	29618.0625
258.22014	30959.8625
262.4718	32032.9625
266.72039	32808.8625
270.96589	33219.4625
275.20832	33338.8625
279.44768	33158.2625
283.68397	32924.3625
287.91719	32667.5625
292.14735	32588.0625
296.37445	32673.5625
300.59849	32880.1625
304.81948	33096.6625
309.03742	33149.5625
313.25231	32900.7625
317.46415	32267.9625
321.67296	31410.2625
325.87872	30667.4625
330.08145	30257.7625
334.28114	30151.7625
338.47781	30318.9625
342.67145	30639.2625
346.86207	31125.6625
351.04966	31768.5625
355.23424	32409.3625
359.4158	32943.2625
363.59435	33379.8625
367.76989	33638.3625
371.94243	33799.9625
376.11196	33952.3625
380.27849	34059.3625
384.44203	34255.5625
388.60257	34539.3625
392.76012	34942.5625
396.91468	35384.7625
401.06626	35950.6625
405.21485	36326.1625
409.36047	36147.4625
413.50311	35754.7625
417.64277	35529.4625
421.77947	35693.2625
425.9132	35795.2625
430.04396	35948.0625
434.17176	36160.6625
438.2966	36428.9625
442.41849	37148.6625
446.53742	38463.1625
450.6534	39909.1625
454.76644	40872.4625
458.87653	41115.1625
462.98368	40673.7625
467.08789	39883.9625
471.18916	39064.1625
475.2875	38456.3625
479.38291	38215.5625
483.4754	38026.2625
487.56496	37701.5625
491.6516	36953.4625
495.73531	36141.2625
499.81612	35637.6625
503.89401	35654.0625
507.96899	35716.5625
512.04106	35602.8625
516.11023	35180.6625
520.1765	34700.7625
524.23987	34324.4625
528.30034	34004.5625
532.35792	33740.0625
536.41261	33262.7625
540.46441	32760.0625
544.51333	32664.0625
548.55936	33121.4625
552.60252	33973.2625
556.64279	35131.8625
560.6802	36090.9625
564.71473	36723.6625
568.7464	37585.7625
572.7752	38953.3625
576.80114	40265.5625
580.82422	41544.5625
584.84444	43212.4625
588.86181	45379.7625
592.87633	47134.3625
596.888	46778.5625
600.89682	44095.4625
604.9028	43081.1625
608.90594	45512.1625
612.90624	48484.9625
616.90371	45284.7625
620.89834	37798.3625
624.89015	34451.3625
628.87913	34084.2625
632.86528	34106.3625
636.84862	33770.4625
640.82913	33001.1625
644.80683	32120.3625
648.78172	31577.4625
652.75379	31537.0625
656.72306	31946.3625
660.68952	32452.3625
664.65319	32243.2625
668.61405	31530.3625
672.57211	31393.1625
676.52738	31540.5625
680.47986	31543.4625
684.42955	31234.5625
688.37646	31096.5625
692.32058	31369.5625
696.26192	31970.3625
700.20048	32600.4625
704.13626	32901.2625
708.06928	32894.8625
711.99952	32724.5625
715.927	32797.4625
719.85171	33007.9625
723.77365	32885.6625
727.69284	32301.9625
731.60928	31727.9625
735.52295	31549.3625
739.43388	31585.9625
743.34206	31677.5625
747.24749	31952.4625
751.15017	32343.9625
755.05012	33035.3625
758.94733	34118.7625
762.8418	35981.9625
766.73354	38640.8625
770.62254	40919.2625
774.50882	41142.3625
778.39237	39060.8625
782.27321	36228.8625
786.15132	33918.9625
790.02671	32526.7625
793.89938	31836.7625
797.76935	31566.5625
801.6366	31542.2625
805.50115	31488.0625
809.36299	31336.1625
813.22213	31066.3625
817.07857	30907.5625
820.93231	30734.4625
824.78336	30493.9625
828.63172	30331.3625
832.47738	30258.9625
836.32036	30381.2625
840.16066	30560.7625
843.99827	30747.9625
847.8332	30652.1625
851.66546	30449.6625
855.49504	30379.5625
859.32195	30331.7625
863.1462	30151.3625
866.96777	30033.4625
870.78668	29952.1625
874.60293	29921.0625
878.41652	29898.6625
882.22745	30038.1625
886.03573	30108.7625
889.84136	30170.6625
893.64433	29982.5625
897.44466	29813.5625
901.24235	29734.1625
905.0374	29612.4625
908.8298	29594.4625
912.61957	29721.2625
916.40671	30099.8625
920.19121	30694.1625
923.97308	31269.4625
927.75233	31348.8625
931.52895	30962.9625
935.30295	30380.5625
939.07433	29753.7625
942.84309	29241.6625
946.60924	29087.3625
950.37278	29019.0625
954.13371	28948.7625
957.89203	28839.7625
961.64774	28843.6625
965.40086	28822.9625
969.15137	28805.8625
972.89929	28665.0625
976.64461	28570.7625
980.38733	28566.5625
984.12747	28746.8625
987.86502	28994.9625
991.59999	29346.4625
995.33237	29873.6625
999.06217	30836.6625
1002.78939	31940.2625
1006.51404	32775.1625
1010.23611	33223.0625
1013.95561	33561.7625
1017.67255	33564.1625
1021.38692	33062.9625
1025.09872	32456.9625
1028.80796	32503.7625
1032.51465	33403.0625
1036.21877	34447.6625
1039.92035	34774.6625
1043.61937	34401.6625
1047.31584	33662.5625
1051.00976	32702.8625
1054.70114	32183.2625
1058.38998	32117.7625
1062.07627	32246.6625
1065.76003	32461.0625
1069.44126	32806.6625
1073.11995	33283.2625
1076.79611	33763.6625
1080.46974	34018.9625
1084.14085	34393.5625
1087.80943	34843.4625
1091.47549	35268.5625
1095.13903	35298.1625
1098.80005	34791.3625
1102.45857	33896.4625
1106.11456	33197.7625
1109.76805	32895.0625
1113.41903	32926.8625
1117.06751	33096.8625
1120.71348	33457.5625
1124.35696	33803.6625
1127.99793	34245.2625
1131.63641	34530.7625
1135.2724	34447.4625
1138.90589	34382.9625
1142.5369	34556.4625
1146.16542	34901.5625
1149.79145	35335.7625
1153.415	35955.8625
1157.03607	36750.4625
1160.65467	38315.8625
1164.27079	40671.5625
1167.88443	43353.7625
1171.49561	46185.9625
1175.10432	49611.6625
1178.71056	54074.6625
1182.31434	58119.1625
1185.91565	59726.5625
1189.51451	58839.9625
1193.11091	56718.2625
1196.70485	54325.8625
1200.29634	52304.7625
1203.88538	51205.6625
1207.47197	50758.1625
1211.05612	50202.4625
1214.63782	49162.8625
1218.21708	47660.9625
1221.79391	46298.5625
1225.36829	45329.7625
1228.94024	44443.0625
1232.50976	43264.1625
1236.07685	42231.4625
1239.6415	41704.2625
1243.20374	41754.3625
1246.76355	42197.1625
1250.32093	43058.7625
1253.8759	44252.7625
1257.42845	45572.6625
1260.97859	47078.6625
1264.52631	48615.5625
1268.07163	50287.4625
1271.61453	52079.9625
1275.15503	54026.0625
1278.69312	56125.8625
1282.22882	58247.6625
1285.76211	60729.8625
1289.29301	63760.8625
1292.82151	67409.9625
1296.34761	72035.2625
1299.87133	77578.3625
1303.39266	83280.6625
1306.9116	88281.8625
1310.42815	91897.0625
1313.94233	93145.8625
1317.45412	91958.8625
1320.96354	89658.0625
1324.47058	87569.8625
1327.97525	85923.1625
1331.47754	84826.4625
1334.97747	83876.4625
1338.47502	82417.6625
1341.97022	80289.3625
1345.46305	77784.5625
1348.95352	75967.4625
1352.44163	75940.7625
1355.92738	78385.4625
1359.41078	82476.6625
1362.89183	85535.1625
1366.37053	84314.2625
1369.84688	77404.2625
1373.32088	68206.0625
1376.79254	61927.1625
1380.26186	60087.0625
1383.72883	60793.9625
1387.19347	61350.6625
1390.65578	60947.5625
1394.11575	60975.7625
1397.57339	62089.0625
1401.0287	63744.9625
1404.48168	65018.7625
1407.93234	65008.7625
1411.38068	63448.8625
1414.82669	60717.5625
1418.27039	57477.7625
1421.71177	54198.7625
1425.15083	51621.4625
1428.58758	50338.6625
1432.02203	50922.3625
1435.45416	52855.9625
1438.88399	55154.0625
1442.31151	56825.7625
1445.73673	57855.6625
1449.15965	58605.1625
1452.58027	58669.6625
1455.9986	58312.3625
1459.41463	58206.0625
1462.82837	58857.1625
1466.23982	60014.5625
1469.64898	61295.7625
1473.05586	62122.6625
1476.46045	62232.3625
1479.86276	61849.7625
1483.26279	60896.9625
1486.66054	60370.2625
1490.05602	60289.6625
1493.44922	60533.9625
1496.84016	60788.5625
1500.22882	61176.7625
1503.61521	62101.8625
1506.99934	63500.7625
1510.38121	64798.8625
1513.76081	65301.7625
1517.13816	64360.8625
1520.51324	62771.1625
1523.88607	61586.9625
1527.25665	61557.4625
1530.62498	61939.8625
1533.99105	62012.8625
1537.35488	61299.0625
1540.71647	59947.3625
1544.07581	57985.0625
1547.4329	55826.1625
1550.78776	54148.5625
1554.14038	52875.4625
1557.49077	52078.8625
1560.83892	51525.2625
1564.18484	51256.6625
1567.52853	51327.6625
1570.86999	51970.2625
1574.20922	53303.5625
1577.54624	54713.0625
1580.88103	55698.6625
1584.2136	57095.1625
1587.54395	60082.1625
1590.87208	64474.4625
1594.19801	69367.5625
1597.52172	73305.4625
1600.84321	73802.5625
1604.16251	69305.3625
1607.47959	61860.1625
1610.79447	54488.4625
1614.10715	48406.3625
1617.41763	44056.7625
1620.7259	41442.0625
1624.03199	40322.4625
1627.33587	40719.7625
1630.63757	42586.8625
1633.93707	46294.9625
1637.23439	52120.0625
1640.52951	60539.8625
1643.82246	70421.2625
1647.11321	78060.9625
1650.40179	78612.7625
1653.68819	71135.4625
1656.97241	59573.2625
1660.25446	48930.9625
1663.53433	41339.1625
1666.81203	36669.4625
1670.08756	33781.9625
1673.36092	31991.9625
1676.63211	30824.8625
1679.90115	30045.7625
1683.16801	29472.5625
1686.43272	29009.4625
1689.69527	28691.9625
1692.95567	28453.8625
1696.2139	28284.3625
1699.46999	28108.0625
1702.72392	27988.1625
1705.97571	27847.0625
1709.22535	27798.3625
1712.47284	27752.9625
1715.71819	27720.5625
1718.96139	27626.7625
1722.20246	27520.9625
1725.44139	27380.6625
1728.67818	27147.7625
1731.91284	27012.7625
1735.14537	26793.7625
1738.37576	26685.2625
1741.60403	26587.8625
1744.83017	26466.1625
1748.05418	26362.1625
1751.27607	26330.2625
1754.49584	26302.1625
1757.71349	26279.4625
1760.92903	26249.6625
1764.14244	26214.8625
1767.35375	26229.0625
1770.56294	26130.1625
1773.77002	26080.3625
1776.97499	26016.7625
1780.17785	25950.6625
1783.37861	25919.3625
1786.57727	25870.1625
1789.77382	25846.9625
1792.96828	25843.9625
1796.16064	25751.7625
1799.3509	25667.6625
1802.53907	25615.8625
1805.72514	25564.4625
1808.90913	25488.4625
1812.09102	25418.1625
1815.27083	25393.5625
1818.44856	25336.4625
1821.6242	25309.4625
1824.79776	25271.1625
1827.96924	25294.5625
1831.13864	25276.8625
1834.30597	25252.0625
1837.47122	25291.5625
1840.6344	25260.9625
1843.7955	25240.6625
1846.95454	25229.9625
1850.11151	25227.3625
1853.26642	25216.9625
1856.41926	25227.0625
1859.57004	25223.5625
1862.71876	25179.7625
1865.86542	25166.4625
1869.01003	25111.4625
1872.15258	25085.4625
1875.29308	25074.0625
1878.43152	25044.2625
1881.56792	25022.7625
1884.70227	25005.8625
1887.83457	24992.2625
1890.96482	24958.7625
1894.09304	24936.1625
1897.21921	24935.0625
1900.34335	24957.6625
1903.46544	24905.9625
1906.58551	24885.1625
1909.70353	24846.4625
1912.81953	24785.2625
1915.93349	24704.1625
1919.04543	24693.9625
1922.15534	24630.6625
1925.26322	24541.4625
1928.36908	24488.6625
1931.47292	24461.0625
1934.57473	24422.9625
1937.67453	24322.8625
1940.77232	24242.7625
1943.86808	24175.5625
1946.96184	24147.0625
1950.05358	24107.8625
1953.14331	24030.2625
1956.23103	23957.4625
1959.31675	23879.9625
1962.40046	23769.5625
1965.48217	23696.8625
1968.56188	23659.2625
1971.63959	23566.7625
1974.7153	23494.9625
1977.78901	23474.4625
1980.86073	23349.7625
1983.93046	23264.1625
1986.99819	23241.2625
1990.06394	23165.9625
1993.1277	23129.4625
1996.18947	23058.9625
1999.24925	23008.9625
2002.30706	22952.7625
2005.36288	22883.0625
2008.41672	22858.4625
2011.46859	22750.5625
2014.51848	22710.1625
2017.56639	22671.0625
2020.61233	22601.9625
2023.6563	22565.7625
2026.6983	22498.7625
2029.73833	22483.0625
2032.7764	22450.9625
2035.8125	22372.9625
2038.84664	22352.1625
2041.87881	22329.8625
2044.90903	22325.3625
2047.93729	22302.9625
2050.96359	22267.3625
2053.98794	22241.1625
2057.01034	22235.2625
2060.03078	22195.6625
2063.04927	22173.5625
2066.06582	22181.2625
2069.08042	22185.3625
2072.09307	22154.1625
2075.10378	22099.2625
2078.11255	22131.5625
2081.11938	22121.8625
2084.12426	22082.4625
2087.12722	22060.4625
2090.12824	22034.8625
2093.12732	22041.6625
2096.12447	22088.1625
2099.11969	22064.1625
2102.11299	22088.1625
2105.10435	22094.1625
2108.09379	22066.7625
2111.08131	22113.5625
2114.0669	22131.4625
2117.05057	22164.0625
2120.03233	22150.8625
2123.01216	22163.2625
2125.99008	22212.9625
2128.96609	22207.7625
2131.94018	22209.8625
2134.91236	22209.4625
2137.88263	22266.8625
2140.851	22259.2625
2143.81746	22282.2625
2146.78201	22267.2625
2149.74466	22239.5625
2152.7054	22231.4625
2155.66425	22190.7625
2158.6212	22204.5625
2161.57625	22193.2625
2164.52941	22195.6625
2167.48067	22178.6625
2170.43004	22214.5625
2173.37752	22176.1625
2176.32311	22213.0625
2179.26681	22231.0625
2182.20863	22212.7625
2185.14856	22274.0625
2188.08661	22243.8625
2191.02278	22277.6625
2193.95707	22263.4625
2196.88948	22261.7625
2199.82001	22242.9625
2202.74867	22210.2625
2205.67545	22211.9625
2208.60037	22184.2625
2211.52341	22165.5625
2214.44458	22134.0625
2217.36388	22113.6625
2220.28132	22027.1625
2223.1969	22008.9625
2226.11061	22028.6625
2229.02246	21964.4625
2231.93245	21926.8625
2234.84058	21892.3625
2237.74686	21883.1625
2240.65128	21873.9625
2243.55385	21817.9625
2246.45456	21804.6625
2249.35343	21722.5625
2252.25044	21707.7625
2255.14561	21630.9625
2258.03893	21633.5625
2260.93041	21583.5625
2263.82004	21549.8625
2266.70783	21490.8625
2269.59378	21446.4625
2272.4779	21367.7625
2275.36017	21316.0625
2278.24061	21302.7625
2281.11922	21250.1625
2283.996	21239.4625
2286.87094	21244.1625
2289.74405	21236.4625
2292.61534	21209.4625
2295.4848	21188.6625
2298.35243	21225.0625
2301.21824	21240.9625
2304.08223	21287.0625
2306.94439	21291.5625
2309.80474	21305.5625
2312.66327	21321.5625
2315.51999	21293.2625
2318.37489	21268.4625
2321.22797	21245.4625
2324.07925	21225.6625
2326.92871	21213.0625
2329.77637	21178.3625
2332.62222	21195.2625
2335.46626	21133.0625
2338.3085	21189.4625
2341.14893	21207.1625
2343.98756	21217.1625
2346.8244	21227.4625
2349.65943	21193.0625
2352.49267	21186.8625
2355.32411	21193.7625
2358.15376	21182.9625
2360.98161	21160.9625
2363.80768	21141.3625
2366.63195	21129.1625
2369.45444	21084.5625
2372.27514	21092.0625
2375.09405	21048.6625
2377.91118	21011.0625
2380.72652	20931.4625
2383.54009	20887.2625
2386.35187	20899.1625
2389.16188	20863.0625
2391.97011	20814.1625
2394.77657	20811.4625
2397.58125	20780.9625
2400.38416	20768.1625
2403.18529	20770.6625
2405.98466	20727.0625
2408.78226	20696.9625
2411.57809	20644.1625
2414.37216	20640.2625
2417.16446	20623.6625
2419.955	20585.6625
2422.74378	20584.2625
2425.5308	20512.0625
2428.31606	20581.8625
2431.09956	20575.9625
2433.88131	20523.8625
2436.6613	20543.8625
2439.43954	20537.6625
2442.21603	20517.7625
2444.99077	20518.0625
2447.76377	20553.2625
2450.53501	20544.1625
2453.30451	20554.3625
2456.07226	20511.8625
2458.83827	20557.0625
2461.60254	20505.6625
2464.36507	20499.1625
2467.12586	20524.1625
2469.88492	20560.7625
2472.64224	20578.7625
2475.39782	20613.1625
2478.15167	20680.8625
2480.90379	20601.6625
2483.65417	20651.6625
2486.40283	20665.0625
2489.14976	20711.5625
2491.89497	20684.6625
2494.63845	20719.4625
2497.3802	20709.8625
2500.12024	20750.1625
2502.85855	20683.6625
2505.59514	20687.7625
2508.33002	20673.9625
2511.06318	20672.2625
2513.79462	20670.0625
2516.52435	20615.5625
2519.25237	20646.3625
2521.97867	20585.7625
2524.70327	20597.1625
2527.42616	20608.4625
2530.14734	20643.3625
2532.86681	20601.2625
2535.58458	20620.8625
2538.30065	20615.9625
2541.01501	20621.6625
2543.72768	20624.1625
2546.43864	20572.3625
2549.14791	20564.2625
2551.85548	20611.3625
2554.56136	20578.5625
2557.26554	20547.2625
2559.96803	20556.3625
2562.66883	20529.9625
2565.36794	20496.2625
2568.06536	20510.7625
2570.7611	20551.9625
2573.45514	20529.5625
2576.14751	20521.6625
2578.83819	20511.0625
2581.52719	20514.2625
2584.21451	20524.0625
2586.90015	20507.4625
2589.58411	20546.0625
2592.2664	20542.4625
2594.94701	20485.7625
2597.62594	20522.7625
2600.30321	20502.0625
2602.9788	20503.7625
2605.65273	20512.2625
2608.32498	20549.9625
2610.99557	20563.6625
2613.66449	20544.1625
2616.33175	20552.9625
2618.99734	20560.6625
2621.66128	20543.8625
2624.32355	20524.1625
2626.98416	20535.0625
2629.64311	20506.4625
2632.30041	20555.7625
2634.95605	20497.9625
2637.61004	20501.4625
2640.26238	20489.0625
2642.91306	20467.8625
2645.56209	20411.2625
2648.20948	20483.4625
2650.85521	20427.1625
2653.4993	20512.7625
2656.14175	20478.3625
2658.78255	20522.3625
2661.42171	20562.0625
2664.05923	20606.2625
2666.6951	20588.4625
2669.32934	20641.0625
2671.96194	20666.6625
2674.59291	20632.3625
2677.22224	20643.1625
2679.84993	20650.5625
2682.476	20598.4625
2685.10043	20577.2625
2687.72324	20611.8625
2690.34441	20578.2625
2692.96396	20558.6625
2695.58188	20580.6625
2698.19818	20576.8625
2700.81285	20603.9625
2703.4259	20611.4625
2706.03733	20652.3625
2708.64714	20624.4625
2711.25533	20667.1625
2713.86191	20645.0625
2716.46687	20664.7625
2719.07021	20736.2625
2721.67194	20770.9625
2724.27206	20768.3625
2726.87057	20806.2625
2729.46747	20825.6625
2732.06276	20854.5625
2734.65644	20831.7625
2737.24852	20817.3625
2739.83899	20789.7625
2742.42786	20815.5625
2745.01513	20808.5625
2747.60079	20805.0625
2750.18486	20796.1625
2752.76733	20811.3625
2755.3482	20781.0625
2757.92747	20807.9625
2760.50515	20810.0625
2763.08123	20815.1625
2765.65573	20800.7625
2768.22863	20839.2625
2770.79994	20777.1625
2773.36967	20820.6625
2775.9378	20802.6625
2778.50435	20797.4625
2781.06932	20831.9625
2783.6327	20829.2625
2786.1945	20881.7625
2788.75471	20859.4625
2791.31335	20816.2625
2793.87041	20762.9625
2796.42589	20741.1625
2798.97979	20751.9625
2801.53212	20746.7625
2804.08288	20713.3625
2806.63206	20634.9625
2809.17967	20599.8625
2811.72571	20576.7625
2814.27018	20563.3625
2816.81308	20532.0625
2819.35442	20485.0625
2821.89419	20431.4625
2824.43239	20463.6625
2826.96904	20476.8625
2829.50412	20496.4625
2832.03763	20410.9625
2834.56959	20436.6625
2837.1	20403.2625
2839.62884	20418.2625
2842.15613	20419.9625
2844.68186	20476.6625
2847.20604	20474.6625
2849.72867	20492.9625
2852.24974	20467.8625
2854.76927	20465.6625
2857.28724	20458.9625
2859.80367	20492.8625
2862.31855	20406.0625
2864.83189	20382.6625
2867.34368	20399.0625
2869.85393	20409.7625
2872.36264	20346.9625
2874.8698	20343.3625
2877.37543	20284.0625
2879.87952	20292.7625
2882.38207	20313.7625
2884.88308	20342.1625
2887.38256	20334.3625
2889.88051	20382.6625
2892.37692	20390.5625
2894.8718	20402.5625
2897.36515	20433.6625
2899.85698	20442.8625
2902.34727	20498.7625
2904.83604	20519.5625
2907.32328	20574.3625
2909.809	20545.8625
2912.29319	20545.6625
2914.77587	20611.1625
2917.25702	20569.1625
2919.73665	20580.2625
2922.21476	20566.0625
2924.69136	20547.8625
2927.16644	20556.9625
2929.64	20531.2625
2932.11205	20482.5625
2934.58258	20426.5625
2937.05161	20459.7625
2939.51912	20464.3625
2941.98513	20407.4625
2944.44962	20406.2625
2946.91261	20390.2625
2949.37409	20392.4625
2951.83407	20326.1625
2954.29254	20345.6625
2956.74951	20323.0625
2959.20498	20304.9625
2961.65895	20257.6625
2964.11142	20253.6625
2966.56239	20240.0625
2969.01186	20270.0625
2971.45984	20221.1625
2973.90632	20241.9625
2976.35131	20189.6625
2978.7948	20113.8625
2981.23681	20062.9625
2983.67732	20027.5625
2986.11635	20002.4625
2988.55388	19965.0625
2990.98993	19914.9625
2993.4245	19825.9625
2995.85758	19794.8625
2998.28917	19738.2625
3000.71928	19731.0625
3003.14791	19732.8625
3005.57506	19708.2625
3008.00073	19596.6625
3010.42493	19511.4625
3012.84764	19564.4625
3015.26888	19585.3625
3017.68865	19526.4625
3020.10694	19507.8625
3022.52376	19441.7625
3024.9391	19456.3625
3027.35298	19397.3625
3029.76539	19412.0625
3032.17632	19403.5625
3034.5858	19392.7625
3036.9938	19374.1625
3039.40034	19366.0625
3041.80542	19381.6625
3044.20903	19341.9625
3046.61118	19308.3625
3049.01187	19288.0625
3051.4111	19307.7625
3053.80888	19238.1625
3056.20519	19238.1625
3058.60005	19157.7625
3060.99345	19113.8625
3063.3854	19088.5625
3065.7759	18997.5625
3068.16494	18977.7625
3070.55254	18876.5625
3072.93868	18879.2625
3075.32338	18815.2625
3077.70662	18783.1625
3080.08842	18723.7625
3082.46878	18729.1625
3084.84769	18675.0625
3087.22515	18701.7625
3089.60118	18683.6625
3091.97576	18669.4625
3094.3489	18652.2625
3096.72061	18647.8625
3099.09087	18621.5625
3101.4597	18636.8625
3103.82709	18621.5625
3106.19305	18584.7625
3108.55757	18580.7625
3110.92066	18508.1625
3113.28232	18519.6625
3115.64255	18475.3625
3118.00134	18467.1625
3120.35871	18416.2625
3122.71466	18378.0625
3125.06917	18326.7625
3127.42226	18277.4625
3129.77393	18287.3625
3132.12417	18208.5625
3134.47299	18232.4625
3136.82039	18226.9625
3139.16636	18241.5625
3141.51092	18216.7625
3143.85406	18208.6625
3146.19579	18234.6625
3148.53609	18235.1625
3150.87499	18232.6625
3153.21246	18199.8625
3155.54853	18233.5625
3157.88318	18223.4625
3160.21642	18257.2625
3162.54826	18222.3625
3164.87868	18252.3625
3167.2077	18211.9625
3169.5353	18240.4625
3171.86151	18213.9625
3174.18631	18211.1625
3176.5097	18195.3625
3178.83169	18148.4625
3181.15228	18164.0625
3183.47147	18131.0625
3185.78926	18179.5625
3188.10565	18106.7625
3190.42065	18123.0625
3192.73424	18077.3625
3195.04645	18072.1625
3197.35725	18034.4625
3199.66667	18001.5625
3201.97469	17974.8625
3204.28132	17978.1625
3206.58656	18017.6625
3208.8904	17997.0625
3211.19287	18038.6625
3213.49394	18030.9625
3215.79363	18046.7625
3218.09193	18047.6625
3220.38884	18006.8625
3222.68438	18066.8625
3224.97853	18037.1625
3227.2713	18014.7625
3229.56269	17956.6625
3231.8527	17960.0625
3234.14133	17950.9625
3236.42858	17901.6625
3238.71446	17914.0625
3240.99896	17856.6625
3243.28209	17866.5625
3245.56384	17814.7625
3247.84423	17830.6625
3250.12324	17797.5625
3252.40088	17786.3625
3254.67715	17771.4625
3256.95205	17755.3625
3259.22558	17753.8625
3261.49775	17712.3625
3263.76855	17709.1625
3266.03799	17659.3625
3268.30606	17631.4625
3270.57277	17569.3625
3272.83812	17521.7625
3275.10211	17562.8625
3277.36474	17544.3625
3279.62601	17541.3625
3281.88593	17536.8625
3284.14448	17571.4625
3286.40168	17540.7625
3288.65753	17562.9625
3290.91202	17577.8625
3293.16516	17508.5625
3295.41695	17450.6625
3297.66738	17377.8625
3299.91647	17292.3625
3302.16421	17203.4625
3304.4106	17086.2625
3306.65564	16978.6625
3308.89933	16821.3625
3311.14169	16746.4625
3313.38269	16629.0625
3315.62236	16519.5625
3317.86068	16374.4625
3320.09766	16226.6625
3322.3333	16120.9625
3324.5676	16074.5625
3326.80056	15805.2625
3329.03219	15749.6625
3331.26248	4.1625
3333.49143	-1.4375
3335.71905	-0.8375
