Data from AgNPs_FTO_APTES_UA_5uM_CRN_500uM_R6G_10uM_NaF_0.1M_Addition_RamanShift__8__16-50-01-818.txt Node

Date: Mon Feb 07 16:50:01 GMT 2022
User: TCL
Spectrometer: QEP01345
Trigger mode: 4
Integration Time (sec): 7.000000E0
Scans to average: 10
Electric dark correction enabled: true
Nonlinearity correction enabled: false
Boxcar width: 0
XAxis mode: Raman Shifts
Number of Pixels in Spectrum: 1044
>>>>>Begin Spectral Data<<<<<
46.04893	-0.3375
50.45542	-0.7375
54.85868	0.8625
59.25871	-0.6375
63.6555	66.2625
68.04907	71.6625
72.43941	77.8625
76.82654	78.8625
81.21044	81.0625
85.59113	80.4625
89.96862	87.2625
94.34289	89.0625
98.71396	93.2625
103.08183	95.7625
107.4465	99.4625
111.80798	99.6625
116.16626	103.1625
120.52136	110.5625
124.87327	114.1625
129.222	119.1625
133.56755	128.6625
137.90993	143.5625
142.24913	157.1625
146.58517	180.4625
150.91804	209.9625
155.24774	252.8625
159.57429	320.5625
163.89768	414.8625
168.21792	565.0625
172.53501	767.4625
176.84895	1074.4625
181.15975	1521.6625
185.46741	2123.9625
189.77193	2923.7625
194.07331	3930.8625
198.37157	5070.7625
202.6667	6245.3625
206.9587	7440.0625
211.24758	8592.1625
215.53334	9762.8625
219.81599	10978.7625
224.09553	12315.3625
228.37195	13811.3625
232.64527	15333.9625
236.91549	17023.5625
241.18261	18733.2625
245.44663	20328.2625
249.70755	21762.5625
253.96539	23114.8625
258.22014	24188.2625
262.4718	25088.0625
266.72039	25684.2625
270.96589	26076.5625
275.20832	26170.0625
279.44768	26096.3625
283.68397	25994.1625
287.91719	25830.2625
292.14735	25782.7625
296.37445	25867.7625
300.59849	25949.0625
304.81948	26044.5625
309.03742	25985.4625
313.25231	25673.6625
317.46415	25124.5625
321.67296	24468.6625
325.87872	23946.1625
330.08145	23660.9625
334.28114	23555.0625
338.47781	23615.5625
342.67145	23799.5625
346.86207	24097.8625
351.04966	24449.8625
355.23424	24776.4625
359.4158	25065.0625
363.59435	25286.2625
367.76989	25457.6625
371.94243	25617.1625
376.11196	25710.1625
380.27849	25763.9625
384.44203	25887.8625
388.60257	26183.3625
392.76012	26464.9625
396.91468	26841.4625
401.06626	27254.6625
405.21485	27440.8625
409.36047	27333.0625
413.50311	27031.7625
417.64277	26867.5625
421.77947	26968.1625
425.9132	27135.3625
430.04396	27338.2625
434.17176	27553.9625
438.2966	27732.7625
442.41849	28144.8625
446.53742	28870.4625
450.6534	29710.9625
454.76644	30288.1625
458.87653	30538.2625
462.98368	30443.4625
467.08789	30248.0625
471.18916	30065.2625
475.2875	29964.8625
479.38291	30029.5625
483.4754	29979.9625
487.56496	29570.2625
491.6516	28804.8625
495.73531	28003.2625
499.81612	27513.4625
503.89401	27447.0625
507.96899	27548.6625
512.04106	27501.3625
516.11023	27324.7625
520.1765	26944.8625
524.23987	26636.7625
528.30034	26329.3625
532.35792	26073.7625
536.41261	25782.5625
540.46441	25630.8625
544.51333	25724.4625
548.55936	26045.0625
552.60252	26728.1625
556.64279	27501.5625
560.6802	28203.8625
564.71473	28707.4625
568.7464	29456.2625
572.7752	30618.7625
576.80114	31804.9625
580.82422	32810.0625
584.84444	33668.8625
588.86181	34960.9625
592.87633	35990.1625
596.888	35400.9625
600.89682	33502.0625
604.9028	32412.1625
608.90594	33005.8625
612.90624	33933.7625
616.90371	31768.9625
620.89834	27697.3625
624.89015	25921.4625
628.87913	25849.3625
632.86528	26153.0625
636.84862	26093.1625
640.82913	25757.2625
644.80683	25231.1625
648.78172	24850.9625
652.75379	24813.3625
656.72306	24925.7625
660.68952	25117.3625
664.65319	24975.0625
668.61405	24634.3625
672.57211	24606.3625
676.52738	24686.8625
680.47986	24752.2625
684.42955	24660.7625
688.37646	24520.8625
692.32058	24599.8625
696.26192	24861.1625
700.20048	25140.6625
704.13626	25357.1625
708.06928	25499.7625
711.99952	25540.7625
715.927	25482.5625
719.85171	25500.0625
723.77365	25317.4625
727.69284	24995.3625
731.60928	24669.5625
735.52295	24551.2625
739.43388	24461.4625
743.34206	24524.2625
747.24749	24709.8625
751.15017	24972.4625
755.05012	25490.6625
758.94733	26237.5625
762.8418	27468.2625
766.73354	29077.4625
770.62254	30384.5625
774.50882	30416.5625
778.39237	29106.9625
782.27321	27286.0625
786.15132	25818.4625
790.02671	24872.8625
793.89938	24455.6625
797.76935	24220.5625
801.6366	24144.1625
805.50115	24135.1625
809.36299	24029.8625
813.22213	23888.9625
817.07857	23872.1625
820.93231	23812.3625
824.78336	23617.5625
828.63172	23387.5625
832.47738	23305.7625
836.32036	23197.5625
840.16066	23176.1625
843.99827	23186.5625
847.8332	23199.4625
851.66546	23195.5625
855.49504	23251.3625
859.32195	23200.5625
863.1462	23159.1625
866.96777	23046.6625
870.78668	23059.9625
874.60293	23029.0625
878.41652	23059.4625
882.22745	23065.4625
886.03573	23080.1625
889.84136	23109.8625
893.64433	23044.6625
897.44466	22997.4625
901.24235	22918.1625
905.0374	22820.7625
908.8298	22802.2625
912.61957	22936.0625
916.40671	23234.2625
920.19121	23627.0625
923.97308	23875.2625
927.75233	23697.0625
931.52895	23328.2625
935.30295	22860.2625
939.07433	22446.3625
942.84309	22132.7625
946.60924	21895.8625
950.37278	21824.1625
954.13371	21863.8625
957.89203	21903.6625
961.64774	21877.1625
965.40086	21881.8625
969.15137	21741.6625
972.89929	21574.6625
976.64461	21395.4625
980.38733	21276.1625
984.12747	21289.3625
987.86502	21287.1625
991.59999	21384.8625
995.33237	21525.5625
999.06217	21752.5625
1002.78939	22087.3625
1006.51404	22448.5625
1010.23611	22845.8625
1013.95561	23124.0625
1017.67255	23270.1625
1021.38692	23085.1625
1025.09872	22711.2625
1028.80796	22328.4625
1032.51465	22194.6625
1036.21877	22238.8625
1039.92035	22329.0625
1043.61937	22398.0625
1047.31584	22536.4625
1051.00976	22642.5625
1054.70114	22784.1625
1058.38998	22964.4625
1062.07627	23330.5625
1065.76003	23696.3625
1069.44126	23974.6625
1073.11995	24307.8625
1076.79611	24504.0625
1080.46974	24618.3625
1084.14085	24655.2625
1087.80943	24865.3625
1091.47549	25096.2625
1095.13903	25255.3625
1098.80005	25026.9625
1102.45857	24455.5625
1106.11456	23924.0625
1109.76805	23654.0625
1113.41903	23592.6625
1117.06751	23808.5625
1120.71348	24038.3625
1124.35696	24324.9625
1127.99793	24688.7625
1131.63641	25001.4625
1135.2724	24943.2625
1138.90589	24843.7625
1142.5369	25029.1625
1146.16542	25373.4625
1149.79145	25822.7625
1153.415	26340.7625
1157.03607	26901.6625
1160.65467	27845.0625
1164.27079	29358.6625
1167.88443	31100.4625
1171.49561	32878.9625
1175.10432	34819.6625
1178.71056	37217.4625
1182.31434	39465.8625
1185.91565	40442.1625
1189.51451	40234.5625
1193.11091	39355.7625
1196.70485	38223.1625
1200.29634	37013.6625
1203.88538	36303.6625
1207.47197	36191.6625
1211.05612	36038.0625
1214.63782	35444.8625
1218.21708	34139.5625
1221.79391	32631.5625
1225.36829	31555.2625
1228.94024	30820.2625
1232.50976	30309.1625
1236.07685	29872.3625
1239.6415	29543.4625
1243.20374	29575.6625
1246.76355	29806.0625
1250.32093	30236.7625
1253.8759	30742.2625
1257.42845	31547.7625
1260.97859	32446.8625
1264.52631	33342.7625
1268.07163	34284.8625
1271.61453	35247.6625
1275.15503	36311.3625
1278.69312	37666.3625
1282.22882	39131.1625
1285.76211	41004.7625
1289.29301	43249.9625
1292.82151	46090.4625
1296.34761	49447.5625
1299.87133	52833.3625
1303.39266	55874.9625
1306.9116	58117.3625
1310.42815	59427.2625
1313.94233	59903.4625
1317.45412	59541.5625
1320.96354	58895.2625
1324.47058	58602.0625
1327.97525	58323.9625
1331.47754	58157.2625
1334.97747	57825.3625
1338.47502	56996.5625
1341.97022	55969.7625
1345.46305	54795.2625
1348.95352	53659.7625
1352.44163	52960.5625
1355.92738	53192.1625
1359.41078	54379.3625
1362.89183	55189.1625
1366.37053	54059.6625
1369.84688	50295.7625
1373.32088	45512.6625
1376.79254	42345.3625
1380.26186	41601.6625
1383.72883	42263.0625
1387.19347	42886.0625
1390.65578	43060.5625
1394.11575	43321.4625
1397.57339	43967.6625
1401.0287	44791.7625
1404.48168	45158.6625
1407.93234	44618.7625
1411.38068	43008.4625
1414.82669	40761.0625
1418.27039	38250.1625
1421.71177	36049.1625
1425.15083	34324.4625
1428.58758	33514.3625
1432.02203	33816.7625
1435.45416	34870.0625
1438.88399	36328.2625
1442.31151	37466.9625
1445.73673	38158.7625
1449.15965	38745.9625
1452.58027	39216.4625
1455.9986	39480.9625
1459.41463	39784.7625
1462.82837	40131.4625
1466.23982	40627.4625
1469.64898	41095.9625
1473.05586	41187.5625
1476.46045	40985.4625
1479.86276	40383.8625
1483.26279	39736.7625
1486.66054	39218.3625
1490.05602	39215.8625
1493.44922	39402.0625
1496.84016	39769.2625
1500.22882	40364.7625
1503.61521	41307.0625
1506.99934	42313.0625
1510.38121	43192.9625
1513.76081	43515.3625
1517.13816	43158.4625
1520.51324	42770.9625
1523.88607	42776.9625
1527.25665	43212.5625
1530.62498	43684.4625
1533.99105	43688.5625
1537.35488	43061.5625
1540.71647	41720.3625
1544.07581	40148.6625
1547.4329	38551.3625
1550.78776	37172.8625
1554.14038	36232.2625
1557.49077	35613.4625
1560.83892	35277.3625
1564.18484	35208.6625
1567.52853	35359.7625
1570.86999	35926.4625
1574.20922	37029.5625
1577.54624	38260.4625
1580.88103	39124.2625
1584.2136	39950.7625
1587.54395	41389.4625
1590.87208	43368.5625
1594.19801	45578.4625
1597.52172	47427.3625
1600.84321	47440.4625
1604.16251	44864.9625
1607.47959	40731.5625
1610.79447	36715.2625
1614.10715	33199.5625
1617.41763	30471.7625
1620.7259	28624.6625
1624.03199	27796.0625
1627.33587	27884.6625
1630.63757	29062.1625
1633.93707	31306.1625
1637.23439	35131.6625
1640.52951	40537.5625
1643.82246	46922.5625
1647.11321	51870.9625
1650.40179	52435.8625
1653.68819	48039.7625
1656.97241	40957.6625
1660.25446	34002.8625
1663.53433	28919.9625
1666.81203	25476.1625
1670.08756	23380.2625
1673.36092	22058.1625
1676.63211	21222.6625
1679.90115	20650.9625
1683.16801	20188.7625
1686.43272	19805.0625
1689.69527	19604.5625
1692.95567	19420.0625
1696.2139	19226.9625
1699.46999	19092.6625
1702.72392	18968.0625
1705.97571	18907.0625
1709.22535	18801.4625
1712.47284	18733.3625
1715.71819	18692.5625
1718.96139	18664.5625
1722.20246	18581.3625
1725.44139	18447.4625
1728.67818	18350.3625
1731.91284	18162.0625
1735.14537	18035.6625
1738.37576	17959.9625
1741.60403	17878.6625
1744.83017	17798.5625
1748.05418	17728.0625
1751.27607	17723.4625
1754.49584	17708.0625
1757.71349	17635.0625
1760.92903	17631.1625
1764.14244	17581.5625
1767.35375	17585.9625
1770.56294	17489.4625
1773.77002	17451.9625
1776.97499	17365.1625
1780.17785	17318.9625
1783.37861	17289.7625
1786.57727	17273.9625
1789.77382	17239.0625
1792.96828	17150.2625
1796.16064	17100.9625
1799.3509	17075.4625
1802.53907	17005.3625
1805.72514	16971.7625
1808.90913	16887.3625
1812.09102	16861.5625
1815.27083	16778.9625
1818.44856	16759.5625
1821.6242	16741.8625
1824.79776	16709.9625
1827.96924	16691.6625
1831.13864	16660.0625
1834.30597	16657.8625
1837.47122	16615.5625
1840.6344	16619.1625
1843.7955	16578.5625
1846.95454	16570.4625
1850.11151	16548.0625
1853.26642	16514.9625
1856.41926	16507.4625
1859.57004	16482.1625
1862.71876	16467.0625
1865.86542	16410.6625
1869.01003	16406.6625
1872.15258	16346.0625
1875.29308	16349.8625
1878.43152	16330.3625
1881.56792	16267.3625
1884.70227	16246.1625
1887.83457	16259.4625
1890.96482	16193.5625
1894.09304	16137.1625
1897.21921	16128.2625
1900.34335	16105.6625
1903.46544	16083.4625
1906.58551	16045.5625
1909.70353	15994.1625
1912.81953	15945.2625
1915.93349	15932.2625
1919.04543	15887.8625
1922.15534	15872.5625
1925.26322	15788.8625
1928.36908	15743.8625
1931.47292	15757.9625
1934.57473	15705.4625
1937.67453	15673.0625
1940.77232	15591.1625
1943.86808	15541.4625
1946.96184	15463.1625
1950.05358	15434.0625
1953.14331	15382.6625
1956.23103	15285.7625
1959.31675	15252.3625
1962.40046	15201.1625
1965.48217	15139.8625
1968.56188	15077.3625
1971.63959	15013.9625
1974.7153	14981.7625
1977.78901	14935.9625
1980.86073	14882.8625
1983.93046	14835.2625
1986.99819	14787.5625
1990.06394	14748.0625
1993.1277	14713.7625
1996.18947	14625.7625
1999.24925	14563.6625
2002.30706	14496.2625
2005.36288	14457.4625
2008.41672	14428.3625
2011.46859	14376.0625
2014.51848	14333.0625
2017.56639	14295.5625
2020.61233	14196.1625
2023.6563	14188.4625
2026.6983	14155.3625
2029.73833	14116.8625
2032.7764	14054.5625
2035.8125	14044.7625
2038.84664	13990.1625
2041.87881	13966.8625
2044.90903	13955.0625
2047.93729	13919.3625
2050.96359	13879.9625
2053.98794	13878.9625
2057.01034	13842.8625
2060.03078	13837.3625
2063.04927	13814.3625
2066.06582	13827.9625
2069.08042	13832.0625
2072.09307	13775.3625
2075.10378	13751.6625
2078.11255	13715.7625
2081.11938	13762.1625
2084.12426	13708.2625
2087.12722	13687.2625
2090.12824	13674.7625
2093.12732	13675.8625
2096.12447	13660.2625
2099.11969	13661.3625
2102.11299	13640.3625
2105.10435	13633.1625
2108.09379	13644.0625
2111.08131	13620.9625
2114.0669	13627.2625
2117.05057	13670.7625
2120.03233	13650.3625
2123.01216	13645.8625
2125.99008	13641.0625
2128.96609	13631.5625
2131.94018	13621.4625
2134.91236	13620.1625
2137.88263	13604.3625
2140.851	13623.8625
2143.81746	13604.7625
2146.78201	13575.5625
2149.74466	13571.0625
2152.7054	13583.4625
2155.66425	13527.1625
2158.6212	13517.1625
2161.57625	13485.3625
2164.52941	13468.8625
2167.48067	13511.0625
2170.43004	13531.1625
2173.37752	13498.3625
2176.32311	13501.3625
2179.26681	13453.7625
2182.20863	13468.3625
2185.14856	13442.4625
2188.08661	13487.4625
2191.02278	13458.8625
2193.95707	13422.2625
2196.88948	13409.7625
2199.82001	13348.2625
2202.74867	13341.3625
2205.67545	13310.1625
2208.60037	13303.9625
2211.52341	13239.1625
2214.44458	13200.0625
2217.36388	13180.9625
2220.28132	13154.2625
2223.1969	13123.3625
2226.11061	13103.6625
2229.02246	13071.1625
2231.93245	13064.6625
2234.84058	13040.3625
2237.74686	13002.1625
2240.65128	12969.6625
2243.55385	12953.5625
2246.45456	12949.3625
2249.35343	12917.8625
2252.25044	12863.0625
2255.14561	12823.9625
2258.03893	12767.6625
2260.93041	12721.2625
2263.82004	12699.5625
2266.70783	12660.7625
2269.59378	12631.4625
2272.4779	12589.7625
2275.36017	12541.6625
2278.24061	12488.0625
2281.11922	12493.1625
2283.996	12484.1625
2286.87094	12451.3625
2289.74405	12430.7625
2292.61534	12364.6625
2295.4848	12379.4625
2298.35243	12389.6625
2301.21824	12354.0625
2304.08223	12357.5625
2306.94439	12373.8625
2309.80474	12339.4625
2312.66327	12311.0625
2315.51999	12288.4625
2318.37489	12283.7625
2321.22797	12250.4625
2324.07925	12214.3625
2326.92871	12214.3625
2329.77637	12178.5625
2332.62222	12145.7625
2335.46626	12164.1625
2338.3085	12121.5625
2341.14893	12144.5625
2343.98756	12151.7625
2346.8244	12090.4625
2349.65943	12081.6625
2352.49267	12071.3625
2355.32411	12065.8625
2358.15376	12070.7625
2360.98161	12066.3625
2363.80768	12073.3625
2366.63195	12057.0625
2369.45444	12078.1625
2372.27514	12022.8625
2375.09405	11965.1625
2377.91118	11922.5625
2380.72652	11932.4625
2383.54009	11902.4625
2386.35187	11897.5625
2389.16188	11864.1625
2391.97011	11794.0625
2394.77657	11776.3625
2397.58125	11743.3625
2400.38416	11765.8625
2403.18529	11688.0625
2405.98466	11676.5625
2408.78226	11660.2625
2411.57809	11673.0625
2414.37216	11647.1625
2417.16446	11671.0625
2419.955	11625.5625
2422.74378	11629.3625
2425.5308	11574.2625
2428.31606	11568.4625
2431.09956	11557.2625
2433.88131	11560.0625
2436.6613	11535.6625
2439.43954	11574.1625
2442.21603	11529.5625
2444.99077	11503.5625
2447.76377	11512.0625
2450.53501	11480.0625
2453.30451	11493.8625
2456.07226	11479.0625
2458.83827	11441.1625
2461.60254	11466.1625
2464.36507	11443.3625
2467.12586	11427.2625
2469.88492	11413.7625
2472.64224	11432.2625
2475.39782	11423.8625
2478.15167	11439.8625
2480.90379	11390.2625
2483.65417	11412.4625
2486.40283	11397.3625
2489.14976	11389.6625
2491.89497	11412.9625
2494.63845	11377.5625
2497.3802	11407.4625
2500.12024	11376.8625
2502.85855	11355.0625
2505.59514	11352.4625
2508.33002	11325.2625
2511.06318	11330.3625
2513.79462	11329.1625
2516.52435	11332.7625
2519.25237	11305.0625
2521.97867	11269.7625
2524.70327	11277.1625
2527.42616	11269.2625
2530.14734	11231.2625
2532.86681	11254.0625
2535.58458	11261.0625
2538.30065	11233.3625
2541.01501	11239.5625
2543.72768	11176.5625
2546.43864	11173.5625
2549.14791	11174.0625
2551.85548	11160.3625
2554.56136	11113.1625
2557.26554	11110.2625
2559.96803	11110.5625
2562.66883	11084.5625
2565.36794	11071.0625
2568.06536	11074.0625
2570.7611	11057.0625
2573.45514	11026.6625
2576.14751	11012.3625
2578.83819	10989.7625
2581.52719	11001.6625
2584.21451	10985.5625
2586.90015	10973.5625
2589.58411	10978.1625
2592.2664	10958.9625
2594.94701	10927.3625
2597.62594	10937.9625
2600.30321	10915.0625
2602.9788	10903.7625
2605.65273	10928.4625
2608.32498	10927.8625
2610.99557	10939.0625
2613.66449	10925.4625
2616.33175	10915.2625
2618.99734	10890.5625
2621.66128	10890.6625
2624.32355	10889.0625
2626.98416	10869.3625
2629.64311	10825.8625
2632.30041	10852.8625
2634.95605	10820.7625
2637.61004	10813.1625
2640.26238	10807.5625
2642.91306	10782.5625
2645.56209	10779.3625
2648.20948	10787.1625
2650.85521	10816.2625
2653.4993	10826.5625
2656.14175	10801.6625
2658.78255	10818.2625
2661.42171	10838.1625
2664.05923	10852.6625
2666.6951	10826.6625
2669.32934	10816.9625
2671.96194	10816.4625
2674.59291	10818.3625
2677.22224	10815.8625
2679.84993	10808.1625
2682.476	10786.2625
2685.10043	10760.7625
2687.72324	10760.8625
2690.34441	10758.5625
2692.96396	10759.0625
2695.58188	10743.0625
2698.19818	10773.5625
2700.81285	10785.6625
2703.4259	10785.6625
2706.03733	10788.6625
2708.64714	10774.9625
2711.25533	10786.4625
2713.86191	10760.7625
2716.46687	10791.1625
2719.07021	10791.4625
2721.67194	10807.4625
2724.27206	10804.5625
2726.87057	10805.9625
2729.46747	10846.3625
2732.06276	10814.3625
2734.65644	10811.8625
2737.24852	10811.7625
2739.83899	10782.9625
2742.42786	10818.9625
2745.01513	10793.9625
2747.60079	10779.1625
2750.18486	10762.4625
2752.76733	10757.2625
2755.3482	10735.2625
2757.92747	10746.7625
2760.50515	10708.0625
2763.08123	10726.7625
2765.65573	10707.1625
2768.22863	10727.8625
2770.79994	10706.3625
2773.36967	10704.6625
2775.9378	10719.2625
2778.50435	10721.8625
2781.06932	10710.8625
2783.6327	10674.2625
2786.1945	10679.3625
2788.75471	10702.4625
2791.31335	10679.3625
2793.87041	10666.1625
2796.42589	10640.3625
2798.97979	10630.5625
2801.53212	10588.8625
2804.08288	10605.9625
2806.63206	10556.1625
2809.17967	10542.8625
2811.72571	10525.5625
2814.27018	10508.4625
2816.81308	10486.4625
2819.35442	10435.2625
2821.89419	10429.1625
2824.43239	10431.5625
2826.96904	10428.4625
2829.50412	10414.5625
2832.03763	10373.3625
2834.56959	10388.8625
2837.1	10368.7625
2839.62884	10399.9625
2842.15613	10400.4625
2844.68186	10451.0625
2847.20604	10471.2625
2849.72867	10481.0625
2852.24974	10516.9625
2854.76927	10459.9625
2857.28724	10453.8625
2859.80367	10455.8625
2862.31855	10416.0625
2864.83189	10371.5625
2867.34368	10346.0625
2869.85393	10388.6625
2872.36264	10339.2625
2874.8698	10339.2625
2877.37543	10352.6625
2879.87952	10323.5625
2882.38207	10310.7625
2884.88308	10303.0625
2887.38256	10315.5625
2889.88051	10321.1625
2892.37692	10311.3625
2894.8718	10305.8625
2897.36515	10323.2625
2899.85698	10305.2625
2902.34727	10320.0625
2904.83604	10336.9625
2907.32328	10344.7625
2909.809	10367.8625
2912.29319	10352.1625
2914.77587	10325.9625
2917.25702	10316.6625
2919.73665	10291.9625
2922.21476	10312.1625
2924.69136	10311.2625
2927.16644	10318.2625
2929.64	10304.5625
2932.11205	10286.7625
2934.58258	10276.9625
2937.05161	10286.8625
2939.51912	10273.6625
2941.98513	10232.9625
2944.44962	10214.1625
2946.91261	10132.2625
2949.37409	10153.0625
2951.83407	10123.6625
2954.29254	10120.3625
2956.74951	10106.1625
2959.20498	10094.2625
2961.65895	10065.1625
2964.11142	10037.7625
2966.56239	10016.1625
2969.01186	10032.7625
2971.45984	9974.0625
2973.90632	9952.1625
2976.35131	9943.3625
2978.7948	9914.5625
2981.23681	9876.4625
2983.67732	9846.5625
2986.11635	9831.6625
2988.55388	9793.2625
2990.98993	9755.0625
2993.4245	9708.0625
2995.85758	9685.4625
2998.28917	9671.6625
3000.71928	9628.7625
3003.14791	9633.0625
3005.57506	9620.3625
3008.00073	9561.9625
3010.42493	9547.0625
3012.84764	9504.6625
3015.26888	9495.3625
3017.68865	9459.0625
3020.10694	9451.1625
3022.52376	9414.2625
3024.9391	9396.9625
3027.35298	9405.0625
3029.76539	9402.8625
3032.17632	9387.8625
3034.5858	9348.3625
3036.9938	9365.2625
3039.40034	9371.0625
3041.80542	9365.8625
3044.20903	9311.0625
3046.61118	9325.5625
3049.01187	9295.0625
3051.4111	9280.9625
3053.80888	9249.5625
3056.20519	9217.5625
3058.60005	9201.0625
3060.99345	9168.7625
3063.3854	9155.5625
3065.7759	9093.7625
3068.16494	9058.0625
3070.55254	9016.9625
3072.93868	8980.5625
3075.32338	8945.3625
3077.70662	8942.2625
3080.08842	8914.9625
3082.46878	8878.8625
3084.84769	8863.3625
3087.22515	8866.7625
3089.60118	8846.2625
3091.97576	8859.6625
3094.3489	8832.3625
3096.72061	8842.3625
3099.09087	8821.1625
3101.4597	8815.6625
3103.82709	8830.0625
3106.19305	8759.5625
3108.55757	8776.0625
3110.92066	8746.1625
3113.28232	8740.7625
3115.64255	8705.5625
3118.00134	8669.7625
3120.35871	8691.4625
3122.71466	8659.3625
3125.06917	8606.3625
3127.42226	8615.2625
3129.77393	8602.6625
3132.12417	8581.6625
3134.47299	8588.4625
3136.82039	8545.7625
3139.16636	8557.1625
3141.51092	8533.8625
3143.85406	8543.2625
3146.19579	8538.3625
3148.53609	8528.3625
3150.87499	8546.7625
3153.21246	8517.7625
3155.54853	8538.7625
3157.88318	8558.3625
3160.21642	8570.6625
3162.54826	8532.6625
3164.87868	8550.0625
3167.2077	8536.5625
3169.5353	8531.0625
3171.86151	8517.1625
3174.18631	8523.9625
3176.5097	8517.1625
3178.83169	8484.3625
3181.15228	8492.1625
3183.47147	8485.2625
3185.78926	8459.0625
3188.10565	8445.5625
3190.42065	8436.3625
3192.73424	8418.1625
3195.04645	8409.4625
3197.35725	8379.8625
3199.66667	8372.3625
3201.97469	8385.9625
3204.28132	8349.8625
3206.58656	8380.6625
3208.8904	8376.3625
3211.19287	8364.2625
3213.49394	8361.7625
3215.79363	8338.9625
3218.09193	8365.2625
3220.38884	8358.1625
3222.68438	8358.2625
3224.97853	8331.1625
3227.2713	8347.7625
3229.56269	8316.3625
3231.8527	8314.5625
3234.14133	8307.0625
3236.42858	8293.2625
3238.71446	8271.1625
3240.99896	8261.4625
3243.28209	8244.2625
3245.56384	8239.5625
3247.84423	8223.3625
3250.12324	8196.1625
3252.40088	8196.6625
3254.67715	8173.0625
3256.95205	8123.1625
3259.22558	8124.5625
3261.49775	8100.6625
3263.76855	8063.8625
3266.03799	8054.8625
3268.30606	8056.7625
3270.57277	8029.5625
3272.83812	8019.3625
3275.10211	7985.7625
3277.36474	7995.7625
3279.62601	7980.3625
3281.88593	7988.0625
3284.14448	7986.9625
3286.40168	7970.1625
3288.65753	7985.4625
3290.91202	7986.2625
3293.16516	7941.2625
3295.41695	7923.7625
3297.66738	7860.2625
3299.91647	7830.2625
3302.16421	7760.4625
3304.4106	7723.3625
3306.65564	7662.2625
3308.89933	7589.2625
3311.14169	7538.4625
3313.38269	7469.1625
3315.62236	7385.8625
3317.86068	7345.5625
3320.09766	7290.1625
3322.3333	7224.9625
3324.5676	7183.9625
3326.80056	7071.5625
3329.03219	7015.0625
3331.26248	2.3625
3333.49143	0.2625
3335.71905	-2.2375
