Data from AgNPs_FTO_APTES_UA_5uM_CRN_5uM_R6G_10uM_NaF_0.1M_Addition_RamanShift__20__12-08-06-693.txt Node

Date: Mon Feb 07 12:08:06 GMT 2022
User: TCL
Spectrometer: QEP01345
Trigger mode: 4
Integration Time (sec): 7.000000E0
Scans to average: 10
Electric dark correction enabled: true
Nonlinearity correction enabled: false
Boxcar width: 0
XAxis mode: Raman Shifts
Number of Pixels in Spectrum: 1044
>>>>>Begin Spectral Data<<<<<
46.04893	-1.7375
50.45542	-0.7375
54.85868	-1.2375
59.25871	-0.3375
63.6555	99.5625
68.04907	104.2625
72.43941	109.1625
76.82654	116.5625
81.21044	116.9625
85.59113	121.0625
89.96862	128.5625
94.34289	131.7625
98.71396	131.0625
103.08183	138.5625
107.4465	140.7625
111.80798	144.9625
116.16626	151.5625
120.52136	158.9625
124.87327	168.2625
129.222	177.1625
133.56755	191.3625
137.90993	208.6625
142.24913	229.4625
146.58517	258.8625
150.91804	306.6625
155.24774	371.8625
159.57429	467.9625
163.89768	609.7625
168.21792	812.8625
172.53501	1115.3625
176.84895	1563.8625
181.15975	2188.6625
185.46741	3089.4625
189.77193	4247.6625
194.07331	5659.7625
198.37157	7292.6625
202.6667	8977.3625
206.9587	10653.1625
211.24758	12309.2625
215.53334	13976.8625
219.81599	15794.6625
224.09553	17794.6625
228.37195	20027.0625
232.64527	22454.9625
236.91549	25031.6625
241.18261	27556.2625
245.44663	29838.0625
249.70755	31870.2625
253.96539	33676.5625
258.22014	35221.2625
262.4718	36545.1625
266.72039	37527.4625
270.96589	38121.4625
275.20832	38465.0625
279.44768	38507.5625
283.68397	38376.9625
287.91719	38334.6625
292.14735	38380.0625
296.37445	38604.2625
300.59849	38758.1625
304.81948	38904.3625
309.03742	38673.2625
313.25231	38055.2625
317.46415	36756.1625
321.67296	35248.1625
325.87872	33894.9625
330.08145	33298.6625
334.28114	33220.8625
338.47781	33432.3625
342.67145	33905.6625
346.86207	34551.4625
351.04966	35402.9625
355.23424	36337.6625
359.4158	37032.4625
363.59435	37457.0625
367.76989	37660.2625
371.94243	37763.5625
376.11196	37870.8625
380.27849	37981.8625
384.44203	38101.9625
388.60257	38272.1625
392.76012	38640.4625
396.91468	39209.3625
401.06626	39892.8625
405.21485	40452.2625
409.36047	40222.9625
413.50311	39388.0625
417.64277	38747.7625
421.77947	38697.0625
425.9132	38878.9625
430.04396	39137.0625
434.17176	39281.1625
438.2966	39680.2625
442.41849	40226.1625
446.53742	41333.5625
450.6534	42626.1625
454.76644	43639.0625
458.87653	44131.2625
462.98368	44046.2625
467.08789	43593.2625
471.18916	42962.4625
475.2875	42469.4625
479.38291	42286.0625
483.4754	42026.9625
487.56496	41497.7625
491.6516	40643.8625
495.73531	39905.5625
499.81612	39544.8625
503.89401	39641.7625
507.96899	39751.2625
512.04106	39571.1625
516.11023	39242.8625
520.1765	38725.0625
524.23987	38203.2625
528.30034	37638.3625
532.35792	37172.0625
536.41261	36624.3625
540.46441	36232.1625
544.51333	36331.8625
548.55936	36966.8625
552.60252	38093.9625
556.64279	39274.8625
560.6802	39991.0625
564.71473	40515.4625
568.7464	41484.1625
572.7752	42694.2625
576.80114	43481.7625
580.82422	44017.4625
584.84444	44435.1625
588.86181	44611.6625
592.87633	45035.8625
596.888	45365.6625
600.89682	45662.0625
604.9028	47371.2625
608.90594	52167.1625
612.90624	57188.8625
616.90371	53399.7625
620.89834	43299.1625
624.89015	38933.5625
628.87913	38589.6625
632.86528	38680.1625
636.84862	38349.6625
640.82913	37479.6625
644.80683	36129.7625
648.78172	35112.1625
652.75379	34848.4625
656.72306	35377.6625
660.68952	36192.9625
664.65319	36125.6625
668.61405	35441.3625
672.57211	35058.9625
676.52738	35039.9625
680.47986	35007.7625
684.42955	34793.5625
688.37646	34720.1625
692.32058	34878.8625
696.26192	35318.3625
700.20048	35803.4625
704.13626	36132.2625
708.06928	36116.0625
711.99952	35813.7625
715.927	35654.1625
719.85171	35751.3625
723.77365	35503.7625
727.69284	34999.2625
731.60928	34570.6625
735.52295	34410.7625
739.43388	34451.8625
743.34206	34620.2625
747.24749	34878.7625
751.15017	35307.6625
755.05012	36170.1625
758.94733	37598.4625
762.8418	40177.4625
766.73354	44194.2625
770.62254	47874.9625
774.50882	48495.7625
778.39237	45634.7625
782.27321	41335.8625
786.15132	37967.0625
790.02671	35897.2625
793.89938	34929.5625
797.76935	34532.4625
801.6366	34406.3625
805.50115	34295.9625
809.36299	34090.2625
813.22213	33781.2625
817.07857	33650.6625
820.93231	33567.9625
824.78336	33454.9625
828.63172	33350.5625
832.47738	33271.1625
836.32036	33361.2625
840.16066	33479.8625
843.99827	33592.8625
847.8332	33484.1625
851.66546	33290.8625
855.49504	33102.4625
859.32195	33088.9625
863.1462	32914.1625
866.96777	32749.1625
870.78668	32652.6625
874.60293	32576.1625
878.41652	32590.3625
882.22745	32648.3625
886.03573	32804.6625
889.84136	32782.4625
893.64433	32667.4625
897.44466	32507.2625
901.24235	32408.9625
905.0374	32264.8625
908.8298	32196.4625
912.61957	32300.4625
916.40671	32727.8625
920.19121	33377.4625
923.97308	33907.8625
927.75233	34025.6625
931.52895	33756.7625
935.30295	33242.1625
939.07433	32364.8625
942.84309	31772.6625
946.60924	31467.2625
950.37278	31344.4625
954.13371	31211.7625
957.89203	30962.5625
961.64774	30942.4625
965.40086	30816.3625
969.15137	30751.4625
972.89929	30552.3625
976.64461	30443.6625
980.38733	30474.2625
984.12747	30629.8625
987.86502	30969.8625
991.59999	31544.7625
995.33237	32335.5625
999.06217	33596.9625
1002.78939	35078.4625
1006.51404	36015.9625
1010.23611	36501.3625
1013.95561	36838.9625
1017.67255	36802.1625
1021.38692	36328.2625
1025.09872	35915.9625
1028.80796	36286.7625
1032.51465	37620.1625
1036.21877	38908.1625
1039.92035	39093.4625
1043.61937	38362.0625
1047.31584	37066.9625
1051.00976	35828.4625
1054.70114	35125.8625
1058.38998	35129.7625
1062.07627	35407.3625
1065.76003	35728.1625
1069.44126	36083.9625
1073.11995	36435.9625
1076.79611	36908.8625
1080.46974	37128.0625
1084.14085	37496.2625
1087.80943	38052.7625
1091.47549	38481.8625
1095.13903	38413.4625
1098.80005	37865.9625
1102.45857	36855.8625
1106.11456	35994.6625
1109.76805	35656.4625
1113.41903	35871.7625
1117.06751	36237.7625
1120.71348	36751.7625
1124.35696	37288.6625
1127.99793	37818.1625
1131.63641	38095.1625
1135.2724	37862.8625
1138.90589	37483.9625
1142.5369	37263.4625
1146.16542	37239.9625
1149.79145	37482.1625
1153.415	37952.6625
1157.03607	38706.6625
1160.65467	39959.1625
1164.27079	41891.7625
1167.88443	44615.9625
1171.49561	48120.2625
1175.10432	52681.7625
1178.71056	58383.3625
1182.31434	63658.0625
1185.91565	66756.8625
1189.51451	67257.7625
1193.11091	65423.7625
1196.70485	62122.3625
1200.29634	58649.2625
1203.88538	55869.6625
1207.47197	53576.5625
1211.05612	51959.3625
1214.63782	50687.8625
1218.21708	49847.9625
1221.79391	49383.4625
1225.36829	49156.7625
1228.94024	48570.8625
1232.50976	47673.0625
1236.07685	47007.2625
1239.6415	46514.8625
1243.20374	46224.3625
1246.76355	46409.7625
1250.32093	47196.9625
1253.8759	48449.3625
1257.42845	50238.2625
1260.97859	52059.4625
1264.52631	53664.2625
1268.07163	55380.1625
1271.61453	57283.9625
1275.15503	59487.4625
1278.69312	61828.1625
1282.22882	63640.9625
1285.76211	65433.2625
1289.29301	67408.3625
1292.82151	69997.1625
1296.34761	73391.8625
1299.87133	77841.4625
1303.39266	83244.0625
1306.9116	89443.5625
1310.42815	95314.0625
1313.94233	99034.8625
1317.45412	99624.9625
1320.96354	97994.1625
1324.47058	95840.6625
1327.97525	93955.5625
1331.47754	92569.2625
1334.97747	91994.2625
1338.47502	92082.6625
1341.97022	92059.8625
1345.46305	91065.8625
1348.95352	88869.2625
1352.44163	86687.4625
1355.92738	86348.4625
1359.41078	89149.6625
1362.89183	92367.7625
1366.37053	90455.9625
1369.84688	82784.0625
1373.32088	74084.9625
1376.79254	68040.4625
1380.26186	65499.4625
1383.72883	65154.1625
1387.19347	65194.1625
1390.65578	65029.2625
1394.11575	65219.8625
1397.57339	66399.6625
1401.0287	68146.2625
1404.48168	69606.5625
1407.93234	70364.3625
1411.38068	69653.6625
1414.82669	67422.9625
1418.27039	63988.8625
1421.71177	60366.2625
1425.15083	57405.3625
1428.58758	55766.2625
1432.02203	55622.7625
1435.45416	56728.8625
1438.88399	58258.1625
1442.31151	59782.2625
1445.73673	61066.5625
1449.15965	62265.2625
1452.58027	63209.5625
1455.9986	63788.1625
1459.41463	64436.9625
1462.82837	65592.0625
1466.23982	66724.9625
1469.64898	67885.9625
1473.05586	68235.9625
1476.46045	68056.2625
1479.86276	67396.3625
1483.26279	66755.9625
1486.66054	66342.0625
1490.05602	66507.9625
1493.44922	66867.2625
1496.84016	67460.1625
1500.22882	68570.9625
1503.61521	70559.3625
1506.99934	73468.5625
1510.38121	76176.1625
1513.76081	77406.8625
1517.13816	76218.9625
1520.51324	73240.1625
1523.88607	70397.8625
1527.25665	68423.8625
1530.62498	67384.4625
1533.99105	66827.6625
1537.35488	66396.8625
1540.71647	65647.7625
1544.07581	64486.8625
1547.4329	62930.2625
1550.78776	61658.9625
1554.14038	60724.1625
1557.49077	60318.3625
1560.83892	60119.5625
1564.18484	60015.9625
1567.52853	60060.7625
1570.86999	60089.1625
1574.20922	60709.4625
1577.54624	61476.3625
1580.88103	61680.2625
1584.2136	62099.8625
1587.54395	64103.0625
1590.87208	67662.8625
1594.19801	72375.1625
1597.52172	76906.8625
1600.84321	78026.7625
1604.16251	74353.7625
1607.47959	68010.0625
1610.79447	61378.9625
1614.10715	55270.1625
1617.41763	50221.4625
1620.7259	46653.3625
1624.03199	44846.1625
1627.33587	44719.6625
1630.63757	46223.6625
1633.93707	49721.5625
1637.23439	55181.7625
1640.52951	62310.3625
1643.82246	69892.8625
1647.11321	75492.6625
1650.40179	76237.8625
1653.68819	70926.3625
1656.97241	61380.3625
1660.25446	51644.2625
1663.53433	44217.0625
1666.81203	39235.3625
1670.08756	36056.1625
1673.36092	34105.5625
1676.63211	32857.4625
1679.90115	31966.6625
1683.16801	31315.1625
1686.43272	30813.8625
1689.69527	30402.7625
1692.95567	30182.8625
1696.2139	29919.0625
1699.46999	29754.1625
1702.72392	29570.3625
1705.97571	29474.3625
1709.22535	29418.7625
1712.47284	29382.2625
1715.71819	29294.6625
1718.96139	29203.6625
1722.20246	29077.4625
1725.44139	28908.3625
1728.67818	28745.7625
1731.91284	28506.3625
1735.14537	28309.2625
1738.37576	28200.7625
1741.60403	28079.5625
1744.83017	27998.2625
1748.05418	27894.2625
1751.27607	27799.5625
1754.49584	27773.4625
1757.71349	27681.6625
1760.92903	27676.3625
1764.14244	27628.0625
1767.35375	27620.6625
1770.56294	27556.7625
1773.77002	27506.0625
1776.97499	27413.7625
1780.17785	27348.6625
1783.37861	27329.9625
1786.57727	27237.7625
1789.77382	27192.6625
1792.96828	27198.0625
1796.16064	27161.4625
1799.3509	27091.6625
1802.53907	27023.7625
1805.72514	26948.1625
1808.90913	26856.5625
1812.09102	26803.4625
1815.27083	26768.3625
1818.44856	26707.6625
1821.6242	26669.6625
1824.79776	26678.6625
1827.96924	26644.6625
1831.13864	26616.7625
1834.30597	26664.8625
1837.47122	26673.9625
1840.6344	26637.1625
1843.7955	26671.3625
1846.95454	26708.1625
1850.11151	26739.4625
1853.26642	26704.3625
1856.41926	26740.9625
1859.57004	26754.5625
1862.71876	26754.4625
1865.86542	26740.4625
1869.01003	26722.9625
1872.15258	26694.5625
1875.29308	26669.4625
1878.43152	26699.6625
1881.56792	26738.6625
1884.70227	26777.8625
1887.83457	26753.3625
1890.96482	26784.5625
1894.09304	26717.4625
1897.21921	26773.2625
1900.34335	26746.7625
1903.46544	26755.8625
1906.58551	26771.4625
1909.70353	26735.1625
1912.81953	26685.4625
1915.93349	26630.3625
1919.04543	26569.8625
1922.15534	26485.8625
1925.26322	26362.1625
1928.36908	26247.8625
1931.47292	26170.7625
1934.57473	25997.9625
1937.67453	25922.0625
1940.77232	25803.7625
1943.86808	25683.2625
1946.96184	25561.1625
1950.05358	25454.1625
1953.14331	25339.2625
1956.23103	25214.4625
1959.31675	25129.0625
1962.40046	25091.0625
1965.48217	24995.6625
1968.56188	24965.9625
1971.63959	24887.4625
1974.7153	24773.9625
1977.78901	24662.6625
1980.86073	24560.1625
1983.93046	24510.1625
1986.99819	24422.9625
1990.06394	24346.5625
1993.1277	24298.3625
1996.18947	24240.6625
1999.24925	24138.5625
2002.30706	24070.1625
2005.36288	23968.7625
2008.41672	23911.0625
2011.46859	23874.9625
2014.51848	23816.6625
2017.56639	23736.9625
2020.61233	23689.6625
2023.6563	23608.4625
2026.6983	23602.2625
2029.73833	23544.6625
2032.7764	23459.1625
2035.8125	23471.2625
2038.84664	23406.9625
2041.87881	23376.1625
2044.90903	23345.8625
2047.93729	23280.8625
2050.96359	23278.5625
2053.98794	23246.5625
2057.01034	23241.4625
2060.03078	23223.0625
2063.04927	23224.0625
2066.06582	23239.4625
2069.08042	23176.7625
2072.09307	23144.7625
2075.10378	23107.9625
2078.11255	23026.4625
2081.11938	23058.4625
2084.12426	23037.1625
2087.12722	23003.0625
2090.12824	22963.2625
2093.12732	22956.0625
2096.12447	22958.8625
2099.11969	23011.7625
2102.11299	23000.9625
2105.10435	22989.6625
2108.09379	22954.5625
2111.08131	22977.3625
2114.0669	23017.2625
2117.05057	22998.4625
2120.03233	23030.4625
2123.01216	23023.6625
2125.99008	23067.3625
2128.96609	23071.7625
2131.94018	23037.2625
2134.91236	23070.6625
2137.88263	23079.9625
2140.851	23100.7625
2143.81746	23124.1625
2146.78201	23109.7625
2149.74466	23104.9625
2152.7054	23089.4625
2155.66425	23095.0625
2158.6212	23072.7625
2161.57625	23060.2625
2164.52941	23039.1625
2167.48067	23005.6625
2170.43004	23063.7625
2173.37752	22994.3625
2176.32311	22995.4625
2179.26681	23033.7625
2182.20863	22990.5625
2185.14856	23070.5625
2188.08661	23051.0625
2191.02278	23073.7625
2193.95707	23037.6625
2196.88948	23041.4625
2199.82001	23035.6625
2202.74867	23003.6625
2205.67545	22965.1625
2208.60037	22974.5625
2211.52341	22976.1625
2214.44458	23002.1625
2217.36388	22939.9625
2220.28132	22893.7625
2223.1969	22842.1625
2226.11061	22793.4625
2229.02246	22762.8625
2231.93245	22723.2625
2234.84058	22669.2625
2237.74686	22643.0625
2240.65128	22588.0625
2243.55385	22538.4625
2246.45456	22506.4625
2249.35343	22477.3625
2252.25044	22448.5625
2255.14561	22387.8625
2258.03893	22393.2625
2260.93041	22323.1625
2263.82004	22253.5625
2266.70783	22228.4625
2269.59378	22145.1625
2272.4779	22095.9625
2275.36017	22021.2625
2278.24061	22002.9625
2281.11922	21970.2625
2283.996	21951.3625
2286.87094	21936.3625
2289.74405	21870.8625
2292.61534	21872.3625
2295.4848	21878.2625
2298.35243	21895.2625
2301.21824	21940.8625
2304.08223	21923.2625
2306.94439	21929.0625
2309.80474	21969.3625
2312.66327	22002.4625
2315.51999	22010.1625
2318.37489	21981.1625
2321.22797	21931.9625
2324.07925	21952.5625
2326.92871	21943.6625
2329.77637	21905.5625
2332.62222	21908.4625
2335.46626	21864.4625
2338.3085	21864.5625
2341.14893	21932.2625
2343.98756	21970.6625
2346.8244	22002.3625
2349.65943	22001.9625
2352.49267	22027.5625
2355.32411	22018.9625
2358.15376	22000.1625
2360.98161	21956.2625
2363.80768	21887.4625
2366.63195	21901.2625
2369.45444	21873.7625
2372.27514	21780.9625
2375.09405	21778.9625
2377.91118	21688.9625
2380.72652	21593.4625
2383.54009	21583.1625
2386.35187	21562.1625
2389.16188	21520.3625
2391.97011	21468.8625
2394.77657	21460.3625
2397.58125	21439.5625
2400.38416	21411.7625
2403.18529	21352.8625
2405.98466	21375.2625
2408.78226	21301.4625
2411.57809	21223.9625
2414.37216	21194.3625
2417.16446	21175.3625
2419.955	21126.6625
2422.74378	21087.5625
2425.5308	21053.3625
2428.31606	21046.6625
2431.09956	21083.7625
2433.88131	21054.9625
2436.6613	21120.2625
2439.43954	21063.5625
2442.21603	21090.2625
2444.99077	21021.6625
2447.76377	21072.2625
2450.53501	21021.5625
2453.30451	21025.0625
2456.07226	21004.7625
2458.83827	21017.4625
2461.60254	21014.2625
2464.36507	21040.0625
2467.12586	21006.2625
2469.88492	21035.0625
2472.64224	21039.9625
2475.39782	21068.1625
2478.15167	21163.5625
2480.90379	21127.3625
2483.65417	21187.4625
2486.40283	21187.7625
2489.14976	21258.7625
2491.89497	21219.6625
2494.63845	21247.0625
2497.3802	21255.8625
2500.12024	21317.5625
2502.85855	21264.0625
2505.59514	21245.1625
2508.33002	21210.4625
2511.06318	21207.9625
2513.79462	21216.8625
2516.52435	21150.3625
2519.25237	21207.8625
2521.97867	21126.7625
2524.70327	21153.1625
2527.42616	21084.8625
2530.14734	21129.9625
2532.86681	21095.5625
2535.58458	21137.0625
2538.30065	21114.6625
2541.01501	21074.0625
2543.72768	21070.0625
2546.43864	21069.3625
2549.14791	21042.4625
2551.85548	21036.4625
2554.56136	21001.2625
2557.26554	20990.8625
2559.96803	20965.6625
2562.66883	20957.9625
2565.36794	20954.0625
2568.06536	20881.8625
2570.7611	20921.1625
2573.45514	20908.5625
2576.14751	20887.8625
2578.83819	20879.2625
2581.52719	20944.7625
2584.21451	20935.9625
2586.90015	20946.3625
2589.58411	20954.0625
2592.2664	20949.2625
2594.94701	20932.5625
2597.62594	20947.5625
2600.30321	20950.7625
2602.9788	20949.8625
2605.65273	20925.3625
2608.32498	20994.0625
2610.99557	20965.9625
2613.66449	21005.3625
2616.33175	20989.5625
2618.99734	20991.4625
2621.66128	21021.7625
2624.32355	21045.3625
2626.98416	21054.6625
2629.64311	21054.1625
2632.30041	21102.6625
2634.95605	21060.2625
2637.61004	21051.6625
2640.26238	20977.9625
2642.91306	20979.8625
2645.56209	20928.4625
2648.20948	20958.3625
2650.85521	20961.9625
2653.4993	20965.0625
2656.14175	20948.6625
2658.78255	20971.3625
2661.42171	20984.9625
2664.05923	21015.8625
2666.6951	21017.6625
2669.32934	21026.6625
2671.96194	21029.9625
2674.59291	21046.2625
2677.22224	21078.0625
2679.84993	21084.4625
2682.476	21057.9625
2685.10043	21015.5625
2687.72324	20967.8625
2690.34441	20967.3625
2692.96396	20888.3625
2695.58188	20913.7625
2698.19818	20892.0625
2700.81285	20900.1625
2703.4259	20899.7625
2706.03733	20937.2625
2708.64714	20890.3625
2711.25533	20891.1625
2713.86191	20908.6625
2716.46687	20934.7625
2719.07021	20966.9625
2721.67194	21006.5625
2724.27206	20994.5625
2726.87057	21061.2625
2729.46747	21060.2625
2732.06276	21042.0625
2734.65644	21070.7625
2737.24852	21044.6625
2739.83899	21024.1625
2742.42786	21077.1625
2745.01513	21019.3625
2747.60079	21055.5625
2750.18486	21039.9625
2752.76733	21011.8625
2755.3482	20982.5625
2757.92747	21004.2625
2760.50515	21001.7625
2763.08123	21017.4625
2765.65573	21001.6625
2768.22863	21046.0625
2770.79994	20945.3625
2773.36967	21002.3625
2775.9378	21020.6625
2778.50435	20978.5625
2781.06932	21039.9625
2783.6327	20995.9625
2786.1945	21055.8625
2788.75471	21071.9625
2791.31335	20981.0625
2793.87041	20959.9625
2796.42589	20884.7625
2798.97979	20910.2625
2801.53212	20851.5625
2804.08288	20811.0625
2806.63206	20741.8625
2809.17967	20747.5625
2811.72571	20670.1625
2814.27018	20736.5625
2816.81308	20659.9625
2819.35442	20647.7625
2821.89419	20605.2625
2824.43239	20647.7625
2826.96904	20634.8625
2829.50412	20606.5625
2832.03763	20562.7625
2834.56959	20553.6625
2837.1	20524.2625
2839.62884	20525.0625
2842.15613	20514.0625
2844.68186	20567.6625
2847.20604	20544.9625
2849.72867	20597.2625
2852.24974	20548.8625
2854.76927	20549.2625
2857.28724	20540.2625
2859.80367	20528.2625
2862.31855	20485.4625
2864.83189	20486.1625
2867.34368	20464.7625
2869.85393	20455.5625
2872.36264	20413.4625
2874.8698	20397.6625
2877.37543	20397.9625
2879.87952	20410.7625
2882.38207	20425.6625
2884.88308	20378.9625
2887.38256	20399.0625
2889.88051	20415.6625
2892.37692	20449.0625
2894.8718	20462.9625
2897.36515	20475.1625
2899.85698	20497.7625
2902.34727	20565.3625
2904.83604	20605.2625
2907.32328	20641.1625
2909.809	20662.5625
2912.29319	20658.4625
2914.77587	20649.2625
2917.25702	20675.8625
2919.73665	20615.8625
2922.21476	20607.4625
2924.69136	20571.2625
2927.16644	20610.3625
2929.64	20560.9625
2932.11205	20478.9625
2934.58258	20408.9625
2937.05161	20415.2625
2939.51912	20415.6625
2941.98513	20382.8625
2944.44962	20327.2625
2946.91261	20274.4625
2949.37409	20273.0625
2951.83407	20274.0625
2954.29254	20247.2625
2956.74951	20228.0625
2959.20498	20236.2625
2961.65895	20159.0625
2964.11142	20126.7625
2966.56239	20085.6625
2969.01186	20064.4625
2971.45984	20024.0625
2973.90632	20039.6625
2976.35131	19955.4625
2978.7948	19904.9625
2981.23681	19867.5625
2983.67732	19831.6625
2986.11635	19797.7625
2988.55388	19750.2625
2990.98993	19713.1625
2993.4245	19636.4625
2995.85758	19570.0625
2998.28917	19509.4625
3000.71928	19501.1625
3003.14791	19471.7625
3005.57506	19466.4625
3008.00073	19373.1625
3010.42493	19284.6625
3012.84764	19338.3625
3015.26888	19340.4625
3017.68865	19243.8625
3020.10694	19250.4625
3022.52376	19194.6625
3024.9391	19166.4625
3027.35298	19132.7625
3029.76539	19132.3625
3032.17632	19088.1625
3034.5858	19051.4625
3036.9938	19068.8625
3039.40034	19028.5625
3041.80542	19024.4625
3044.20903	19003.2625
3046.61118	19007.0625
3049.01187	18965.2625
3051.4111	18966.3625
3053.80888	18890.6625
3056.20519	18883.2625
3058.60005	18846.3625
3060.99345	18760.1625
3063.3854	18688.1625
3065.7759	18604.4625
3068.16494	18570.3625
3070.55254	18491.7625
3072.93868	18445.1625
3075.32338	18388.4625
3077.70662	18338.9625
3080.08842	18306.9625
3082.46878	18273.9625
3084.84769	18238.9625
3087.22515	18235.0625
3089.60118	18209.7625
3091.97576	18204.9625
3094.3489	18142.8625
3096.72061	18146.9625
3099.09087	18154.8625
3101.4597	18124.7625
3103.82709	18126.2625
3106.19305	18124.2625
3108.55757	18082.6625
3110.92066	18040.3625
3113.28232	18030.6625
3115.64255	17994.0625
3118.00134	17935.2625
3120.35871	17931.2625
3122.71466	17882.6625
3125.06917	17830.0625
3127.42226	17752.8625
3129.77393	17769.5625
3132.12417	17683.1625
3134.47299	17678.4625
3136.82039	17675.7625
3139.16636	17664.0625
3141.51092	17648.9625
3143.85406	17644.8625
3146.19579	17637.6625
3148.53609	17653.4625
3150.87499	17638.5625
3153.21246	17654.9625
3155.54853	17650.5625
3157.88318	17617.8625
3160.21642	17658.9625
3162.54826	17688.6625
3164.87868	17652.8625
3167.2077	17620.4625
3169.5353	17623.1625
3171.86151	17629.4625
3174.18631	17623.0625
3176.5097	17605.2625
3178.83169	17595.9625
3181.15228	17571.9625
3183.47147	17512.9625
3185.78926	17537.3625
3188.10565	17501.0625
3190.42065	17473.9625
3192.73424	17450.1625
3195.04645	17434.5625
3197.35725	17415.4625
3199.66667	17382.5625
3201.97469	17414.9625
3204.28132	17403.9625
3206.58656	17458.2625
3208.8904	17389.1625
3211.19287	17451.9625
3213.49394	17421.9625
3215.79363	17462.5625
3218.09193	17445.1625
3220.38884	17453.6625
3222.68438	17458.1625
3224.97853	17441.5625
3227.2713	17375.8625
3229.56269	17399.3625
3231.8527	17378.0625
3234.14133	17329.1625
3236.42858	17291.7625
3238.71446	17320.2625
3240.99896	17239.6625
3243.28209	17260.8625
3245.56384	17195.2625
3247.84423	17220.1625
3250.12324	17128.7625
3252.40088	17137.7625
3254.67715	17152.9625
3256.95205	17109.4625
3259.22558	17109.1625
3261.49775	17076.8625
3263.76855	17017.0625
3266.03799	17028.1625
3268.30606	16960.0625
3270.57277	16915.0625
3272.83812	16905.2625
3275.10211	16899.1625
3277.36474	16865.9625
3279.62601	16841.6625
3281.88593	16818.3625
3284.14448	16827.7625
3286.40168	16847.2625
3288.65753	16833.5625
3290.91202	16850.3625
3293.16516	16748.7625
3295.41695	16762.2625
3297.66738	16690.4625
3299.91647	16605.4625
3302.16421	16472.9625
3304.4106	16410.6625
3306.65564	16281.8625
3308.89933	16151.2625
3311.14169	16009.1625
3313.38269	15918.1625
3315.62236	15818.7625
3317.86068	15684.1625
3320.09766	15555.0625
3322.3333	15451.3625
3324.5676	15393.4625
3326.80056	15116.8625
3329.03219	15051.7625
3331.26248	4.3625
3333.49143	-1.9375
3335.71905	0.5625
