Data from AgNPs_FTO_APTES_UA_5uM_CRN_2uM_R6G_10uM_NaF_0.1M_Addition_RamanShift__24__11-24-56-643.txt Node

Date: Mon Feb 07 11:24:56 GMT 2022
User: TCL
Spectrometer: QEP01345
Trigger mode: 4
Integration Time (sec): 7.000000E0
Scans to average: 10
Electric dark correction enabled: true
Nonlinearity correction enabled: false
Boxcar width: 0
XAxis mode: Raman Shifts
Number of Pixels in Spectrum: 1044
>>>>>Begin Spectral Data<<<<<
46.04893	0.5625
50.45542	-1.1375
54.85868	-0.9375
59.25871	0.0625
63.6555	103.3625
68.04907	105.7625
72.43941	112.6625
76.82654	116.0625
81.21044	119.9625
85.59113	121.9625
89.96862	127.2625
94.34289	129.7625
98.71396	135.7625
103.08183	139.5625
107.4465	145.5625
111.80798	148.8625
116.16626	155.1625
120.52136	158.2625
124.87327	167.5625
129.222	179.8625
133.56755	189.2625
137.90993	205.9625
142.24913	226.4625
146.58517	256.6625
150.91804	302.5625
155.24774	363.4625
159.57429	454.9625
163.89768	585.9625
168.21792	792.8625
172.53501	1078.1625
176.84895	1505.4625
181.15975	2121.3625
185.46741	2964.7625
189.77193	4091.3625
194.07331	5477.3625
198.37157	7043.6625
202.6667	8658.6625
206.9587	10352.0625
211.24758	11964.4625
215.53334	13622.4625
219.81599	15449.6625
224.09553	17491.9625
228.37195	19773.9625
232.64527	22255.8625
236.91549	24788.7625
241.18261	27233.2625
245.44663	29359.1625
249.70755	31233.7625
253.96539	32832.1625
258.22014	34264.7625
262.4718	35466.4625
266.72039	36386.0625
270.96589	36943.1625
275.20832	37093.5625
279.44768	37017.4625
283.68397	36805.6625
287.91719	36734.7625
292.14735	36808.0625
296.37445	37019.4625
300.59849	37465.0625
304.81948	37982.1625
309.03742	38188.4625
313.25231	37792.2625
317.46415	36490.7625
321.67296	34599.8625
325.87872	33028.3625
330.08145	32283.0625
334.28114	32148.2625
338.47781	32432.4625
342.67145	32969.6625
346.86207	33795.2625
351.04966	34937.0625
355.23424	36260.7625
359.4158	37242.5625
363.59435	37770.9625
367.76989	38000.7625
371.94243	38086.0625
376.11196	38046.7625
380.27849	38012.3625
384.44203	37963.2625
388.60257	37947.1625
392.76012	38161.8625
396.91468	38700.7625
401.06626	39540.8625
405.21485	40263.7625
409.36047	39903.8625
413.50311	38850.8625
417.64277	37827.0625
421.77947	37486.4625
425.9132	37562.6625
430.04396	37788.3625
434.17176	38025.1625
438.2966	38379.0625
442.41849	39023.5625
446.53742	40179.8625
450.6534	41578.7625
454.76644	42584.7625
458.87653	42933.6625
462.98368	42725.0625
467.08789	42072.3625
471.18916	41200.9625
475.2875	40415.1625
479.38291	39908.1625
483.4754	39568.2625
487.56496	39125.7625
491.6516	38527.4625
495.73531	37944.4625
499.81612	37741.6625
503.89401	37891.1625
507.96899	38026.4625
512.04106	38056.0625
516.11023	37824.2625
520.1765	37536.4625
524.23987	37129.6625
528.30034	36584.1625
532.35792	35992.6625
536.41261	35306.5625
540.46441	34713.5625
544.51333	34606.4625
548.55936	35093.2625
552.60252	36212.2625
556.64279	37414.6625
560.6802	38086.0625
564.71473	38620.3625
568.7464	39811.2625
572.7752	41169.1625
576.80114	41666.0625
580.82422	41943.6625
584.84444	42263.1625
588.86181	42716.3625
592.87633	43373.1625
596.888	44135.5625
600.89682	44622.9625
604.9028	46820.7625
608.90594	53250.0625
612.90624	61075.4625
616.90371	57436.3625
620.89834	44283.0625
624.89015	38383.6625
628.87913	37674.3625
632.86528	37797.0625
636.84862	37489.4625
640.82913	36501.4625
644.80683	34962.9625
648.78172	33791.5625
652.75379	33627.2625
656.72306	34401.8625
660.68952	35567.3625
664.65319	35465.4625
668.61405	34410.5625
672.57211	33939.2625
676.52738	33858.3625
680.47986	33800.4625
684.42955	33582.4625
688.37646	33414.2625
692.32058	33586.1625
696.26192	34017.5625
700.20048	34516.8625
704.13626	34961.3625
708.06928	34874.5625
711.99952	34558.5625
715.927	34324.1625
719.85171	34363.0625
723.77365	34155.3625
727.69284	33657.3625
731.60928	33222.7625
735.52295	33100.3625
739.43388	33228.7625
743.34206	33415.6625
747.24749	33710.8625
751.15017	34135.5625
755.05012	34961.8625
758.94733	36571.1625
762.8418	39531.1625
766.73354	44492.7625
770.62254	49278.4625
774.50882	50542.8625
778.39237	47457.8625
782.27321	42258.7625
786.15132	37907.8625
790.02671	35203.2625
793.89938	33997.0625
797.76935	33519.4625
801.6366	33359.9625
805.50115	33197.0625
809.36299	32921.1625
813.22213	32682.8625
817.07857	32550.1625
820.93231	32496.0625
824.78336	32406.1625
828.63172	32412.9625
832.47738	32492.3625
836.32036	32514.6625
840.16066	32590.3625
843.99827	32723.7625
847.8332	32605.0625
851.66546	32379.7625
855.49504	32268.7625
859.32195	32168.2625
863.1462	31953.6625
866.96777	31742.7625
870.78668	31631.1625
874.60293	31598.3625
878.41652	31604.7625
882.22745	31788.8625
886.03573	31943.1625
889.84136	31857.9625
893.64433	31678.6625
897.44466	31552.7625
901.24235	31436.0625
905.0374	31334.5625
908.8298	31222.9625
912.61957	31328.1625
916.40671	31712.9625
920.19121	32358.3625
923.97308	32968.2625
927.75233	33327.6625
931.52895	33223.9625
935.30295	32696.5625
939.07433	31688.5625
942.84309	30969.1625
946.60924	30675.2625
950.37278	30434.7625
954.13371	30244.8625
957.89203	30006.8625
961.64774	29918.9625
965.40086	29874.5625
969.15137	29757.5625
972.89929	29606.3625
976.64461	29522.4625
980.38733	29579.4625
984.12747	29730.1625
987.86502	30066.0625
991.59999	30593.5625
995.33237	31453.9625
999.06217	32819.2625
1002.78939	34493.3625
1006.51404	35666.8625
1010.23611	36347.0625
1013.95561	36713.9625
1017.67255	36668.9625
1021.38692	36071.0625
1025.09872	35544.1625
1028.80796	35942.9625
1032.51465	37362.3625
1036.21877	38798.8625
1039.92035	38989.9625
1043.61937	38097.7625
1047.31584	36753.6625
1051.00976	35265.1625
1054.70114	34484.8625
1058.38998	34300.1625
1062.07627	34381.2625
1065.76003	34650.0625
1069.44126	34968.4625
1073.11995	35488.6625
1076.79611	35964.6625
1080.46974	36323.0625
1084.14085	36763.0625
1087.80943	37500.8625
1091.47549	37928.2625
1095.13903	37706.1625
1098.80005	36839.4625
1102.45857	35687.5625
1106.11456	34845.2625
1109.76805	34653.7625
1113.41903	34900.9625
1117.06751	35427.5625
1120.71348	36223.2625
1124.35696	37050.1625
1127.99793	37871.4625
1131.63641	38036.0625
1135.2724	37461.2625
1138.90589	36715.1625
1142.5369	36245.6625
1146.16542	36021.2625
1149.79145	36030.6625
1153.415	36399.6625
1157.03607	37105.8625
1160.65467	38219.4625
1164.27079	39979.2625
1167.88443	42627.6625
1171.49561	46309.7625
1175.10432	51484.1625
1178.71056	58018.0625
1182.31434	63695.3625
1185.91565	66692.3625
1189.51451	66686.3625
1193.11091	63993.7625
1196.70485	59912.6625
1200.29634	56083.5625
1203.88538	53096.0625
1207.47197	50586.4625
1211.05612	48664.8625
1214.63782	47446.7625
1218.21708	46901.0625
1221.79391	46934.2625
1225.36829	47149.5625
1228.94024	46814.4625
1232.50976	46090.2625
1236.07685	45371.2625
1239.6415	44841.5625
1243.20374	44509.4625
1246.76355	44507.8625
1250.32093	45161.3625
1253.8759	46481.6625
1257.42845	48262.3625
1260.97859	50093.3625
1264.52631	51737.7625
1268.07163	53465.1625
1271.61453	55474.3625
1275.15503	57589.3625
1278.69312	59738.5625
1282.22882	61589.9625
1285.76211	63392.4625
1289.29301	65344.2625
1292.82151	67786.6625
1296.34761	70895.8625
1299.87133	75204.9625
1303.39266	80711.8625
1306.9116	87799.5625
1310.42815	95137.7625
1313.94233	100007.1625
1317.45412	100321.4625
1320.96354	97578.6625
1324.47058	93909.6625
1327.97525	90484.8625
1331.47754	88044.2625
1334.97747	86855.5625
1338.47502	86574.5625
1341.97022	86338.7625
1345.46305	85614.3625
1348.95352	84441.1625
1352.44163	83955.9625
1355.92738	85680.8625
1359.41078	91318.6625
1362.89183	97332.9625
1366.37053	95864.2625
1369.84688	86120.5625
1373.32088	75088.8625
1376.79254	67433.9625
1380.26186	63997.1625
1383.72883	63056.0625
1387.19347	62398.7625
1390.65578	61626.9625
1394.11575	61497.2625
1397.57339	62523.2625
1401.0287	64264.0625
1404.48168	65862.9625
1407.93234	66919.2625
1411.38068	66643.8625
1414.82669	64958.2625
1418.27039	61833.7625
1421.71177	58609.7625
1425.15083	55915.3625
1428.58758	54361.7625
1432.02203	54233.5625
1435.45416	55110.5625
1438.88399	56220.4625
1442.31151	57268.7625
1445.73673	58344.2625
1449.15965	59334.4625
1452.58027	60019.0625
1455.9986	60280.2625
1459.41463	60638.4625
1462.82837	61510.7625
1466.23982	62820.3625
1469.64898	64034.7625
1473.05586	64612.5625
1476.46045	64664.6625
1479.86276	64630.0625
1483.26279	64451.5625
1486.66054	64546.2625
1490.05602	65146.7625
1493.44922	66134.5625
1496.84016	67340.6625
1500.22882	69202.3625
1503.61521	72218.9625
1506.99934	76255.6625
1510.38121	80389.0625
1513.76081	82588.7625
1517.13816	80896.3625
1520.51324	76128.6625
1523.88607	71147.3625
1527.25665	67667.9625
1530.62498	65545.9625
1533.99105	64350.9625
1537.35488	63459.0625
1540.71647	62591.6625
1544.07581	61506.8625
1547.4329	60284.6625
1550.78776	59110.4625
1554.14038	58313.1625
1557.49077	58109.9625
1560.83892	58170.7625
1564.18484	58424.9625
1567.52853	58605.4625
1570.86999	58768.6625
1574.20922	59251.5625
1577.54624	59645.0625
1580.88103	59188.9625
1584.2136	58834.7625
1587.54395	60225.4625
1590.87208	63821.9625
1594.19801	68818.7625
1597.52172	73972.8625
1600.84321	75703.9625
1604.16251	72229.2625
1607.47959	65798.6625
1610.79447	58875.3625
1614.10715	52744.4625
1617.41763	47800.1625
1620.7259	44554.0625
1624.03199	42991.5625
1627.33587	43031.5625
1630.63757	44611.3625
1633.93707	48062.1625
1637.23439	53336.5625
1640.52951	60386.6625
1643.82246	68093.2625
1647.11321	74388.4625
1650.40179	76317.3625
1653.68819	71521.4625
1656.97241	61633.1625
1660.25446	51319.0625
1663.53433	43407.4625
1666.81203	38325.7625
1670.08756	35239.3625
1673.36092	33299.8625
1676.63211	32062.4625
1679.90115	31201.9625
1683.16801	30643.7625
1686.43272	30119.5625
1689.69527	29782.6625
1692.95567	29552.5625
1696.2139	29361.9625
1699.46999	29209.8625
1702.72392	29099.9625
1705.97571	28977.6625
1709.22535	28948.8625
1712.47284	28878.3625
1715.71819	28853.1625
1718.96139	28824.2625
1722.20246	28682.3625
1725.44139	28547.5625
1728.67818	28299.9625
1731.91284	28108.7625
1735.14537	27930.4625
1738.37576	27805.4625
1741.60403	27654.4625
1744.83017	27570.2625
1748.05418	27486.7625
1751.27607	27405.3625
1754.49584	27373.1625
1757.71349	27352.1625
1760.92903	27323.6625
1764.14244	27260.6625
1767.35375	27211.2625
1770.56294	27169.5625
1773.77002	27139.4625
1776.97499	27046.8625
1780.17785	26993.8625
1783.37861	26970.5625
1786.57727	26924.2625
1789.77382	26846.1625
1792.96828	26814.2625
1796.16064	26803.2625
1799.3509	26778.7625
1802.53907	26698.9625
1805.72514	26656.8625
1808.90913	26578.9625
1812.09102	26487.4625
1815.27083	26451.2625
1818.44856	26440.2625
1821.6242	26354.6625
1824.79776	26327.1625
1827.96924	26328.8625
1831.13864	26361.1625
1834.30597	26327.6625
1837.47122	26304.4625
1840.6344	26304.3625
1843.7955	26377.1625
1846.95454	26402.1625
1850.11151	26439.7625
1853.26642	26390.3625
1856.41926	26423.3625
1859.57004	26447.6625
1862.71876	26457.9625
1865.86542	26483.9625
1869.01003	26497.9625
1872.15258	26457.0625
1875.29308	26498.5625
1878.43152	26556.0625
1881.56792	26606.5625
1884.70227	26606.5625
1887.83457	26625.1625
1890.96482	26596.1625
1894.09304	26660.2625
1897.21921	26659.4625
1900.34335	26643.2625
1903.46544	26677.5625
1906.58551	26711.6625
1909.70353	26644.3625
1912.81953	26648.7625
1915.93349	26621.0625
1919.04543	26579.8625
1922.15534	26518.2625
1925.26322	26410.0625
1928.36908	26305.9625
1931.47292	26231.1625
1934.57473	26078.3625
1937.67453	25873.4625
1940.77232	25791.5625
1943.86808	25632.3625
1946.96184	25499.6625
1950.05358	25375.5625
1953.14331	25311.9625
1956.23103	25163.2625
1959.31675	25067.3625
1962.40046	24966.6625
1965.48217	24913.7625
1968.56188	24838.7625
1971.63959	24755.5625
1974.7153	24636.1625
1977.78901	24550.3625
1980.86073	24460.2625
1983.93046	24375.7625
1986.99819	24265.4625
1990.06394	24243.4625
1993.1277	24198.3625
1996.18947	24107.5625
1999.24925	24028.8625
2002.30706	23913.5625
2005.36288	23856.7625
2008.41672	23823.2625
2011.46859	23736.6625
2014.51848	23709.6625
2017.56639	23640.1625
2020.61233	23549.9625
2023.6563	23518.8625
2026.6983	23474.1625
2029.73833	23418.3625
2032.7764	23380.2625
2035.8125	23380.5625
2038.84664	23297.4625
2041.87881	23317.4625
2044.90903	23254.9625
2047.93729	23204.7625
2050.96359	23189.0625
2053.98794	23149.7625
2057.01034	23114.4625
2060.03078	23159.0625
2063.04927	23130.3625
2066.06582	23118.4625
2069.08042	23058.9625
2072.09307	23026.6625
2075.10378	23024.2625
2078.11255	22979.9625
2081.11938	22967.6625
2084.12426	22910.3625
2087.12722	22881.8625
2090.12824	22848.2625
2093.12732	22868.8625
2096.12447	22853.3625
2099.11969	22884.5625
2102.11299	22874.8625
2105.10435	22898.1625
2108.09379	22862.0625
2111.08131	22873.1625
2114.0669	22863.0625
2117.05057	22859.0625
2120.03233	22900.8625
2123.01216	22919.8625
2125.99008	22957.3625
2128.96609	22966.5625
2131.94018	22971.1625
2134.91236	22972.5625
2137.88263	22996.9625
2140.851	23012.3625
2143.81746	23051.6625
2146.78201	22991.4625
2149.74466	22992.7625
2152.7054	23006.5625
2155.66425	22950.5625
2158.6212	22929.9625
2161.57625	22889.0625
2164.52941	22922.8625
2167.48067	22924.6625
2170.43004	22900.5625
2173.37752	22923.8625
2176.32311	22930.1625
2179.26681	22933.8625
2182.20863	22885.4625
2185.14856	22935.0625
2188.08661	22960.4625
2191.02278	22981.1625
2193.95707	22953.9625
2196.88948	22931.9625
2199.82001	22912.2625
2202.74867	22874.1625
2205.67545	22893.4625
2208.60037	22895.2625
2211.52341	22855.9625
2214.44458	22892.7625
2217.36388	22845.6625
2220.28132	22773.8625
2223.1969	22758.5625
2226.11061	22705.5625
2229.02246	22685.1625
2231.93245	22679.1625
2234.84058	22591.8625
2237.74686	22550.7625
2240.65128	22528.5625
2243.55385	22498.5625
2246.45456	22455.1625
2249.35343	22433.9625
2252.25044	22419.0625
2255.14561	22349.2625
2258.03893	22304.8625
2260.93041	22301.8625
2263.82004	22233.2625
2266.70783	22210.5625
2269.59378	22122.7625
2272.4779	22034.1625
2275.36017	21919.7625
2278.24061	21915.3625
2281.11922	21880.8625
2283.996	21885.7625
2286.87094	21854.4625
2289.74405	21843.7625
2292.61534	21827.9625
2295.4848	21803.3625
2298.35243	21831.4625
2301.21824	21834.4625
2304.08223	21850.3625
2306.94439	21858.7625
2309.80474	21958.5625
2312.66327	21941.0625
2315.51999	21958.7625
2318.37489	21938.5625
2321.22797	21922.4625
2324.07925	21913.2625
2326.92871	21926.6625
2329.77637	21877.5625
2332.62222	21843.7625
2335.46626	21880.6625
2338.3085	21896.5625
2341.14893	21916.6625
2343.98756	21979.9625
2346.8244	22011.2625
2349.65943	22022.4625
2352.49267	21994.1625
2355.32411	22039.1625
2358.15376	22058.6625
2360.98161	21960.6625
2363.80768	21933.2625
2366.63195	21965.3625
2369.45444	21909.4625
2372.27514	21875.2625
2375.09405	21846.1625
2377.91118	21766.6625
2380.72652	21645.2625
2383.54009	21570.7625
2386.35187	21543.6625
2389.16188	21517.4625
2391.97011	21485.6625
2394.77657	21429.1625
2397.58125	21423.4625
2400.38416	21353.3625
2403.18529	21362.8625
2405.98466	21286.4625
2408.78226	21213.4625
2411.57809	21138.4625
2414.37216	21167.1625
2417.16446	21147.3625
2419.955	21067.3625
2422.74378	21050.1625
2425.5308	20997.2625
2428.31606	21023.6625
2431.09956	21028.1625
2433.88131	20996.8625
2436.6613	21078.4625
2439.43954	21056.7625
2442.21603	21058.0625
2444.99077	21008.4625
2447.76377	20984.0625
2450.53501	20992.6625
2453.30451	20988.6625
2456.07226	20980.7625
2458.83827	21013.3625
2461.60254	21033.2625
2464.36507	20970.0625
2467.12586	20954.3625
2469.88492	20972.8625
2472.64224	21019.9625
2475.39782	21035.9625
2478.15167	21051.2625
2480.90379	21109.3625
2483.65417	21141.4625
2486.40283	21149.2625
2489.14976	21257.1625
2491.89497	21239.2625
2494.63845	21283.4625
2497.3802	21288.3625
2500.12024	21314.6625
2502.85855	21296.9625
2505.59514	21246.5625
2508.33002	21233.3625
2511.06318	21207.3625
2513.79462	21139.2625
2516.52435	21079.8625
2519.25237	21124.5625
2521.97867	21058.7625
2524.70327	21034.4625
2527.42616	21015.9625
2530.14734	21042.1625
2532.86681	21053.0625
2535.58458	21070.1625
2538.30065	21016.5625
2541.01501	21034.4625
2543.72768	21005.0625
2546.43864	21026.3625
2549.14791	20940.0625
2551.85548	20950.1625
2554.56136	20910.4625
2557.26554	20933.7625
2559.96803	20965.1625
2562.66883	20886.4625
2565.36794	20901.6625
2568.06536	20843.8625
2570.7611	20870.3625
2573.45514	20873.0625
2576.14751	20843.1625
2578.83819	20839.2625
2581.52719	20876.3625
2584.21451	20895.8625
2586.90015	20906.7625
2589.58411	20911.5625
2592.2664	20908.3625
2594.94701	20890.4625
2597.62594	20886.3625
2600.30321	20866.1625
2602.9788	20869.3625
2605.65273	20867.3625
2608.32498	20900.5625
2610.99557	20921.8625
2613.66449	20935.1625
2616.33175	20954.2625
2618.99734	20976.3625
2621.66128	20946.4625
2624.32355	20950.8625
2626.98416	20970.0625
2629.64311	21011.9625
2632.30041	21048.9625
2634.95605	20989.7625
2637.61004	20965.8625
2640.26238	20931.6625
2642.91306	20926.4625
2645.56209	20854.5625
2648.20948	20825.8625
2650.85521	20832.3625
2653.4993	20866.1625
2656.14175	20829.8625
2658.78255	20852.3625
2661.42171	20877.6625
2664.05923	20889.9625
2666.6951	20889.0625
2669.32934	20989.6625
2671.96194	20955.7625
2674.59291	21015.9625
2677.22224	20970.0625
2679.84993	20981.5625
2682.476	20936.4625
2685.10043	20924.6625
2687.72324	20879.5625
2690.34441	20838.0625
2692.96396	20816.5625
2695.58188	20864.0625
2698.19818	20812.7625
2700.81285	20806.8625
2703.4259	20847.6625
2706.03733	20864.9625
2708.64714	20837.1625
2711.25533	20866.0625
2713.86191	20853.3625
2716.46687	20852.3625
2719.07021	20840.2625
2721.67194	20903.7625
2724.27206	20892.8625
2726.87057	20906.2625
2729.46747	20917.6625
2732.06276	20905.9625
2734.65644	20917.9625
2737.24852	20970.1625
2739.83899	20876.7625
2742.42786	20892.9625
2745.01513	20853.2625
2747.60079	20920.2625
2750.18486	20891.6625
2752.76733	20897.1625
2755.3482	20885.6625
2757.92747	20884.8625
2760.50515	20822.1625
2763.08123	20860.8625
2765.65573	20817.6625
2768.22863	20851.5625
2770.79994	20807.1625
2773.36967	20862.7625
2775.9378	20853.0625
2778.50435	20858.9625
2781.06932	20836.8625
2783.6327	20882.2625
2786.1945	20844.3625
2788.75471	20899.1625
2791.31335	20838.1625
2793.87041	20811.9625
2796.42589	20742.9625
2798.97979	20747.2625
2801.53212	20688.4625
2804.08288	20644.6625
2806.63206	20629.0625
2809.17967	20574.0625
2811.72571	20557.8625
2814.27018	20549.4625
2816.81308	20523.8625
2819.35442	20526.6625
2821.89419	20510.5625
2824.43239	20544.2625
2826.96904	20548.8625
2829.50412	20502.2625
2832.03763	20458.8625
2834.56959	20475.6625
2837.1	20451.2625
2839.62884	20455.5625
2842.15613	20458.4625
2844.68186	20476.6625
2847.20604	20492.8625
2849.72867	20508.7625
2852.24974	20500.7625
2854.76927	20481.0625
2857.28724	20497.1625
2859.80367	20489.8625
2862.31855	20440.2625
2864.83189	20421.9625
2867.34368	20368.6625
2869.85393	20358.2625
2872.36264	20290.7625
2874.8698	20325.9625
2877.37543	20334.6625
2879.87952	20384.8625
2882.38207	20300.8625
2884.88308	20360.9625
2887.38256	20392.2625
2889.88051	20357.4625
2892.37692	20366.2625
2894.8718	20396.6625
2897.36515	20397.9625
2899.85698	20390.1625
2902.34727	20466.6625
2904.83604	20441.0625
2907.32328	20530.2625
2909.809	20526.5625
2912.29319	20539.0625
2914.77587	20535.6625
2917.25702	20527.8625
2919.73665	20510.1625
2922.21476	20465.3625
2924.69136	20448.2625
2927.16644	20441.2625
2929.64	20402.6625
2932.11205	20350.7625
2934.58258	20269.8625
2937.05161	20296.2625
2939.51912	20283.4625
2941.98513	20258.8625
2944.44962	20213.9625
2946.91261	20101.7625
2949.37409	20137.2625
2951.83407	20101.9625
2954.29254	20076.6625
2956.74951	20046.8625
2959.20498	20023.2625
2961.65895	20028.4625
2964.11142	19975.0625
2966.56239	19940.4625
2969.01186	19906.2625
2971.45984	19876.2625
2973.90632	19840.1625
2976.35131	19782.8625
2978.7948	19694.2625
2981.23681	19661.4625
2983.67732	19656.1625
2986.11635	19587.6625
2988.55388	19516.4625
2990.98993	19501.1625
2993.4245	19413.0625
2995.85758	19378.8625
2998.28917	19316.5625
3000.71928	19320.9625
3003.14791	19278.6625
3005.57506	19267.8625
3008.00073	19190.7625
3010.42493	19214.9625
3012.84764	19160.9625
3015.26888	19137.4625
3017.68865	19065.8625
3020.10694	19019.8625
3022.52376	18986.9625
3024.9391	18966.5625
3027.35298	18925.7625
3029.76539	18904.9625
3032.17632	18872.9625
3034.5858	18827.1625
3036.9938	18796.7625
3039.40034	18801.5625
3041.80542	18809.3625
3044.20903	18780.8625
3046.61118	18794.7625
3049.01187	18744.0625
3051.4111	18721.7625
3053.80888	18706.2625
3056.20519	18637.3625
3058.60005	18554.3625
3060.99345	18501.6625
3063.3854	18466.8625
3065.7759	18346.4625
3068.16494	18318.6625
3070.55254	18263.7625
3072.93868	18242.4625
3075.32338	18171.7625
3077.70662	18101.0625
3080.08842	18071.4625
3082.46878	18007.7625
3084.84769	17963.0625
3087.22515	17967.7625
3089.60118	17974.4625
3091.97576	17971.3625
3094.3489	17955.8625
3096.72061	17916.1625
3099.09087	17913.4625
3101.4597	17860.4625
3103.82709	17854.5625
3106.19305	17821.2625
3108.55757	17826.1625
3110.92066	17777.6625
3113.28232	17757.4625
3115.64255	17725.7625
3118.00134	17661.5625
3120.35871	17669.2625
3122.71466	17595.7625
3125.06917	17548.2625
3127.42226	17504.6625
3129.77393	17492.1625
3132.12417	17437.8625
3134.47299	17425.7625
3136.82039	17421.1625
3139.16636	17404.4625
3141.51092	17416.2625
3143.85406	17375.5625
3146.19579	17381.1625
3148.53609	17390.2625
3150.87499	17372.4625
3153.21246	17379.7625
3155.54853	17389.4625
3157.88318	17361.3625
3160.21642	17392.0625
3162.54826	17381.0625
3164.87868	17367.1625
3167.2077	17338.5625
3169.5353	17369.1625
3171.86151	17344.1625
3174.18631	17349.7625
3176.5097	17290.6625
3178.83169	17279.1625
3181.15228	17314.7625
3183.47147	17264.1625
3185.78926	17241.0625
3188.10565	17168.3625
3190.42065	17186.0625
3192.73424	17173.5625
3195.04645	17163.9625
3197.35725	17142.6625
3199.66667	17169.9625
3201.97469	17156.9625
3204.28132	17148.0625
3206.58656	17173.6625
3208.8904	17142.3625
3211.19287	17148.5625
3213.49394	17189.6625
3215.79363	17203.5625
3218.09193	17158.5625
3220.38884	17175.1625
3222.68438	17177.6625
3224.97853	17142.5625
3227.2713	17186.5625
3229.56269	17146.5625
3231.8527	17116.0625
3234.14133	17077.1625
3236.42858	17043.7625
3238.71446	17042.1625
3240.99896	16996.4625
3243.28209	16995.1625
3245.56384	16971.6625
3247.84423	16959.5625
3250.12324	16927.5625
3252.40088	16884.4625
3254.67715	16879.2625
3256.95205	16883.2625
3259.22558	16858.8625
3261.49775	16827.9625
3263.76855	16784.9625
3266.03799	16780.3625
3268.30606	16754.3625
3270.57277	16717.4625
3272.83812	16661.3625
3275.10211	16649.6625
3277.36474	16594.0625
3279.62601	16605.7625
3281.88593	16578.3625
3284.14448	16591.2625
3286.40168	16610.0625
3288.65753	16563.8625
3290.91202	16577.9625
3293.16516	16510.1625
3295.41695	16477.5625
3297.66738	16365.0625
3299.91647	16305.1625
3302.16421	16206.0625
3304.4106	16112.7625
3306.65564	16022.1625
3308.89933	15909.4625
3311.14169	15789.9625
3313.38269	15690.6625
3315.62236	15575.8625
3317.86068	15433.2625
3320.09766	15318.3625
3322.3333	15208.5625
3324.5676	15129.9625
3326.80056	14915.8625
3329.03219	14835.7625
3331.26248	3.4625
3333.49143	-1.8375
3335.71905	-0.4375
