Data from AgNPs_FTO_APTES_UA_5uM_CRN_200uM_R6G_10uM_NaF_0.1M_Addition_RamanShift__1__16-01-01-760.txt Node

Date: Mon Feb 07 16:01:01 GMT 2022
User: TCL
Spectrometer: QEP01345
Trigger mode: 4
Integration Time (sec): 7.000000E0
Scans to average: 10
Electric dark correction enabled: true
Nonlinearity correction enabled: false
Boxcar width: 0
XAxis mode: Raman Shifts
Number of Pixels in Spectrum: 1044
>>>>>Begin Spectral Data<<<<<
46.04893	-1.7375
50.45542	-1.6375
54.85868	-0.0375
59.25871	-0.9375
63.6555	69.5625
68.04907	71.3625
72.43941	79.6625
76.82654	78.3625
81.21044	80.0625
85.59113	79.6625
89.96862	86.9625
94.34289	89.1625
98.71396	94.8625
103.08183	93.9625
107.4465	99.9625
111.80798	101.6625
116.16626	102.3625
120.52136	109.4625
124.87327	113.6625
129.222	122.5625
133.56755	129.2625
137.90993	141.2625
142.24913	160.8625
146.58517	179.1625
150.91804	213.0625
155.24774	260.0625
159.57429	332.2625
163.89768	419.4625
168.21792	563.7625
172.53501	775.6625
176.84895	1087.8625
181.15975	1529.1625
185.46741	2155.5625
189.77193	2983.3625
194.07331	4009.9625
198.37157	5174.0625
202.6667	6416.4625
206.9587	7647.5625
211.24758	8845.7625
215.53334	10071.6625
219.81599	11405.5625
224.09553	12831.9625
228.37195	14428.9625
232.64527	16152.7625
236.91549	17950.7625
241.18261	19705.9625
245.44663	21275.5625
249.70755	22651.2625
253.96539	23832.3625
258.22014	24813.6625
262.4718	25610.2625
266.72039	26260.5625
270.96589	26677.6625
275.20832	26792.4625
279.44768	26737.0625
283.68397	26586.7625
287.91719	26558.7625
292.14735	26686.1625
296.37445	26970.8625
300.59849	27415.0625
304.81948	27708.2625
309.03742	27825.5625
313.25231	27472.1625
317.46415	26630.8625
321.67296	25452.1625
325.87872	24503.6625
330.08145	23895.1625
334.28114	23841.1625
338.47781	24035.3625
342.67145	24314.6625
346.86207	24785.7625
351.04966	25319.9625
355.23424	25882.1625
359.4158	26286.5625
363.59435	26561.2625
367.76989	26674.1625
371.94243	26735.9625
376.11196	26752.3625
380.27849	26701.9625
384.44203	26663.6625
388.60257	26735.0625
392.76012	26974.4625
396.91468	27348.2625
401.06626	27837.9625
405.21485	28180.2625
409.36047	27924.7625
413.50311	27241.1625
417.64277	26516.4625
421.77947	26069.6625
425.9132	25904.2625
430.04396	25909.3625
434.17176	26127.2625
438.2966	26338.2625
442.41849	26694.5625
446.53742	27293.3625
450.6534	27871.1625
454.76644	28332.1625
458.87653	28502.1625
462.98368	28543.5625
467.08789	28542.1625
471.18916	28377.5625
475.2875	28294.8625
479.38291	28184.2625
483.4754	28025.1625
487.56496	27633.2625
491.6516	27155.8625
495.73531	26667.7625
499.81612	26420.1625
503.89401	26464.5625
507.96899	26584.5625
512.04106	26697.2625
516.11023	26767.2625
520.1765	26723.1625
524.23987	26492.3625
528.30034	26263.0625
532.35792	25954.5625
536.41261	25640.1625
540.46441	25392.6625
544.51333	25374.1625
548.55936	25731.0625
552.60252	26384.5625
556.64279	27104.2625
560.6802	27532.9625
564.71473	27891.2625
568.7464	28484.6625
572.7752	29293.8625
576.80114	29787.4625
580.82422	30030.0625
584.84444	30105.5625
588.86181	29984.2625
592.87633	29753.3625
596.888	29558.2625
600.89682	29645.5625
604.9028	30676.7625
608.90594	33964.7625
612.90624	38175.8625
616.90371	36324.1625
620.89834	29295.0625
624.89015	25954.6625
628.87913	25463.4625
632.86528	25768.5625
636.84862	26114.5625
640.82913	25864.2625
644.80683	25230.3625
648.78172	24719.3625
652.75379	24556.0625
656.72306	24902.1625
660.68952	25434.6625
664.65319	25282.2625
668.61405	24748.2625
672.57211	24488.6625
676.52738	24535.8625
680.47986	24589.3625
684.42955	24479.4625
688.37646	24370.3625
692.32058	24367.5625
696.26192	24519.0625
700.20048	24752.5625
704.13626	24996.3625
708.06928	25146.7625
711.99952	25093.1625
715.927	24989.0625
719.85171	24961.8625
723.77365	24827.6625
727.69284	24583.8625
731.60928	24308.6625
735.52295	24108.7625
739.43388	24129.8625
743.34206	24107.5625
747.24749	24206.5625
751.15017	24439.1625
755.05012	24855.0625
758.94733	25670.3625
762.8418	27368.4625
766.73354	30185.9625
770.62254	32927.9625
774.50882	33787.9625
778.39237	32140.4625
782.27321	29241.0625
786.15132	26687.7625
790.02671	25116.5625
793.89938	24364.7625
797.76935	23978.7625
801.6366	23793.0625
805.50115	23677.3625
809.36299	23553.6625
813.22213	23492.1625
817.07857	23562.0625
820.93231	23588.7625
824.78336	23524.7625
828.63172	23474.4625
832.47738	23476.0625
836.32036	23363.6625
840.16066	23303.1625
843.99827	23202.5625
847.8332	23172.2625
851.66546	23214.3625
855.49504	23185.0625
859.32195	23210.3625
863.1462	23122.7625
866.96777	23066.6625
870.78668	23009.6625
874.60293	23060.9625
878.41652	23051.5625
882.22745	23158.4625
886.03573	23186.2625
889.84136	23198.6625
893.64433	23133.6625
897.44466	23112.5625
901.24235	23081.2625
905.0374	22993.1625
908.8298	22960.2625
912.61957	23038.0625
916.40671	23290.4625
920.19121	23573.1625
923.97308	23746.5625
927.75233	23672.4625
931.52895	23519.5625
935.30295	23177.2625
939.07433	22716.1625
942.84309	22327.1625
946.60924	22064.7625
950.37278	21869.2625
954.13371	21864.0625
957.89203	21819.1625
961.64774	21785.5625
965.40086	21781.4625
969.15137	21679.6625
972.89929	21588.6625
976.64461	21478.4625
980.38733	21412.0625
984.12747	21452.7625
987.86502	21505.9625
991.59999	21551.7625
995.33237	21613.6625
999.06217	21785.2625
1002.78939	22008.7625
1006.51404	22253.9625
1010.23611	22533.9625
1013.95561	22719.5625
1017.67255	22778.3625
1021.38692	22664.4625
1025.09872	22466.7625
1028.80796	22253.6625
1032.51465	22183.6625
1036.21877	22236.4625
1039.92035	22389.5625
1043.61937	22583.2625
1047.31584	22726.9625
1051.00976	22860.4625
1054.70114	22974.3625
1058.38998	23124.5625
1062.07627	23487.8625
1065.76003	23816.9625
1069.44126	24066.3625
1073.11995	24299.1625
1076.79611	24571.4625
1080.46974	24682.0625
1084.14085	24796.8625
1087.80943	25018.7625
1091.47549	25292.2625
1095.13903	25410.3625
1098.80005	25164.9625
1102.45857	24557.7625
1106.11456	23951.1625
1109.76805	23674.7625
1113.41903	23651.3625
1117.06751	23981.7625
1120.71348	24418.9625
1124.35696	24992.1625
1127.99793	25615.9625
1131.63641	25758.0625
1135.2724	25270.4625
1138.90589	24742.0625
1142.5369	24533.1625
1146.16542	24497.8625
1149.79145	24625.9625
1153.415	24874.7625
1157.03607	25243.1625
1160.65467	25804.3625
1164.27079	26721.3625
1167.88443	27909.1625
1171.49561	29508.7625
1175.10432	31696.1625
1178.71056	34446.1625
1182.31434	36876.4625
1185.91565	37912.4625
1189.51451	37931.7625
1193.11091	37042.9625
1196.70485	35615.5625
1200.29634	34091.3625
1203.88538	32824.4625
1207.47197	31648.9625
1211.05612	30746.0625
1214.63782	29965.3625
1218.21708	29159.0625
1221.79391	28345.9625
1225.36829	27751.4625
1228.94024	27381.7625
1232.50976	27182.5625
1236.07685	27067.9625
1239.6415	27032.9625
1243.20374	27158.0625
1246.76355	27356.2625
1250.32093	27647.0625
1253.8759	28061.5625
1257.42845	28669.5625
1260.97859	29427.5625
1264.52631	30226.8625
1268.07163	30931.6625
1271.61453	31593.6625
1275.15503	32241.6625
1278.69312	32905.1625
1282.22882	33584.6625
1285.76211	34516.3625
1289.29301	35877.3625
1292.82151	37469.1625
1296.34761	39274.9625
1299.87133	41224.7625
1303.39266	43372.1625
1306.9116	45679.3625
1310.42815	47892.8625
1313.94233	49038.1625
1317.45412	48673.4625
1320.96354	47618.3625
1324.47058	46558.6625
1327.97525	45476.8625
1331.47754	44761.5625
1334.97747	44449.1625
1338.47502	44560.7625
1341.97022	44965.5625
1345.46305	45708.7625
1348.95352	46522.3625
1352.44163	47179.4625
1355.92738	48333.0625
1359.41078	50637.1625
1362.89183	53217.3625
1366.37053	52092.6625
1369.84688	46764.9625
1373.32088	41067.5625
1376.79254	37428.5625
1380.26186	35867.0625
1383.72883	35383.1625
1387.19347	35215.4625
1390.65578	34829.7625
1394.11575	34404.4625
1397.57339	33969.6625
1401.0287	33692.4625
1404.48168	33328.8625
1407.93234	32856.8625
1411.38068	32039.6625
1414.82669	31009.9625
1418.27039	29904.6625
1421.71177	28917.0625
1425.15083	28063.1625
1428.58758	27530.9625
1432.02203	27535.2625
1435.45416	27962.0625
1438.88399	28547.6625
1442.31151	29033.1625
1445.73673	29452.0625
1449.15965	29994.2625
1452.58027	30482.8625
1455.9986	30806.6625
1459.41463	31095.2625
1462.82837	31444.0625
1466.23982	31864.3625
1469.64898	32358.3625
1473.05586	32652.5625
1476.46045	32733.5625
1479.86276	32774.5625
1483.26279	32891.5625
1486.66054	33145.8625
1490.05602	33668.1625
1493.44922	34702.8625
1496.84016	36379.8625
1500.22882	39010.4625
1503.61521	42435.9625
1506.99934	46073.0625
1510.38121	48911.1625
1513.76081	49480.9625
1517.13816	47354.8625
1520.51324	44013.6625
1523.88607	41040.1625
1527.25665	39212.9625
1530.62498	38157.3625
1533.99105	37373.0625
1537.35488	36504.9625
1540.71647	35481.4625
1544.07581	34383.6625
1547.4329	33353.8625
1550.78776	32649.1625
1554.14038	32225.6625
1557.49077	32112.0625
1560.83892	32250.5625
1564.18484	32721.5625
1567.52853	33423.2625
1570.86999	34078.0625
1574.20922	34723.0625
1577.54624	35155.6625
1580.88103	34660.6625
1584.2136	33739.5625
1587.54395	33220.4625
1590.87208	33372.3625
1594.19801	34226.8625
1597.52172	35300.1625
1600.84321	35452.8625
1604.16251	34206.6625
1607.47959	32407.4625
1610.79447	30495.0625
1614.10715	28586.4625
1617.41763	26822.5625
1620.7259	25511.7625
1624.03199	24763.5625
1627.33587	24582.5625
1630.63757	24946.7625
1633.93707	25970.2625
1637.23439	27889.6625
1640.52951	30810.3625
1643.82246	34763.9625
1647.11321	38813.1625
1650.40179	41250.6625
1653.68819	40266.2625
1656.97241	36085.5625
1660.25446	31037.0625
1663.53433	26905.3625
1666.81203	24027.2625
1670.08756	22191.0625
1673.36092	21074.8625
1676.63211	20318.8625
1679.90115	19843.2625
1683.16801	19449.7625
1686.43272	19181.2625
1689.69527	18931.8625
1692.95567	18806.8625
1696.2139	18695.0625
1699.46999	18606.2625
1702.72392	18524.5625
1705.97571	18459.9625
1709.22535	18397.9625
1712.47284	18329.1625
1715.71819	18276.4625
1718.96139	18276.6625
1722.20246	18160.8625
1725.44139	18070.5625
1728.67818	17985.5625
1731.91284	17855.6625
1735.14537	17747.4625
1738.37576	17685.1625
1741.60403	17622.1625
1744.83017	17503.5625
1748.05418	17469.9625
1751.27607	17474.6625
1754.49584	17431.0625
1757.71349	17404.3625
1760.92903	17354.0625
1764.14244	17344.9625
1767.35375	17329.8625
1770.56294	17269.9625
1773.77002	17202.2625
1776.97499	17125.1625
1780.17785	17075.4625
1783.37861	17039.4625
1786.57727	16999.2625
1789.77382	16947.5625
1792.96828	16913.5625
1796.16064	16873.8625
1799.3509	16854.8625
1802.53907	16784.2625
1805.72514	16728.2625
1808.90913	16665.5625
1812.09102	16614.9625
1815.27083	16563.0625
1818.44856	16536.3625
1821.6242	16474.4625
1824.79776	16439.9625
1827.96924	16427.8625
1831.13864	16380.2625
1834.30597	16375.9625
1837.47122	16342.3625
1840.6344	16312.5625
1843.7955	16290.3625
1846.95454	16280.5625
1850.11151	16262.6625
1853.26642	16213.5625
1856.41926	16174.0625
1859.57004	16185.2625
1862.71876	16169.6625
1865.86542	16103.4625
1869.01003	16101.4625
1872.15258	16074.8625
1875.29308	16067.5625
1878.43152	16023.1625
1881.56792	16002.3625
1884.70227	15968.8625
1887.83457	15961.6625
1890.96482	15915.4625
1894.09304	15861.0625
1897.21921	15824.3625
1900.34335	15810.6625
1903.46544	15781.0625
1906.58551	15765.8625
1909.70353	15745.1625
1912.81953	15719.3625
1915.93349	15656.6625
1919.04543	15667.6625
1922.15534	15610.2625
1925.26322	15599.2625
1928.36908	15549.9625
1931.47292	15559.0625
1934.57473	15506.5625
1937.67453	15487.2625
1940.77232	15380.0625
1943.86808	15366.6625
1946.96184	15276.9625
1950.05358	15247.4625
1953.14331	15148.8625
1956.23103	15126.2625
1959.31675	15086.8625
1962.40046	15045.4625
1965.48217	14945.3625
1968.56188	14916.9625
1971.63959	14885.4625
1974.7153	14846.4625
1977.78901	14782.8625
1980.86073	14736.4625
1983.93046	14708.4625
1986.99819	14625.5625
1990.06394	14591.7625
1993.1277	14519.9625
1996.18947	14447.2625
1999.24925	14416.3625
2002.30706	14391.5625
2005.36288	14347.1625
2008.41672	14309.9625
2011.46859	14243.4625
2014.51848	14178.1625
2017.56639	14113.6625
2020.61233	14107.0625
2023.6563	14039.9625
2026.6983	13971.7625
2029.73833	13935.2625
2032.7764	13898.6625
2035.8125	13874.2625
2038.84664	13821.9625
2041.87881	13827.1625
2044.90903	13774.1625
2047.93729	13746.6625
2050.96359	13733.2625
2053.98794	13706.6625
2057.01034	13684.9625
2060.03078	13677.1625
2063.04927	13646.7625
2066.06582	13604.9625
2069.08042	13628.6625
2072.09307	13590.7625
2075.10378	13583.0625
2078.11255	13607.6625
2081.11938	13598.7625
2084.12426	13580.2625
2087.12722	13555.4625
2090.12824	13537.2625
2093.12732	13550.4625
2096.12447	13512.3625
2099.11969	13513.8625
2102.11299	13480.4625
2105.10435	13507.5625
2108.09379	13489.4625
2111.08131	13514.8625
2114.0669	13526.1625
2117.05057	13535.5625
2120.03233	13543.3625
2123.01216	13528.4625
2125.99008	13563.9625
2128.96609	13557.7625
2131.94018	13557.6625
2134.91236	13546.0625
2137.88263	13566.3625
2140.851	13550.7625
2143.81746	13566.6625
2146.78201	13525.8625
2149.74466	13542.8625
2152.7054	13514.6625
2155.66425	13499.0625
2158.6212	13467.8625
2161.57625	13482.7625
2164.52941	13459.1625
2167.48067	13460.0625
2170.43004	13442.8625
2173.37752	13426.3625
2176.32311	13441.6625
2179.26681	13438.8625
2182.20863	13443.1625
2185.14856	13431.2625
2188.08661	13423.8625
2191.02278	13404.2625
2193.95707	13384.5625
2196.88948	13329.5625
2199.82001	13316.5625
2202.74867	13290.4625
2205.67545	13272.6625
2208.60037	13248.4625
2211.52341	13213.0625
2214.44458	13189.3625
2217.36388	13153.3625
2220.28132	13142.0625
2223.1969	13073.9625
2226.11061	13064.5625
2229.02246	13069.7625
2231.93245	13042.9625
2234.84058	12984.6625
2237.74686	12951.7625
2240.65128	12950.9625
2243.55385	12917.4625
2246.45456	12948.1625
2249.35343	12900.3625
2252.25044	12868.8625
2255.14561	12857.8625
2258.03893	12809.6625
2260.93041	12775.0625
2263.82004	12755.6625
2266.70783	12713.1625
2269.59378	12689.3625
2272.4779	12668.1625
2275.36017	12605.4625
2278.24061	12594.7625
2281.11922	12554.5625
2283.996	12564.7625
2286.87094	12528.1625
2289.74405	12473.1625
2292.61534	12461.8625
2295.4848	12436.7625
2298.35243	12432.2625
2301.21824	12435.1625
2304.08223	12436.7625
2306.94439	12436.3625
2309.80474	12386.8625
2312.66327	12381.4625
2315.51999	12364.9625
2318.37489	12351.5625
2321.22797	12315.2625
2324.07925	12274.7625
2326.92871	12284.8625
2329.77637	12267.0625
2332.62222	12225.0625
2335.46626	12255.7625
2338.3085	12202.5625
2341.14893	12186.3625
2343.98756	12201.2625
2346.8244	12159.3625
2349.65943	12146.8625
2352.49267	12159.4625
2355.32411	12174.0625
2358.15376	12158.0625
2360.98161	12147.8625
2363.80768	12161.6625
2366.63195	12168.6625
2369.45444	12185.4625
2372.27514	12162.3625
2375.09405	12093.3625
2377.91118	12088.5625
2380.72652	12060.6625
2383.54009	12032.9625
2386.35187	12004.0625
2389.16188	11942.1625
2391.97011	11885.6625
2394.77657	11848.8625
2397.58125	11813.5625
2400.38416	11807.5625
2403.18529	11780.7625
2405.98466	11776.5625
2408.78226	11742.6625
2411.57809	11741.9625
2414.37216	11754.3625
2417.16446	11720.2625
2419.955	11689.2625
2422.74378	11697.3625
2425.5308	11682.1625
2428.31606	11663.8625
2431.09956	11649.7625
2433.88131	11647.7625
2436.6613	11635.7625
2439.43954	11645.6625
2442.21603	11632.0625
2444.99077	11575.5625
2447.76377	11596.1625
2450.53501	11584.4625
2453.30451	11556.9625
2456.07226	11561.6625
2458.83827	11524.3625
2461.60254	11529.5625
2464.36507	11519.1625
2467.12586	11512.8625
2469.88492	11515.1625
2472.64224	11488.9625
2475.39782	11476.3625
2478.15167	11495.8625
2480.90379	11465.9625
2483.65417	11479.6625
2486.40283	11481.4625
2489.14976	11492.7625
2491.89497	11460.1625
2494.63845	11527.5625
2497.3802	11513.5625
2500.12024	11500.6625
2502.85855	11443.1625
2505.59514	11449.3625
2508.33002	11413.6625
2511.06318	11387.9625
2513.79462	11365.4625
2516.52435	11331.0625
2519.25237	11306.0625
2521.97867	11284.7625
2524.70327	11249.2625
2527.42616	11214.5625
2530.14734	11201.1625
2532.86681	11230.2625
2535.58458	11220.8625
2538.30065	11207.7625
2541.01501	11171.7625
2543.72768	11158.6625
2546.43864	11135.3625
2549.14791	11133.2625
2551.85548	11114.9625
2554.56136	11089.6625
2557.26554	11073.7625
2559.96803	11029.4625
2562.66883	11025.6625
2565.36794	11008.9625
2568.06536	10996.9625
2570.7611	10988.4625
2573.45514	10938.5625
2576.14751	10936.4625
2578.83819	10875.6625
2581.52719	10897.4625
2584.21451	10878.6625
2586.90015	10871.2625
2589.58411	10868.5625
2592.2664	10842.0625
2594.94701	10806.1625
2597.62594	10791.5625
2600.30321	10768.9625
2602.9788	10752.7625
2605.65273	10736.7625
2608.32498	10744.2625
2610.99557	10723.9625
2613.66449	10720.3625
2616.33175	10711.8625
2618.99734	10688.4625
2621.66128	10684.2625
2624.32355	10664.0625
2626.98416	10637.3625
2629.64311	10629.9625
2632.30041	10622.4625
2634.95605	10602.9625
2637.61004	10574.2625
2640.26238	10570.7625
2642.91306	10538.5625
2645.56209	10537.2625
2648.20948	10555.7625
2650.85521	10544.9625
2653.4993	10529.1625
2656.14175	10540.5625
2658.78255	10560.4625
2661.42171	10540.4625
2664.05923	10546.9625
2666.6951	10536.0625
2669.32934	10552.0625
2671.96194	10563.6625
2674.59291	10543.3625
2677.22224	10522.4625
2679.84993	10517.9625
2682.476	10503.6625
2685.10043	10501.1625
2687.72324	10491.3625
2690.34441	10497.1625
2692.96396	10485.5625
2695.58188	10487.6625
2698.19818	10482.3625
2700.81285	10501.6625
2703.4259	10484.7625
2706.03733	10487.3625
2708.64714	10489.7625
2711.25533	10477.1625
2713.86191	10481.7625
2716.46687	10502.3625
2719.07021	10495.8625
2721.67194	10520.8625
2724.27206	10494.6625
2726.87057	10501.6625
2729.46747	10499.9625
2732.06276	10496.2625
2734.65644	10480.6625
2737.24852	10458.8625
2739.83899	10449.5625
2742.42786	10444.0625
2745.01513	10411.8625
2747.60079	10420.2625
2750.18486	10399.6625
2752.76733	10380.7625
2755.3482	10354.6625
2757.92747	10329.2625
2760.50515	10326.3625
2763.08123	10341.2625
2765.65573	10308.3625
2768.22863	10303.1625
2770.79994	10281.9625
2773.36967	10263.0625
2775.9378	10267.4625
2778.50435	10241.7625
2781.06932	10232.8625
2783.6327	10233.6625
2786.1945	10199.1625
2788.75471	10209.4625
2791.31335	10185.0625
2793.87041	10199.8625
2796.42589	10182.8625
2798.97979	10211.0625
2801.53212	10131.4625
2804.08288	10117.4625
2806.63206	10087.2625
2809.17967	10095.5625
2811.72571	10079.6625
2814.27018	10082.8625
2816.81308	10021.6625
2819.35442	10004.4625
2821.89419	9981.0625
2824.43239	9991.6625
2826.96904	9990.7625
2829.50412	9984.0625
2832.03763	9949.3625
2834.56959	9946.1625
2837.1	9953.4625
2839.62884	9995.6625
2842.15613	9992.1625
2844.68186	10053.7625
2847.20604	10083.7625
2849.72867	10080.3625
2852.24974	10114.9625
2854.76927	10078.6625
2857.28724	10062.9625
2859.80367	10035.0625
2862.31855	10001.1625
2864.83189	10002.4625
2867.34368	9978.7625
2869.85393	9987.5625
2872.36264	9974.0625
2874.8698	9998.8625
2877.37543	9973.5625
2879.87952	9968.9625
2882.38207	9964.9625
2884.88308	9922.1625
2887.38256	9901.6625
2889.88051	9889.3625
2892.37692	9891.1625
2894.8718	9910.4625
2897.36515	9909.3625
2899.85698	9908.9625
2902.34727	9900.8625
2904.83604	9915.4625
2907.32328	9932.3625
2909.809	9925.1625
2912.29319	9947.9625
2914.77587	9924.2625
2917.25702	9914.9625
2919.73665	9912.5625
2922.21476	9915.6625
2924.69136	9928.6625
2927.16644	9907.2625
2929.64	9904.0625
2932.11205	9872.3625
2934.58258	9852.4625
2937.05161	9840.0625
2939.51912	9824.4625
2941.98513	9776.5625
2944.44962	9752.1625
2946.91261	9719.3625
2949.37409	9711.7625
2951.83407	9681.3625
2954.29254	9666.8625
2956.74951	9649.8625
2959.20498	9655.0625
2961.65895	9607.3625
2964.11142	9612.2625
2966.56239	9591.2625
2969.01186	9595.2625
2971.45984	9570.5625
2973.90632	9575.8625
2976.35131	9518.7625
2978.7948	9504.0625
2981.23681	9496.5625
2983.67732	9443.9625
2986.11635	9439.5625
2988.55388	9415.6625
2990.98993	9382.7625
2993.4245	9348.4625
2995.85758	9326.9625
2998.28917	9309.0625
3000.71928	9303.7625
3003.14791	9287.8625
3005.57506	9265.0625
3008.00073	9246.1625
3010.42493	9201.9625
3012.84764	9203.4625
3015.26888	9195.5625
3017.68865	9148.3625
3020.10694	9120.4625
3022.52376	9117.9625
3024.9391	9108.7625
3027.35298	9091.6625
3029.76539	9103.5625
3032.17632	9061.8625
3034.5858	9037.8625
3036.9938	9046.5625
3039.40034	9026.0625
3041.80542	9021.7625
3044.20903	8979.3625
3046.61118	8994.8625
3049.01187	8969.1625
3051.4111	8989.7625
3053.80888	8943.0625
3056.20519	8940.5625
3058.60005	8899.3625
3060.99345	8873.3625
3063.3854	8871.0625
3065.7759	8858.3625
3068.16494	8798.3625
3070.55254	8769.8625
3072.93868	8746.5625
3075.32338	8731.4625
3077.70662	8701.9625
3080.08842	8676.0625
3082.46878	8671.3625
3084.84769	8641.1625
3087.22515	8674.3625
3089.60118	8647.2625
3091.97576	8629.2625
3094.3489	8625.8625
3096.72061	8656.5625
3099.09087	8640.6625
3101.4597	8637.5625
3103.82709	8617.2625
3106.19305	8592.8625
3108.55757	8604.8625
3110.92066	8565.8625
3113.28232	8551.2625
3115.64255	8529.9625
3118.00134	8496.4625
3120.35871	8500.2625
3122.71466	8498.5625
3125.06917	8477.2625
3127.42226	8463.7625
3129.77393	8452.2625
3132.12417	8421.7625
3134.47299	8425.4625
3136.82039	8429.0625
3139.16636	8430.7625
3141.51092	8441.2625
3143.85406	8411.1625
3146.19579	8435.9625
3148.53609	8409.4625
3150.87499	8406.7625
3153.21246	8422.4625
3155.54853	8459.5625
3157.88318	8451.2625
3160.21642	8462.5625
3162.54826	8457.3625
3164.87868	8435.7625
3167.2077	8437.9625
3169.5353	8444.6625
3171.86151	8446.5625
3174.18631	8444.2625
3176.5097	8456.4625
3178.83169	8411.4625
3181.15228	8414.2625
3183.47147	8390.8625
3185.78926	8386.2625
3188.10565	8335.0625
3190.42065	8350.2625
3192.73424	8348.4625
3195.04645	8323.2625
3197.35725	8327.3625
3199.66667	8318.4625
3201.97469	8312.8625
3204.28132	8311.4625
3206.58656	8351.1625
3208.8904	8337.2625
3211.19287	8341.9625
3213.49394	8349.3625
3215.79363	8343.4625
3218.09193	8360.5625
3220.38884	8327.9625
3222.68438	8325.6625
3224.97853	8311.4625
3227.2713	8322.1625
3229.56269	8307.3625
3231.8527	8310.1625
3234.14133	8258.2625
3236.42858	8237.1625
3238.71446	8248.7625
3240.99896	8201.7625
3243.28209	8207.6625
3245.56384	8220.1625
3247.84423	8216.4625
3250.12324	8192.0625
3252.40088	8176.7625
3254.67715	8166.9625
3256.95205	8152.3625
3259.22558	8134.8625
3261.49775	8116.9625
3263.76855	8103.9625
3266.03799	8074.2625
3268.30606	8072.3625
3270.57277	8082.5625
3272.83812	8053.0625
3275.10211	8026.4625
3277.36474	8051.3625
3279.62601	8045.6625
3281.88593	8000.8625
3284.14448	8030.7625
3286.40168	8030.7625
3288.65753	8000.6625
3290.91202	7999.2625
3293.16516	7982.0625
3295.41695	7949.7625
3297.66738	7910.5625
3299.91647	7864.3625
3302.16421	7800.8625
3304.4106	7765.8625
3306.65564	7721.7625
3308.89933	7696.1625
3311.14169	7640.8625
3313.38269	7560.7625
3315.62236	7519.7625
3317.86068	7448.6625
3320.09766	7377.8625
3322.3333	7337.5625
3324.5676	7297.0625
3326.80056	7187.0625
3329.03219	7152.3625
3331.26248	3.3625
3333.49143	0.1625
3335.71905	-0.5375
