Data from AuAgCoreShell_UA_100uM_CRN_0uM_R6G_10uM_Scan_RamanShift__17__14-29-09-785.txt Node

Date: Thu Jun 23 14:29:09 BST 2022
User: TCL
Spectrometer: QEP01345
Trigger mode: 4
Integration Time (sec): 7.000000E0
Scans to average: 10
Electric dark correction enabled: true
Nonlinearity correction enabled: false
Boxcar width: 0
XAxis mode: Raman Shifts
Number of Pixels in Spectrum: 1044
>>>>>Begin Spectral Data<<<<<
46.04893	-1.1375
50.45542	0.1625
54.85868	0.5625
59.25871	-0.5375
63.6555	34.9625
68.04907	35.7625
72.43941	36.8625
76.82654	40.9625
81.21044	45.0625
85.59113	48.6625
89.96862	54.2625
94.34289	52.9625
98.71396	56.0625
103.08183	55.0625
107.4465	57.4625
111.80798	56.0625
116.16626	55.5625
120.52136	56.6625
124.87327	59.8625
129.222	58.6625
133.56755	56.3625
137.90993	52.8625
142.24913	52.2625
146.58517	51.0625
150.91804	51.5625
155.24774	52.5625
159.57429	53.2625
163.89768	58.9625
168.21792	64.7625
172.53501	70.4625
176.84895	80.3625
181.15975	97.3625
185.46741	124.2625
189.77193	159.5625
194.07331	196.8625
198.37157	246.1625
202.6667	293.6625
206.9587	345.5625
211.24758	398.0625
215.53334	448.2625
219.81599	492.6625
224.09553	546.3625
228.37195	606.9625
232.64527	674.1625
236.91549	746.1625
241.18261	806.3625
245.44663	879.1625
249.70755	937.2625
253.96539	1001.0625
258.22014	1038.5625
262.4718	1079.5625
266.72039	1094.4625
270.96589	1101.9625
275.20832	1095.0625
279.44768	1081.2625
283.68397	1061.9625
287.91719	1044.3625
292.14735	1014.9625
296.37445	1013.1625
300.59849	1000.5625
304.81948	990.6625
309.03742	988.3625
313.25231	988.2625
317.46415	975.3625
321.67296	975.5625
325.87872	969.3625
330.08145	971.3625
334.28114	977.1625
338.47781	987.4625
342.67145	992.3625
346.86207	1014.6625
351.04966	1026.3625
355.23424	1044.3625
359.4158	1053.0625
363.59435	1074.8625
367.76989	1067.7625
371.94243	1086.3625
376.11196	1093.6625
380.27849	1104.4625
384.44203	1114.3625
388.60257	1115.2625
392.76012	1137.2625
396.91468	1135.7625
401.06626	1145.5625
405.21485	1157.5625
409.36047	1163.2625
413.50311	1168.2625
417.64277	1155.0625
421.77947	1152.2625
425.9132	1169.9625
430.04396	1168.2625
434.17176	1180.2625
438.2966	1190.2625
442.41849	1189.2625
446.53742	1196.9625
450.6534	1202.3625
454.76644	1212.5625
458.87653	1218.6625
462.98368	1227.9625
467.08789	1231.9625
471.18916	1227.7625
475.2875	1230.0625
479.38291	1220.0625
483.4754	1230.9625
487.56496	1245.7625
491.6516	1247.0625
495.73531	1266.8625
499.81612	1250.2625
503.89401	1248.7625
507.96899	1241.7625
512.04106	1243.7625
516.11023	1242.4625
520.1765	1238.4625
524.23987	1227.7625
528.30034	1228.8625
532.35792	1231.8625
536.41261	1229.7625
540.46441	1218.0625
544.51333	1213.8625
548.55936	1207.3625
552.60252	1210.2625
556.64279	1215.8625
560.6802	1211.0625
564.71473	1214.2625
568.7464	1209.8625
572.7752	1218.2625
576.80114	1212.4625
580.82422	1211.9625
584.84444	1232.7625
588.86181	1239.4625
592.87633	1235.1625
596.888	1245.3625
600.89682	1251.1625
604.9028	1277.7625
608.90594	1336.8625
612.90624	1399.8625
616.90371	1401.8625
620.89834	1325.7625
624.89015	1316.8625
628.87913	1318.2625
632.86528	1327.0625
636.84862	1353.8625
640.82913	1338.5625
644.80683	1322.6625
648.78172	1296.0625
652.75379	1278.0625
656.72306	1276.8625
660.68952	1273.9625
664.65319	1266.9625
668.61405	1265.4625
672.57211	1274.5625
676.52738	1269.9625
680.47986	1282.5625
684.42955	1304.0625
688.37646	1312.4625
692.32058	1314.6625
696.26192	1299.0625
700.20048	1281.0625
704.13626	1269.0625
708.06928	1279.2625
711.99952	1273.8625
715.927	1267.8625
719.85171	1268.1625
723.77365	1261.1625
727.69284	1259.9625
731.60928	1267.1625
735.52295	1262.0625
739.43388	1248.1625
743.34206	1253.1625
747.24749	1248.5625
751.15017	1246.8625
755.05012	1246.6625
758.94733	1254.8625
762.8418	1259.3625
766.73354	1294.9625
770.62254	1314.9625
774.50882	1335.4625
778.39237	1320.2625
782.27321	1299.7625
786.15132	1276.5625
790.02671	1272.0625
793.89938	1256.0625
797.76935	1258.3625
801.6366	1267.0625
805.50115	1276.8625
809.36299	1286.1625
813.22213	1282.1625
817.07857	1281.5625
820.93231	1261.7625
824.78336	1254.7625
828.63172	1236.7625
832.47738	1234.3625
836.32036	1236.8625
840.16066	1235.8625
843.99827	1235.7625
847.8332	1234.9625
851.66546	1233.7625
855.49504	1224.1625
859.32195	1226.2625
863.1462	1222.5625
866.96777	1212.5625
870.78668	1233.7625
874.60293	1233.7625
878.41652	1237.9625
882.22745	1240.1625
886.03573	1272.6625
889.84136	1262.8625
893.64433	1261.3625
897.44466	1246.2625
901.24235	1244.7625
905.0374	1236.9625
908.8298	1240.0625
912.61957	1241.2625
916.40671	1242.5625
920.19121	1244.0625
923.97308	1258.2625
927.75233	1257.3625
931.52895	1253.6625
935.30295	1241.4625
939.07433	1239.4625
942.84309	1211.3625
946.60924	1213.9625
950.37278	1201.6625
954.13371	1197.1625
957.89203	1174.4625
961.64774	1177.0625
965.40086	1163.4625
969.15137	1164.1625
972.89929	1146.3625
976.64461	1147.2625
980.38733	1140.9625
984.12747	1135.5625
987.86502	1132.7625
991.59999	1132.3625
995.33237	1128.8625
999.06217	1137.2625
1002.78939	1148.5625
1006.51404	1153.6625
1010.23611	1163.4625
1013.95561	1164.8625
1017.67255	1168.3625
1021.38692	1177.3625
1025.09872	1171.6625
1028.80796	1151.4625
1032.51465	1145.9625
1036.21877	1154.8625
1039.92035	1135.7625
1043.61937	1136.1625
1047.31584	1133.6625
1051.00976	1128.3625
1054.70114	1129.4625
1058.38998	1133.1625
1062.07627	1132.2625
1065.76003	1137.1625
1069.44126	1147.5625
1073.11995	1147.4625
1076.79611	1156.7625
1080.46974	1146.7625
1084.14085	1145.1625
1087.80943	1130.7625
1091.47549	1138.5625
1095.13903	1112.9625
1098.80005	1096.9625
1102.45857	1103.8625
1106.11456	1095.7625
1109.76805	1095.6625
1113.41903	1099.3625
1117.06751	1108.5625
1120.71348	1124.2625
1124.35696	1139.4625
1127.99793	1172.8625
1131.63641	1202.6625
1135.2724	1214.3625
1138.90589	1196.6625
1142.5369	1186.5625
1146.16542	1152.3625
1149.79145	1125.6625
1153.415	1107.7625
1157.03607	1097.9625
1160.65467	1086.9625
1164.27079	1077.7625
1167.88443	1086.1625
1171.49561	1104.4625
1175.10432	1117.0625
1178.71056	1147.6625
1182.31434	1161.6625
1185.91565	1169.7625
1189.51451	1158.7625
1193.11091	1148.7625
1196.70485	1145.1625
1200.29634	1140.8625
1203.88538	1132.9625
1207.47197	1131.8625
1211.05612	1108.2625
1214.63782	1092.4625
1218.21708	1080.3625
1221.79391	1081.5625
1225.36829	1071.4625
1228.94024	1069.9625
1232.50976	1068.2625
1236.07685	1070.3625
1239.6415	1068.8625
1243.20374	1069.2625
1246.76355	1074.2625
1250.32093	1078.9625
1253.8759	1076.2625
1257.42845	1086.8625
1260.97859	1081.4625
1264.52631	1092.8625
1268.07163	1094.1625
1271.61453	1100.3625
1275.15503	1107.4625
1278.69312	1102.7625
1282.22882	1100.7625
1285.76211	1096.8625
1289.29301	1106.7625
1292.82151	1116.9625
1296.34761	1130.6625
1299.87133	1142.5625
1303.39266	1175.8625
1306.9116	1189.6625
1310.42815	1228.2625
1313.94233	1237.1625
1317.45412	1230.3625
1320.96354	1204.9625
1324.47058	1178.9625
1327.97525	1163.3625
1331.47754	1143.8625
1334.97747	1138.4625
1338.47502	1159.4625
1341.97022	1167.3625
1345.46305	1188.5625
1348.95352	1217.5625
1352.44163	1252.6625
1355.92738	1293.9625
1359.41078	1352.9625
1362.89183	1420.7625
1366.37053	1420.3625
1369.84688	1355.5625
1373.32088	1281.9625
1376.79254	1242.3625
1380.26186	1206.5625
1383.72883	1183.7625
1387.19347	1162.8625
1390.65578	1142.2625
1394.11575	1143.6625
1397.57339	1127.3625
1401.0287	1110.5625
1404.48168	1097.4625
1407.93234	1092.6625
1411.38068	1077.1625
1414.82669	1072.5625
1418.27039	1053.6625
1421.71177	1052.2625
1425.15083	1030.4625
1428.58758	1017.4625
1432.02203	1012.4625
1435.45416	999.4625
1438.88399	996.2625
1442.31151	984.8625
1445.73673	978.0625
1449.15965	979.7625
1452.58027	967.4625
1455.9986	968.8625
1459.41463	974.5625
1462.82837	972.1625
1466.23982	972.8625
1469.64898	972.7625
1473.05586	971.5625
1476.46045	978.4625
1479.86276	981.2625
1483.26279	978.6625
1486.66054	991.7625
1490.05602	994.7625
1493.44922	999.2625
1496.84016	1012.1625
1500.22882	1036.6625
1503.61521	1069.2625
1506.99934	1108.3625
1510.38121	1150.5625
1513.76081	1157.0625
1517.13816	1138.0625
1520.51324	1082.7625
1523.88607	1037.3625
1527.25665	998.4625
1530.62498	989.8625
1533.99105	979.7625
1537.35488	977.6625
1540.71647	972.1625
1544.07581	978.1625
1547.4329	979.6625
1550.78776	988.4625
1554.14038	988.3625
1557.49077	988.8625
1560.83892	1001.4625
1564.18484	1001.3625
1567.52853	1010.4625
1570.86999	1022.2625
1574.20922	1031.3625
1577.54624	1030.3625
1580.88103	1029.6625
1584.2136	1013.5625
1587.54395	986.5625
1590.87208	964.8625
1594.19801	953.1625
1597.52172	946.7625
1600.84321	945.2625
1604.16251	942.4625
1607.47959	927.5625
1610.79447	929.8625
1614.10715	913.4625
1617.41763	902.8625
1620.7259	904.6625
1624.03199	898.0625
1627.33587	901.8625
1630.63757	897.4625
1633.93707	900.1625
1637.23439	899.0625
1640.52951	913.8625
1643.82246	924.7625
1647.11321	953.3625
1650.40179	970.6625
1653.68819	955.2625
1656.97241	935.8625
1660.25446	896.9625
1663.53433	869.8625
1666.81203	844.6625
1670.08756	836.7625
1673.36092	832.1625
1676.63211	820.3625
1679.90115	805.9625
1683.16801	797.5625
1686.43272	793.5625
1689.69527	798.6625
1692.95567	801.7625
1696.2139	786.2625
1699.46999	787.8625
1702.72392	771.9625
1705.97571	751.9625
1709.22535	742.6625
1712.47284	727.6625
1715.71819	718.5625
1718.96139	710.8625
1722.20246	706.9625
1725.44139	695.6625
1728.67818	685.7625
1731.91284	669.8625
1735.14537	667.7625
1738.37576	658.8625
1741.60403	659.4625
1744.83017	648.2625
1748.05418	647.5625
1751.27607	637.7625
1754.49584	638.5625
1757.71349	636.5625
1760.92903	640.0625
1764.14244	635.4625
1767.35375	629.7625
1770.56294	623.2625
1773.77002	625.8625
1776.97499	621.1625
1780.17785	617.6625
1783.37861	616.4625
1786.57727	615.4625
1789.77382	614.0625
1792.96828	613.0625
1796.16064	604.5625
1799.3509	604.7625
1802.53907	606.5625
1805.72514	602.1625
1808.90913	596.0625
1812.09102	595.0625
1815.27083	588.6625
1818.44856	584.5625
1821.6242	584.3625
1824.79776	580.2625
1827.96924	582.2625
1831.13864	581.2625
1834.30597	580.8625
1837.47122	574.6625
1840.6344	573.7625
1843.7955	569.2625
1846.95454	572.1625
1850.11151	566.3625
1853.26642	562.7625
1856.41926	563.9625
1859.57004	570.4625
1862.71876	561.9625
1865.86542	557.2625
1869.01003	562.5625
1872.15258	556.0625
1875.29308	554.8625
1878.43152	552.3625
1881.56792	546.6625
1884.70227	547.9625
1887.83457	549.7625
1890.96482	547.9625
1894.09304	541.5625
1897.21921	540.8625
1900.34335	534.9625
1903.46544	534.8625
1906.58551	533.3625
1909.70353	540.8625
1912.81953	539.2625
1915.93349	525.2625
1919.04543	536.6625
1922.15534	530.4625
1925.26322	523.1625
1928.36908	526.4625
1931.47292	527.5625
1934.57473	525.1625
1937.67453	522.3625
1940.77232	520.9625
1943.86808	517.5625
1946.96184	510.2625
1950.05358	505.8625
1953.14331	504.8625
1956.23103	506.0625
1959.31675	500.4625
1962.40046	502.0625
1965.48217	501.4625
1968.56188	500.5625
1971.63959	494.0625
1974.7153	491.8625
1977.78901	495.7625
1980.86073	488.3625
1983.93046	487.1625
1986.99819	487.3625
1990.06394	476.7625
1993.1277	483.7625
1996.18947	473.2625
1999.24925	476.6625
2002.30706	470.8625
2005.36288	474.1625
2008.41672	471.9625
2011.46859	468.6625
2014.51848	469.5625
2017.56639	465.6625
2020.61233	458.6625
2023.6563	463.7625
2026.6983	463.2625
2029.73833	454.3625
2032.7764	463.2625
2035.8125	451.0625
2038.84664	455.7625
2041.87881	453.7625
2044.90903	447.2625
2047.93729	452.1625
2050.96359	452.3625
2053.98794	447.8625
2057.01034	442.7625
2060.03078	442.7625
2063.04927	441.9625
2066.06582	443.5625
2069.08042	448.1625
2072.09307	440.9625
2075.10378	437.7625
2078.11255	439.3625
2081.11938	440.0625
2084.12426	441.6625
2087.12722	439.0625
2090.12824	441.9625
2093.12732	441.5625
2096.12447	441.2625
2099.11969	439.0625
2102.11299	437.6625
2105.10435	436.3625
2108.09379	436.0625
2111.08131	435.8625
2114.0669	436.7625
2117.05057	431.9625
2120.03233	431.7625
2123.01216	430.3625
2125.99008	435.5625
2128.96609	443.1625
2131.94018	435.3625
2134.91236	441.3625
2137.88263	437.1625
2140.851	440.0625
2143.81746	442.8625
2146.78201	443.5625
2149.74466	437.2625
2152.7054	443.7625
2155.66425	442.2625
2158.6212	450.4625
2161.57625	450.2625
2164.52941	454.7625
2167.48067	458.9625
2170.43004	453.2625
2173.37752	459.1625
2176.32311	457.0625
2179.26681	450.8625
2182.20863	452.9625
2185.14856	442.3625
2188.08661	437.7625
2191.02278	439.0625
2193.95707	435.5625
2196.88948	426.2625
2199.82001	421.6625
2202.74867	413.3625
2205.67545	405.5625
2208.60037	410.3625
2211.52341	410.8625
2214.44458	401.5625
2217.36388	395.5625
2220.28132	402.3625
2223.1969	403.0625
2226.11061	396.4625
2229.02246	388.5625
2231.93245	391.4625
2234.84058	396.6625
2237.74686	393.6625
2240.65128	392.5625
2243.55385	389.0625
2246.45456	382.4625
2249.35343	387.3625
2252.25044	382.6625
2255.14561	382.2625
2258.03893	378.0625
2260.93041	384.3625
2263.82004	380.4625
2266.70783	380.1625
2269.59378	379.0625
2272.4779	371.6625
2275.36017	375.8625
2278.24061	367.4625
2281.11922	368.7625
2283.996	372.0625
2286.87094	367.7625
2289.74405	368.0625
2292.61534	362.2625
2295.4848	364.9625
2298.35243	363.4625
2301.21824	363.1625
2304.08223	362.8625
2306.94439	361.3625
2309.80474	363.9625
2312.66327	356.5625
2315.51999	357.6625
2318.37489	355.5625
2321.22797	361.8625
2324.07925	359.9625
2326.92871	352.8625
2329.77637	358.8625
2332.62222	360.3625
2335.46626	355.2625
2338.3085	349.8625
2341.14893	346.3625
2343.98756	350.9625
2346.8244	345.0625
2349.65943	341.6625
2352.49267	347.3625
2355.32411	341.6625
2358.15376	342.3625
2360.98161	340.6625
2363.80768	339.7625
2366.63195	340.9625
2369.45444	339.4625
2372.27514	339.6625
2375.09405	339.8625
2377.91118	338.7625
2380.72652	333.5625
2383.54009	335.3625
2386.35187	334.2625
2389.16188	332.8625
2391.97011	332.0625
2394.77657	327.2625
2397.58125	323.8625
2400.38416	329.9625
2403.18529	323.0625
2405.98466	320.3625
2408.78226	322.3625
2411.57809	323.4625
2414.37216	319.3625
2417.16446	318.3625
2419.955	321.4625
2422.74378	321.1625
2425.5308	318.2625
2428.31606	317.5625
2431.09956	322.4625
2433.88131	314.6625
2436.6613	312.4625
2439.43954	310.7625
2442.21603	314.0625
2444.99077	309.1625
2447.76377	314.5625
2450.53501	309.1625
2453.30451	312.0625
2456.07226	305.8625
2458.83827	309.3625
2461.60254	306.0625
2464.36507	305.7625
2467.12586	307.0625
2469.88492	300.2625
2472.64224	307.6625
2475.39782	300.4625
2478.15167	297.1625
2480.90379	300.9625
2483.65417	303.2625
2486.40283	298.3625
2489.14976	297.4625
2491.89497	297.0625
2494.63845	298.1625
2497.3802	302.6625
2500.12024	298.9625
2502.85855	293.9625
2505.59514	300.4625
2508.33002	299.0625
2511.06318	295.0625
2513.79462	296.0625
2516.52435	290.6625
2519.25237	290.0625
2521.97867	290.4625
2524.70327	289.2625
2527.42616	289.2625
2530.14734	290.3625
2532.86681	285.8625
2535.58458	289.1625
2538.30065	285.4625
2541.01501	282.4625
2543.72768	281.9625
2546.43864	288.6625
2549.14791	278.1625
2551.85548	283.4625
2554.56136	279.7625
2557.26554	284.6625
2559.96803	281.0625
2562.66883	285.9625
2565.36794	277.6625
2568.06536	271.9625
2570.7611	277.1625
2573.45514	272.1625
2576.14751	274.0625
2578.83819	275.2625
2581.52719	270.8625
2584.21451	271.5625
2586.90015	276.9625
2589.58411	268.7625
2592.2664	272.0625
2594.94701	267.6625
2597.62594	266.2625
2600.30321	268.0625
2602.9788	267.2625
2605.65273	268.2625
2608.32498	267.8625
2610.99557	265.0625
2613.66449	263.2625
2616.33175	264.5625
2618.99734	262.2625
2621.66128	260.8625
2624.32355	259.0625
2626.98416	259.8625
2629.64311	263.3625
2632.30041	260.2625
2634.95605	256.8625
2637.61004	261.2625
2640.26238	256.8625
2642.91306	252.3625
2645.56209	254.5625
2648.20948	253.6625
2650.85521	254.2625
2653.4993	252.9625
2656.14175	253.8625
2658.78255	256.2625
2661.42171	249.1625
2664.05923	255.5625
2666.6951	253.5625
2669.32934	250.8625
2671.96194	248.9625
2674.59291	249.1625
2677.22224	251.0625
2679.84993	253.8625
2682.476	254.6625
2685.10043	246.7625
2687.72324	250.9625
2690.34441	251.7625
2692.96396	252.7625
2695.58188	251.8625
2698.19818	245.3625
2700.81285	249.2625
2703.4259	249.9625
2706.03733	250.5625
2708.64714	258.8625
2711.25533	249.9625
2713.86191	250.5625
2716.46687	248.9625
2719.07021	250.0625
2721.67194	247.1625
2724.27206	244.9625
2726.87057	247.6625
2729.46747	249.3625
2732.06276	248.8625
2734.65644	253.7625
2737.24852	251.0625
2739.83899	252.0625
2742.42786	243.9625
2745.01513	248.0625
2747.60079	250.4625
2750.18486	248.0625
2752.76733	248.6625
2755.3482	244.4625
2757.92747	245.4625
2760.50515	248.5625
2763.08123	242.2625
2765.65573	244.5625
2768.22863	245.1625
2770.79994	240.9625
2773.36967	244.7625
2775.9378	242.3625
2778.50435	243.0625
2781.06932	245.4625
2783.6327	237.7625
2786.1945	238.5625
2788.75471	240.6625
2791.31335	242.2625
2793.87041	239.4625
2796.42589	236.9625
2798.97979	237.9625
2801.53212	239.1625
2804.08288	236.6625
2806.63206	236.1625
2809.17967	236.5625
2811.72571	238.6625
2814.27018	235.3625
2816.81308	237.4625
2819.35442	230.8625
2821.89419	232.2625
2824.43239	232.5625
2826.96904	229.3625
2829.50412	234.8625
2832.03763	225.9625
2834.56959	235.5625
2837.1	231.0625
2839.62884	233.5625
2842.15613	236.4625
2844.68186	230.7625
2847.20604	231.7625
2849.72867	231.0625
2852.24974	235.1625
2854.76927	229.0625
2857.28724	231.4625
2859.80367	232.3625
2862.31855	236.5625
2864.83189	230.1625
2867.34368	225.4625
2869.85393	236.5625
2872.36264	233.6625
2874.8698	231.8625
2877.37543	234.0625
2879.87952	231.2625
2882.38207	228.9625
2884.88308	234.4625
2887.38256	233.5625
2889.88051	239.0625
2892.37692	232.3625
2894.8718	236.3625
2897.36515	232.0625
2899.85698	237.3625
2902.34727	240.6625
2904.83604	242.6625
2907.32328	242.0625
2909.809	240.8625
2912.29319	240.0625
2914.77587	245.1625
2917.25702	243.9625
2919.73665	247.8625
2922.21476	243.9625
2924.69136	246.7625
2927.16644	253.9625
2929.64	250.1625
2932.11205	251.8625
2934.58258	245.7625
2937.05161	254.3625
2939.51912	256.3625
2941.98513	252.1625
2944.44962	257.7625
2946.91261	257.2625
2949.37409	254.1625
2951.83407	252.9625
2954.29254	255.6625
2956.74951	251.3625
2959.20498	252.8625
2961.65895	249.3625
2964.11142	249.4625
2966.56239	251.3625
2969.01186	252.9625
2971.45984	252.9625
2973.90632	253.2625
2976.35131	257.1625
2978.7948	253.4625
2981.23681	255.4625
2983.67732	255.6625
2986.11635	259.8625
2988.55388	253.6625
2990.98993	257.1625
2993.4245	260.5625
2995.85758	254.4625
2998.28917	257.6625
3000.71928	258.7625
3003.14791	263.7625
3005.57506	260.5625
3008.00073	268.6625
3010.42493	268.9625
3012.84764	265.7625
3015.26888	267.2625
3017.68865	267.1625
3020.10694	273.7625
3022.52376	276.5625
3024.9391	275.5625
3027.35298	279.3625
3029.76539	281.9625
3032.17632	279.3625
3034.5858	280.8625
3036.9938	283.6625
3039.40034	289.7625
3041.80542	284.8625
3044.20903	290.0625
3046.61118	291.4625
3049.01187	294.6625
3051.4111	294.6625
3053.80888	301.3625
3056.20519	303.8625
3058.60005	306.5625
3060.99345	311.4625
3063.3854	306.4625
3065.7759	313.7625
3068.16494	312.7625
3070.55254	316.6625
3072.93868	325.5625
3075.32338	324.5625
3077.70662	326.3625
3080.08842	332.9625
3082.46878	338.6625
3084.84769	341.7625
3087.22515	341.2625
3089.60118	349.8625
3091.97576	344.7625
3094.3489	356.8625
3096.72061	362.0625
3099.09087	366.6625
3101.4597	372.7625
3103.82709	369.0625
3106.19305	380.1625
3108.55757	383.4625
3110.92066	391.5625
3113.28232	393.6625
3115.64255	395.5625
3118.00134	401.2625
3120.35871	413.3625
3122.71466	408.9625
3125.06917	416.7625
3127.42226	421.9625
3129.77393	427.6625
3132.12417	436.4625
3134.47299	434.6625
3136.82039	441.8625
3139.16636	453.9625
3141.51092	454.5625
3143.85406	463.0625
3146.19579	470.0625
3148.53609	468.1625
3150.87499	482.2625
3153.21246	486.5625
3155.54853	496.6625
3157.88318	496.1625
3160.21642	496.8625
3162.54826	519.7625
3164.87868	516.7625
3167.2077	525.3625
3169.5353	530.9625
3171.86151	543.8625
3174.18631	546.1625
3176.5097	551.5625
3178.83169	557.0625
3181.15228	566.9625
3183.47147	565.7625
3185.78926	570.1625
3188.10565	573.1625
3190.42065	580.2625
3192.73424	582.3625
3195.04645	581.4625
3197.35725	591.1625
3199.66667	594.2625
3201.97469	601.9625
3204.28132	611.6625
3206.58656	613.0625
3208.8904	622.0625
3211.19287	619.2625
3213.49394	624.5625
3215.79363	628.2625
3218.09193	627.4625
3220.38884	630.6625
3222.68438	634.7625
3224.97853	644.6625
3227.2713	649.3625
3229.56269	652.2625
3231.8527	648.4625
3234.14133	646.9625
3236.42858	647.8625
3238.71446	652.4625
3240.99896	653.6625
3243.28209	654.4625
3245.56384	654.8625
3247.84423	654.5625
3250.12324	656.6625
3252.40088	657.9625
3254.67715	659.1625
3256.95205	651.5625
3259.22558	657.7625
3261.49775	663.0625
3263.76855	661.0625
3266.03799	662.9625
3268.30606	658.5625
3270.57277	663.1625
3272.83812	661.7625
3275.10211	656.5625
3277.36474	664.8625
3279.62601	661.0625
3281.88593	664.0625
3284.14448	663.8625
3286.40168	662.0625
3288.65753	657.4625
3290.91202	664.4625
3293.16516	659.3625
3295.41695	660.7625
3297.66738	659.1625
3299.91647	658.3625
3302.16421	655.7625
3304.4106	653.4625
3306.65564	646.9625
3308.89933	649.7625
3311.14169	642.4625
3313.38269	637.3625
3315.62236	639.3625
3317.86068	632.7625
3320.09766	636.8625
3322.3333	622.8625
3324.5676	626.7625
3326.80056	617.6625
3329.03219	619.3625
3331.26248	-0.0375
3333.49143	0.5625
3335.71905	0.2625
