Data from AuAgCoreShell_UA_100uM_CRN_0uM_R6G_10uM_Scan_RamanShift__9__14-19-49-774.txt Node

Date: Thu Jun 23 14:19:49 BST 2022
User: TCL
Spectrometer: QEP01345
Trigger mode: 4
Integration Time (sec): 7.000000E0
Scans to average: 10
Electric dark correction enabled: true
Nonlinearity correction enabled: false
Boxcar width: 0
XAxis mode: Raman Shifts
Number of Pixels in Spectrum: 1044
>>>>>Begin Spectral Data<<<<<
46.04893	-1.0375
50.45542	-0.7375
54.85868	-0.5375
59.25871	-0.4375
63.6555	34.5625
68.04907	34.1625
72.43941	38.0625
76.82654	43.6625
81.21044	45.5625
85.59113	50.9625
89.96862	52.5625
94.34289	53.3625
98.71396	55.8625
103.08183	56.3625
107.4465	58.8625
111.80798	55.0625
116.16626	62.5625
120.52136	54.8625
124.87327	59.6625
129.222	55.1625
133.56755	54.6625
137.90993	54.3625
142.24913	49.3625
146.58517	53.8625
150.91804	56.1625
155.24774	54.5625
159.57429	55.9625
163.89768	55.9625
168.21792	60.9625
172.53501	70.6625
176.84895	83.9625
181.15975	97.5625
185.46741	123.3625
189.77193	159.5625
194.07331	203.5625
198.37157	253.1625
202.6667	303.3625
206.9587	357.0625
211.24758	401.4625
215.53334	453.9625
219.81599	507.4625
224.09553	565.7625
228.37195	627.3625
232.64527	689.1625
236.91549	771.4625
241.18261	836.7625
245.44663	901.9625
249.70755	970.0625
253.96539	1023.4625
258.22014	1067.6625
262.4718	1104.8625
266.72039	1111.2625
270.96589	1128.8625
275.20832	1113.1625
279.44768	1093.0625
283.68397	1084.3625
287.91719	1050.3625
292.14735	1022.5625
296.37445	1009.2625
300.59849	1009.0625
304.81948	996.4625
309.03742	989.9625
313.25231	981.5625
317.46415	969.4625
321.67296	958.1625
325.87872	938.8625
330.08145	950.9625
334.28114	944.8625
338.47781	963.3625
342.67145	970.3625
346.86207	979.3625
351.04966	997.0625
355.23424	1024.3625
359.4158	1035.4625
363.59435	1046.8625
367.76989	1053.8625
371.94243	1069.7625
376.11196	1069.6625
380.27849	1078.7625
384.44203	1083.3625
388.60257	1091.7625
392.76012	1104.6625
396.91468	1108.0625
401.06626	1124.7625
405.21485	1118.7625
409.36047	1129.1625
413.50311	1122.2625
417.64277	1102.6625
421.77947	1114.9625
425.9132	1113.4625
430.04396	1112.9625
434.17176	1125.1625
438.2966	1130.6625
442.41849	1137.9625
446.53742	1145.0625
450.6534	1161.7625
454.76644	1159.4625
458.87653	1175.2625
462.98368	1177.8625
467.08789	1173.8625
471.18916	1179.4625
475.2875	1175.0625
479.38291	1168.1625
483.4754	1174.4625
487.56496	1185.8625
491.6516	1179.2625
495.73531	1192.1625
499.81612	1187.5625
503.89401	1187.4625
507.96899	1185.3625
512.04106	1183.3625
516.11023	1178.7625
520.1765	1174.4625
524.23987	1176.8625
528.30034	1168.5625
532.35792	1169.9625
536.41261	1161.5625
540.46441	1158.5625
544.51333	1149.2625
548.55936	1143.5625
552.60252	1150.2625
556.64279	1148.7625
560.6802	1143.8625
564.71473	1159.1625
568.7464	1162.3625
572.7752	1165.8625
576.80114	1157.3625
580.82422	1159.6625
584.84444	1158.6625
588.86181	1170.6625
592.87633	1170.8625
596.888	1179.7625
600.89682	1195.7625
604.9028	1231.0625
608.90594	1307.1625
612.90624	1416.0625
616.90371	1403.9625
620.89834	1306.2625
624.89015	1263.9625
628.87913	1249.1625
632.86528	1268.2625
636.84862	1274.7625
640.82913	1269.1625
644.80683	1241.7625
648.78172	1213.4625
652.75379	1208.0625
656.72306	1211.9625
660.68952	1221.1625
664.65319	1210.0625
668.61405	1203.1625
672.57211	1205.0625
676.52738	1214.7625
680.47986	1234.9625
684.42955	1253.8625
688.37646	1260.1625
692.32058	1259.6625
696.26192	1234.7625
700.20048	1229.5625
704.13626	1206.7625
708.06928	1204.8625
711.99952	1205.6625
715.927	1206.4625
719.85171	1198.6625
723.77365	1202.5625
727.69284	1193.0625
731.60928	1193.8625
735.52295	1188.4625
739.43388	1184.9625
743.34206	1182.3625
747.24749	1185.2625
751.15017	1192.1625
755.05012	1189.7625
758.94733	1191.6625
762.8418	1218.2625
766.73354	1255.8625
770.62254	1306.4625
774.50882	1324.5625
778.39237	1307.0625
782.27321	1259.9625
786.15132	1225.9625
790.02671	1211.7625
793.89938	1205.0625
797.76935	1214.5625
801.6366	1210.7625
805.50115	1216.6625
809.36299	1223.4625
813.22213	1227.0625
817.07857	1211.9625
820.93231	1207.7625
824.78336	1196.4625
828.63172	1187.6625
832.47738	1192.2625
836.32036	1178.3625
840.16066	1180.5625
843.99827	1175.0625
847.8332	1182.8625
851.66546	1170.2625
855.49504	1166.6625
859.32195	1167.0625
863.1462	1164.2625
866.96777	1158.9625
870.78668	1164.7625
874.60293	1170.4625
878.41652	1181.7625
882.22745	1195.7625
886.03573	1205.1625
889.84136	1210.7625
893.64433	1219.1625
897.44466	1211.0625
901.24235	1210.6625
905.0374	1208.0625
908.8298	1212.7625
912.61957	1214.5625
916.40671	1218.4625
920.19121	1224.3625
923.97308	1242.2625
927.75233	1239.9625
931.52895	1241.7625
935.30295	1223.7625
939.07433	1214.3625
942.84309	1187.0625
946.60924	1182.2625
950.37278	1166.9625
954.13371	1166.3625
957.89203	1146.3625
961.64774	1133.0625
965.40086	1127.1625
969.15137	1118.1625
972.89929	1112.8625
976.64461	1107.7625
980.38733	1102.0625
984.12747	1103.1625
987.86502	1088.4625
991.59999	1095.8625
995.33237	1092.0625
999.06217	1101.5625
1002.78939	1097.2625
1006.51404	1110.8625
1010.23611	1123.3625
1013.95561	1131.1625
1017.67255	1132.0625
1021.38692	1130.3625
1025.09872	1130.6625
1028.80796	1124.4625
1032.51465	1121.8625
1036.21877	1114.3625
1039.92035	1108.1625
1043.61937	1097.8625
1047.31584	1098.9625
1051.00976	1099.5625
1054.70114	1086.4625
1058.38998	1095.2625
1062.07627	1096.6625
1065.76003	1096.9625
1069.44126	1102.4625
1073.11995	1109.0625
1076.79611	1113.8625
1080.46974	1113.7625
1084.14085	1105.9625
1087.80943	1103.3625
1091.47549	1091.9625
1095.13903	1086.3625
1098.80005	1071.8625
1102.45857	1065.6625
1106.11456	1059.9625
1109.76805	1069.3625
1113.41903	1068.7625
1117.06751	1076.0625
1120.71348	1101.7625
1124.35696	1122.5625
1127.99793	1138.8625
1131.63641	1169.0625
1135.2724	1168.7625
1138.90589	1156.1625
1142.5369	1138.2625
1146.16542	1109.7625
1149.79145	1088.0625
1153.415	1068.6625
1157.03607	1060.2625
1160.65467	1056.1625
1164.27079	1054.6625
1167.88443	1049.6625
1171.49561	1073.1625
1175.10432	1097.7625
1178.71056	1149.0625
1182.31434	1186.6625
1185.91565	1186.0625
1189.51451	1161.7625
1193.11091	1148.1625
1196.70485	1124.5625
1200.29634	1118.6625
1203.88538	1111.5625
1207.47197	1102.7625
1211.05612	1071.1625
1214.63782	1062.5625
1218.21708	1053.6625
1221.79391	1046.1625
1225.36829	1045.1625
1228.94024	1031.3625
1232.50976	1039.4625
1236.07685	1036.3625
1239.6415	1044.3625
1243.20374	1050.1625
1246.76355	1051.7625
1250.32093	1064.7625
1253.8759	1062.6625
1257.42845	1068.4625
1260.97859	1072.7625
1264.52631	1082.4625
1268.07163	1090.4625
1271.61453	1091.2625
1275.15503	1100.1625
1278.69312	1099.7625
1282.22882	1097.8625
1285.76211	1098.3625
1289.29301	1107.8625
1292.82151	1129.1625
1296.34761	1141.4625
1299.87133	1163.4625
1303.39266	1198.6625
1306.9116	1236.3625
1310.42815	1283.8625
1313.94233	1302.0625
1317.45412	1286.8625
1320.96354	1249.5625
1324.47058	1208.0625
1327.97525	1175.7625
1331.47754	1151.6625
1334.97747	1148.5625
1338.47502	1150.4625
1341.97022	1163.6625
1345.46305	1190.4625
1348.95352	1234.8625
1352.44163	1293.0625
1355.92738	1347.1625
1359.41078	1434.6625
1362.89183	1529.3625
1366.37053	1538.7625
1369.84688	1440.7625
1373.32088	1331.3625
1376.79254	1261.6625
1380.26186	1229.9625
1383.72883	1209.5625
1387.19347	1189.2625
1390.65578	1170.5625
1394.11575	1169.1625
1397.57339	1137.2625
1401.0287	1132.0625
1404.48168	1121.0625
1407.93234	1121.1625
1411.38068	1101.0625
1414.82669	1095.2625
1418.27039	1088.4625
1421.71177	1072.7625
1425.15083	1063.4625
1428.58758	1049.6625
1432.02203	1039.0625
1435.45416	1027.9625
1438.88399	1017.2625
1442.31151	1002.1625
1445.73673	998.2625
1449.15965	984.5625
1452.58027	984.1625
1455.9986	986.0625
1459.41463	982.4625
1462.82837	987.6625
1466.23982	984.9625
1469.64898	995.8625
1473.05586	994.0625
1476.46045	990.2625
1479.86276	1003.4625
1483.26279	991.5625
1486.66054	1005.1625
1490.05602	1012.1625
1493.44922	1029.3625
1496.84016	1045.1625
1500.22882	1089.0625
1503.61521	1142.2625
1506.99934	1223.2625
1510.38121	1267.9625
1513.76081	1290.4625
1517.13816	1241.8625
1520.51324	1169.4625
1523.88607	1095.1625
1527.25665	1045.1625
1530.62498	1014.2625
1533.99105	999.7625
1537.35488	999.3625
1540.71647	982.9625
1544.07581	988.7625
1547.4329	986.6625
1550.78776	983.7625
1554.14038	1001.3625
1557.49077	993.8625
1560.83892	1017.1625
1564.18484	1013.2625
1567.52853	1030.5625
1570.86999	1042.2625
1574.20922	1055.2625
1577.54624	1060.2625
1580.88103	1042.1625
1584.2136	1018.1625
1587.54395	988.7625
1590.87208	962.3625
1594.19801	954.5625
1597.52172	951.5625
1600.84321	943.1625
1604.16251	937.1625
1607.47959	927.9625
1610.79447	914.5625
1614.10715	909.2625
1617.41763	887.8625
1620.7259	891.2625
1624.03199	887.8625
1627.33587	883.3625
1630.63757	878.8625
1633.93707	885.9625
1637.23439	892.9625
1640.52951	906.9625
1643.82246	936.6625
1647.11321	972.1625
1650.40179	1003.4625
1653.68819	1007.3625
1656.97241	959.4625
1660.25446	914.5625
1663.53433	862.2625
1666.81203	837.0625
1670.08756	816.5625
1673.36092	807.7625
1676.63211	802.1625
1679.90115	793.6625
1683.16801	787.5625
1686.43272	774.5625
1689.69527	776.6625
1692.95567	768.6625
1696.2139	767.7625
1699.46999	759.7625
1702.72392	761.1625
1705.97571	735.6625
1709.22535	727.6625
1712.47284	720.2625
1715.71819	705.2625
1718.96139	700.4625
1722.20246	689.8625
1725.44139	674.2625
1728.67818	666.7625
1731.91284	657.3625
1735.14537	661.7625
1738.37576	655.3625
1741.60403	650.2625
1744.83017	631.4625
1748.05418	635.2625
1751.27607	631.9625
1754.49584	631.0625
1757.71349	619.8625
1760.92903	623.3625
1764.14244	616.7625
1767.35375	620.5625
1770.56294	608.9625
1773.77002	617.0625
1776.97499	606.5625
1780.17785	605.6625
1783.37861	608.8625
1786.57727	607.8625
1789.77382	597.2625
1792.96828	596.6625
1796.16064	592.7625
1799.3509	588.2625
1802.53907	594.6625
1805.72514	591.2625
1808.90913	586.4625
1812.09102	580.0625
1815.27083	581.7625
1818.44856	575.4625
1821.6242	572.3625
1824.79776	569.7625
1827.96924	567.0625
1831.13864	579.4625
1834.30597	583.4625
1837.47122	565.5625
1840.6344	562.3625
1843.7955	566.1625
1846.95454	561.0625
1850.11151	553.8625
1853.26642	558.9625
1856.41926	556.6625
1859.57004	556.4625
1862.71876	557.0625
1865.86542	548.2625
1869.01003	549.5625
1872.15258	546.3625
1875.29308	547.6625
1878.43152	540.0625
1881.56792	541.8625
1884.70227	544.8625
1887.83457	536.3625
1890.96482	542.0625
1894.09304	541.6625
1897.21921	530.9625
1900.34335	530.7625
1903.46544	527.1625
1906.58551	529.0625
1909.70353	530.8625
1912.81953	531.6625
1915.93349	525.6625
1919.04543	525.5625
1922.15534	518.7625
1925.26322	521.4625
1928.36908	518.6625
1931.47292	519.0625
1934.57473	520.6625
1937.67453	507.6625
1940.77232	506.3625
1943.86808	512.4625
1946.96184	504.8625
1950.05358	503.1625
1953.14331	504.8625
1956.23103	500.3625
1959.31675	495.6625
1962.40046	500.0625
1965.48217	495.6625
1968.56188	492.4625
1971.63959	485.5625
1974.7153	493.1625
1977.78901	493.1625
1980.86073	480.5625
1983.93046	477.4625
1986.99819	478.6625
1990.06394	478.5625
1993.1277	477.4625
1996.18947	475.5625
1999.24925	473.0625
2002.30706	465.3625
2005.36288	470.0625
2008.41672	464.3625
2011.46859	466.3625
2014.51848	463.3625
2017.56639	465.1625
2020.61233	458.6625
2023.6563	460.2625
2026.6983	451.6625
2029.73833	449.1625
2032.7764	450.9625
2035.8125	449.8625
2038.84664	448.8625
2041.87881	447.1625
2044.90903	449.8625
2047.93729	449.5625
2050.96359	443.3625
2053.98794	439.7625
2057.01034	439.2625
2060.03078	440.9625
2063.04927	437.5625
2066.06582	440.5625
2069.08042	440.3625
2072.09307	438.2625
2075.10378	435.4625
2078.11255	436.1625
2081.11938	441.2625
2084.12426	438.1625
2087.12722	431.4625
2090.12824	432.5625
2093.12732	436.0625
2096.12447	437.7625
2099.11969	431.9625
2102.11299	432.6625
2105.10435	434.5625
2108.09379	434.9625
2111.08131	435.2625
2114.0669	433.8625
2117.05057	431.3625
2120.03233	432.4625
2123.01216	438.2625
2125.99008	440.5625
2128.96609	441.2625
2131.94018	439.3625
2134.91236	438.8625
2137.88263	439.3625
2140.851	441.1625
2143.81746	443.1625
2146.78201	442.2625
2149.74466	437.5625
2152.7054	443.9625
2155.66425	447.6625
2158.6212	460.5625
2161.57625	455.2625
2164.52941	461.3625
2167.48067	464.2625
2170.43004	468.1625
2173.37752	467.7625
2176.32311	468.7625
2179.26681	460.5625
2182.20863	461.8625
2185.14856	453.5625
2188.08661	450.8625
2191.02278	447.8625
2193.95707	440.0625
2196.88948	432.0625
2199.82001	424.1625
2202.74867	419.3625
2205.67545	415.0625
2208.60037	408.1625
2211.52341	411.8625
2214.44458	405.6625
2217.36388	404.2625
2220.28132	401.7625
2223.1969	396.0625
2226.11061	392.2625
2229.02246	394.7625
2231.93245	388.8625
2234.84058	400.2625
2237.74686	396.4625
2240.65128	391.1625
2243.55385	384.9625
2246.45456	386.8625
2249.35343	386.2625
2252.25044	385.1625
2255.14561	380.2625
2258.03893	382.2625
2260.93041	384.7625
2263.82004	382.1625
2266.70783	382.4625
2269.59378	381.2625
2272.4779	375.5625
2275.36017	374.2625
2278.24061	368.6625
2281.11922	378.0625
2283.996	374.3625
2286.87094	366.7625
2289.74405	370.0625
2292.61534	371.4625
2295.4848	365.5625
2298.35243	365.7625
2301.21824	357.3625
2304.08223	363.5625
2306.94439	363.8625
2309.80474	354.8625
2312.66327	358.4625
2315.51999	353.7625
2318.37489	362.6625
2321.22797	362.5625
2324.07925	360.8625
2326.92871	354.2625
2329.77637	364.5625
2332.62222	357.1625
2335.46626	351.4625
2338.3085	353.4625
2341.14893	353.0625
2343.98756	346.4625
2346.8244	342.0625
2349.65943	341.1625
2352.49267	349.2625
2355.32411	342.5625
2358.15376	349.0625
2360.98161	343.8625
2363.80768	340.0625
2366.63195	339.9625
2369.45444	340.0625
2372.27514	342.4625
2375.09405	340.1625
2377.91118	337.1625
2380.72652	328.8625
2383.54009	336.2625
2386.35187	336.9625
2389.16188	332.7625
2391.97011	335.7625
2394.77657	330.9625
2397.58125	329.0625
2400.38416	333.0625
2403.18529	329.1625
2405.98466	326.5625
2408.78226	325.3625
2411.57809	324.6625
2414.37216	324.7625
2417.16446	318.2625
2419.955	325.0625
2422.74378	320.9625
2425.5308	319.2625
2428.31606	321.8625
2431.09956	323.6625
2433.88131	317.9625
2436.6613	314.1625
2439.43954	315.1625
2442.21603	319.4625
2444.99077	318.1625
2447.76377	318.2625
2450.53501	315.8625
2453.30451	313.2625
2456.07226	318.5625
2458.83827	309.7625
2461.60254	312.8625
2464.36507	306.0625
2467.12586	306.4625
2469.88492	306.1625
2472.64224	312.1625
2475.39782	301.3625
2478.15167	305.1625
2480.90379	306.2625
2483.65417	308.3625
2486.40283	303.0625
2489.14976	301.1625
2491.89497	295.9625
2494.63845	306.6625
2497.3802	307.4625
2500.12024	300.1625
2502.85855	303.0625
2505.59514	299.5625
2508.33002	299.9625
2511.06318	299.0625
2513.79462	296.1625
2516.52435	296.8625
2519.25237	292.1625
2521.97867	292.5625
2524.70327	290.6625
2527.42616	294.5625
2530.14734	292.5625
2532.86681	292.5625
2535.58458	289.7625
2538.30065	291.8625
2541.01501	288.0625
2543.72768	289.3625
2546.43864	289.6625
2549.14791	285.8625
2551.85548	286.4625
2554.56136	285.0625
2557.26554	287.7625
2559.96803	287.1625
2562.66883	283.9625
2565.36794	281.5625
2568.06536	280.7625
2570.7611	282.5625
2573.45514	276.4625
2576.14751	276.5625
2578.83819	278.3625
2581.52719	282.4625
2584.21451	276.3625
2586.90015	281.5625
2589.58411	275.2625
2592.2664	272.4625
2594.94701	271.7625
2597.62594	272.6625
2600.30321	269.0625
2602.9788	273.3625
2605.65273	270.5625
2608.32498	271.5625
2610.99557	271.9625
2613.66449	267.0625
2616.33175	270.3625
2618.99734	267.2625
2621.66128	265.2625
2624.32355	265.0625
2626.98416	263.3625
2629.64311	266.2625
2632.30041	265.8625
2634.95605	260.9625
2637.61004	265.1625
2640.26238	267.6625
2642.91306	262.4625
2645.56209	259.6625
2648.20948	263.4625
2650.85521	260.8625
2653.4993	258.8625
2656.14175	259.1625
2658.78255	262.4625
2661.42171	259.0625
2664.05923	264.3625
2666.6951	258.2625
2669.32934	257.6625
2671.96194	258.0625
2674.59291	260.7625
2677.22224	257.6625
2679.84993	257.1625
2682.476	258.6625
2685.10043	259.4625
2687.72324	262.0625
2690.34441	256.6625
2692.96396	258.8625
2695.58188	258.0625
2698.19818	250.1625
2700.81285	259.8625
2703.4259	261.0625
2706.03733	255.3625
2708.64714	254.9625
2711.25533	259.4625
2713.86191	252.5625
2716.46687	255.3625
2719.07021	255.6625
2721.67194	254.1625
2724.27206	255.2625
2726.87057	255.9625
2729.46747	253.8625
2732.06276	254.1625
2734.65644	257.4625
2737.24852	255.5625
2739.83899	255.9625
2742.42786	254.7625
2745.01513	255.7625
2747.60079	257.1625
2750.18486	280.9625
2752.76733	255.3625
2755.3482	256.4625
2757.92747	257.6625
2760.50515	250.5625
2763.08123	249.2625
2765.65573	252.3625
2768.22863	251.5625
2770.79994	250.4625
2773.36967	247.5625
2775.9378	252.2625
2778.50435	248.6625
2781.06932	247.7625
2783.6327	243.5625
2786.1945	249.7625
2788.75471	248.5625
2791.31335	246.2625
2793.87041	245.1625
2796.42589	243.1625
2798.97979	244.3625
2801.53212	239.2625
2804.08288	247.1625
2806.63206	239.1625
2809.17967	245.1625
2811.72571	243.0625
2814.27018	243.9625
2816.81308	243.2625
2819.35442	235.4625
2821.89419	240.5625
2824.43239	239.0625
2826.96904	239.0625
2829.50412	239.6625
2832.03763	241.3625
2834.56959	238.8625
2837.1	239.4625
2839.62884	235.5625
2842.15613	240.6625
2844.68186	238.7625
2847.20604	235.4625
2849.72867	239.2625
2852.24974	244.3625
2854.76927	236.3625
2857.28724	232.9625
2859.80367	239.0625
2862.31855	243.3625
2864.83189	238.1625
2867.34368	239.0625
2869.85393	241.0625
2872.36264	241.2625
2874.8698	242.0625
2877.37543	243.6625
2879.87952	240.1625
2882.38207	238.8625
2884.88308	243.8625
2887.38256	240.6625
2889.88051	239.7625
2892.37692	240.8625
2894.8718	244.8625
2897.36515	243.9625
2899.85698	244.1625
2902.34727	245.2625
2904.83604	250.0625
2907.32328	251.4625
2909.809	258.5625
2912.29319	253.1625
2914.77587	253.8625
2917.25702	256.4625
2919.73665	258.7625
2922.21476	255.5625
2924.69136	258.8625
2927.16644	260.5625
2929.64	256.7625
2932.11205	261.8625
2934.58258	261.1625
2937.05161	263.8625
2939.51912	261.7625
2941.98513	262.9625
2944.44962	260.4625
2946.91261	260.8625
2949.37409	260.0625
2951.83407	256.7625
2954.29254	260.4625
2956.74951	257.6625
2959.20498	258.7625
2961.65895	262.0625
2964.11142	256.1625
2966.56239	258.6625
2969.01186	262.6625
2971.45984	258.8625
2973.90632	261.6625
2976.35131	264.2625
2978.7948	260.7625
2981.23681	264.6625
2983.67732	266.4625
2986.11635	261.9625
2988.55388	264.3625
2990.98993	261.7625
2993.4245	261.5625
2995.85758	267.4625
2998.28917	266.3625
3000.71928	269.1625
3003.14791	275.3625
3005.57506	264.0625
3008.00073	274.7625
3010.42493	278.5625
3012.84764	273.2625
3015.26888	279.8625
3017.68865	272.6625
3020.10694	277.6625
3022.52376	276.3625
3024.9391	282.1625
3027.35298	283.1625
3029.76539	283.1625
3032.17632	281.1625
3034.5858	289.2625
3036.9938	288.5625
3039.40034	296.5625
3041.80542	294.7625
3044.20903	297.5625
3046.61118	298.6625
3049.01187	306.4625
3051.4111	301.5625
3053.80888	306.7625
3056.20519	307.2625
3058.60005	307.9625
3060.99345	312.1625
3063.3854	308.0625
3065.7759	318.7625
3068.16494	322.3625
3070.55254	319.5625
3072.93868	327.8625
3075.32338	329.3625
3077.70662	332.7625
3080.08842	337.9625
3082.46878	342.4625
3084.84769	347.0625
3087.22515	349.3625
3089.60118	349.5625
3091.97576	352.0625
3094.3489	359.4625
3096.72061	363.3625
3099.09087	368.4625
3101.4597	371.4625
3103.82709	378.5625
3106.19305	381.5625
3108.55757	385.7625
3110.92066	395.7625
3113.28232	398.6625
3115.64255	397.2625
3118.00134	407.1625
3120.35871	413.3625
3122.71466	414.8625
3125.06917	416.5625
3127.42226	421.0625
3129.77393	429.4625
3132.12417	437.5625
3134.47299	439.1625
3136.82039	443.9625
3139.16636	456.7625
3141.51092	457.4625
3143.85406	461.9625
3146.19579	466.4625
3148.53609	472.9625
3150.87499	477.7625
3153.21246	489.3625
3155.54853	495.7625
3157.88318	501.0625
3160.21642	511.6625
3162.54826	517.3625
3164.87868	520.8625
3167.2077	520.9625
3169.5353	528.7625
3171.86151	539.7625
3174.18631	545.9625
3176.5097	548.6625
3178.83169	553.9625
3181.15228	558.0625
3183.47147	569.6625
3185.78926	567.1625
3188.10565	576.1625
3190.42065	580.4625
3192.73424	582.9625
3195.04645	584.5625
3197.35725	593.0625
3199.66667	598.2625
3201.97469	600.0625
3204.28132	606.5625
3206.58656	606.6625
3208.8904	614.9625
3211.19287	619.0625
3213.49394	628.9625
3215.79363	629.6625
3218.09193	628.8625
3220.38884	636.0625
3222.68438	637.4625
3224.97853	641.6625
3227.2713	650.3625
3229.56269	644.3625
3231.8527	648.5625
3234.14133	649.8625
3236.42858	651.5625
3238.71446	645.4625
3240.99896	652.7625
3243.28209	649.1625
3245.56384	653.5625
3247.84423	655.1625
3250.12324	655.8625
3252.40088	657.0625
3254.67715	660.7625
3256.95205	657.7625
3259.22558	659.2625
3261.49775	665.7625
3263.76855	664.0625
3266.03799	659.1625
3268.30606	657.5625
3270.57277	665.2625
3272.83812	654.4625
3275.10211	655.5625
3277.36474	660.6625
3279.62601	660.7625
3281.88593	659.7625
3284.14448	666.4625
3286.40168	660.3625
3288.65753	654.2625
3290.91202	659.7625
3293.16516	658.7625
3295.41695	660.5625
3297.66738	657.6625
3299.91647	655.2625
3302.16421	650.5625
3304.4106	652.1625
3306.65564	651.7625
3308.89933	644.4625
3311.14169	646.5625
3313.38269	641.0625
3315.62236	632.6625
3317.86068	633.8625
3320.09766	626.5625
3322.3333	626.5625
3324.5676	618.7625
3326.80056	619.4625
3329.03219	613.0625
3331.26248	-0.7375
3333.49143	1.7625
3335.71905	1.0625
