Data from AgNP_FTO_APTES_UA_100uM_CRN_10uM_R6G_10uM_NaF_0.1M_Addition_RamanShift__39__16-02-30-442.txt Node

Date: Thu Mar 24 16:02:30 GMT 2022
User: TCL
Spectrometer: QEP01345
Trigger mode: 4
Integration Time (sec): 7.000000E0
Scans to average: 10
Electric dark correction enabled: true
Nonlinearity correction enabled: false
Boxcar width: 0
XAxis mode: Raman Shifts
Number of Pixels in Spectrum: 1044
>>>>>Begin Spectral Data<<<<<
46.04893	-0.7
50.45542	0.3
54.85868	-1.4
59.25871	0.1
63.6555	27
68.04907	32.1
72.43941	28.1
76.82654	29.8
81.21044	33.8
85.59113	35.9
89.96862	36.7
94.34289	31.9
98.71396	38.6
103.08183	38.4
107.4465	42.6
111.80798	39.3
116.16626	39.4
120.52136	40
124.87327	42.9
129.222	45.7
133.56755	47.5
137.90993	48.9
142.24913	57
146.58517	57.3
150.91804	70.2
155.24774	86.7
159.57429	103.4
163.89768	139.7
168.21792	183.8
172.53501	250.9
176.84895	347.9
181.15975	494.7
185.46741	689
189.77193	950.9
194.07331	1285.7
198.37157	1653.8
202.6667	2068.8
206.9587	2473.5
211.24758	2886.3
215.53334	3329
219.81599	3808.1
224.09553	4363.7
228.37195	4975.3
232.64527	5663.7
236.91549	6335.4
241.18261	6925.8
245.44663	7399.1
249.70755	7726.6
253.96539	8032
258.22014	8245.2
262.4718	8450.3
266.72039	8644.5
270.96589	8718.5
275.20832	8633.8
279.44768	8445.5
283.68397	8273.6
287.91719	8174.6
292.14735	8192.9
296.37445	8366.2
300.59849	8713.8
304.81948	9153.7
309.03742	9475.7
313.25231	9512
317.46415	9176.5
321.67296	8551.4
325.87872	7981.8
330.08145	7660.7
334.28114	7620.6
338.47781	7723.8
342.67145	7922.7
346.86207	8220.1
351.04966	8667.3
355.23424	9131.4
359.4158	9529.6
363.59435	9718.8
367.76989	9748.1
371.94243	9707.5
376.11196	9625.7
380.27849	9536.9
384.44203	9433.3
388.60257	9345.7
392.76012	9312
396.91468	9371.1
401.06626	9604.7
405.21485	9728.3
409.36047	9514.5
413.50311	8960.2
417.64277	8462.7
421.77947	8170
425.9132	8021.8
430.04396	8005.2
434.17176	8014.8
438.2966	8124.8
442.41849	8283.1
446.53742	8529.5
450.6534	8768.2
454.76644	8890
458.87653	8891.7
462.98368	8794.4
467.08789	8669.4
471.18916	8473.5
475.2875	8270
479.38291	8113.2
483.4754	7981.5
487.56496	7870.6
491.6516	7785.3
495.73531	7796.8
499.81612	7809
503.89401	7879.6
507.96899	8006.3
512.04106	8105.5
516.11023	8217.7
520.1765	8299.5
524.23987	8327.6
528.30034	8251.2
532.35792	8169.4
536.41261	8032.9
540.46441	7851.6
544.51333	7731.7
548.55936	7744.6
552.60252	7917.1
556.64279	8158.2
560.6802	8233
564.71473	8337
568.7464	8645
572.7752	8866
576.80114	8713.1
580.82422	8504.4
584.84444	8536.5
588.86181	8630.1
592.87633	8778.6
596.888	8911.5
600.89682	9093.6
604.9028	10062.4
608.90594	13000.7
612.90624	16945.1
616.90371	16135.6
620.89834	10959.5
624.89015	8428.3
628.87913	7994.4
632.86528	8180.7
636.84862	8413.5
640.82913	8302.8
644.80683	7801.5
648.78172	7469.1
652.75379	7457.9
656.72306	7764.9
660.68952	8224.4
664.65319	8100.2
668.61405	7606.9
672.57211	7420.1
676.52738	7441.5
680.47986	7409.2
684.42955	7279.3
688.37646	7205.4
692.32058	7191.3
696.26192	7283.8
700.20048	7393.4
704.13626	7467.5
708.06928	7448.2
711.99952	7384.3
715.927	7382.6
719.85171	7431.1
723.77365	7465.1
727.69284	7421.8
731.60928	7386.6
735.52295	7368.7
739.43388	7398.8
743.34206	7473.5
747.24749	7432.1
751.15017	7426
755.05012	7525.9
758.94733	7909
762.8418	8988.4
766.73354	10910.8
770.62254	12809.1
774.50882	13702.3
778.39237	13028.2
782.27321	11145.6
786.15132	9270.7
790.02671	8131.8
793.89938	7577.5
797.76935	7335.4
801.6366	7228
805.50115	7148
809.36299	7088.8
813.22213	7045.5
817.07857	7011.6
820.93231	6992.2
824.78336	7007.8
828.63172	7027.6
832.47738	7039.2
836.32036	7006.8
840.16066	6979.9
843.99827	6938.8
847.8332	6917.9
851.66546	6925.7
855.49504	6956.2
859.32195	6943.5
863.1462	6928.1
866.96777	6928.5
870.78668	6929.4
874.60293	6935.5
878.41652	6974.3
882.22745	7034.7
886.03573	7086.3
889.84136	7082.8
893.64433	7036.3
897.44466	7017.2
901.24235	6967.7
905.0374	6914
908.8298	6828.9
912.61957	6793.3
916.40671	6808.6
920.19121	6865.5
923.97308	6973.9
927.75233	7097.3
931.52895	7159.8
935.30295	7057
939.07433	6846.6
942.84309	6631.1
946.60924	6519.2
950.37278	6477.1
954.13371	6443
957.89203	6429.9
961.64774	6409.1
965.40086	6372.4
969.15137	6373.7
972.89929	6337.5
976.64461	6340.7
980.38733	6348.1
984.12747	6343.9
987.86502	6383.6
991.59999	6458.2
995.33237	6519
999.06217	6657.2
1002.78939	6849.5
1006.51404	7033.6
1010.23611	7210.4
1013.95561	7309.1
1017.67255	7305.7
1021.38692	7184.7
1025.09872	7030.5
1028.80796	6887.7
1032.51465	6881.7
1036.21877	6947.8
1039.92035	7018.7
1043.61937	7071.6
1047.31584	7074.6
1051.00976	7054.7
1054.70114	7036.4
1058.38998	7001.9
1062.07627	7045.5
1065.76003	7109.9
1069.44126	7150.1
1073.11995	7297.5
1076.79611	7475.1
1080.46974	7651.6
1084.14085	7887.6
1087.80943	8168.4
1091.47549	8247.3
1095.13903	8117.1
1098.80005	7814.1
1102.45857	7555.1
1106.11456	7495.7
1109.76805	7546.3
1113.41903	7771.6
1117.06751	8058.2
1120.71348	8514.9
1124.35696	8993.8
1127.99793	9380.5
1131.63641	9268.5
1135.2724	8756.1
1138.90589	8316.4
1142.5369	8009.1
1146.16542	7784.3
1149.79145	7662.6
1153.415	7594.9
1157.03607	7658.2
1160.65467	7860.2
1164.27079	8223.4
1167.88443	8821.1
1171.49561	9661.7
1175.10432	11000.2
1178.71056	12802.1
1182.31434	14343.8
1185.91565	14729.7
1189.51451	14285.6
1193.11091	13253
1196.70485	12141.9
1200.29634	11192.7
1203.88538	10485.7
1207.47197	9672.3
1211.05612	8984.8
1214.63782	8532.5
1218.21708	8367.3
1221.79391	8329
1225.36829	8353.8
1228.94024	8343.2
1232.50976	8226
1236.07685	8140.7
1239.6415	8111.8
1243.20374	8149.4
1246.76355	8212.4
1250.32093	8303.8
1253.8759	8474.4
1257.42845	8752.7
1260.97859	9149.9
1264.52631	9570.2
1268.07163	9997
1271.61453	10387.8
1275.15503	10699.2
1278.69312	10871.6
1282.22882	11032.6
1285.76211	11354.2
1289.29301	11809.7
1292.82151	12305.6
1296.34761	12900.3
1299.87133	13767.7
1303.39266	15232.2
1306.9116	17276.2
1310.42815	19435.9
1313.94233	20264.7
1317.45412	19270.7
1320.96354	17471.7
1324.47058	15699.6
1327.97525	14269.1
1331.47754	13283.8
1334.97747	12863.6
1338.47502	12842.1
1341.97022	13205.9
1345.46305	14023.1
1348.95352	15264
1352.44163	16887.3
1355.92738	19125.8
1359.41078	22440.2
1362.89183	25349.6
1366.37053	24316.8
1369.84688	19714.7
1373.32088	15519.6
1376.79254	13153.2
1380.26186	11915
1383.72883	11167
1387.19347	10557.4
1390.65578	10048.9
1394.11575	9652.4
1397.57339	9418.1
1401.0287	9365.9
1404.48168	9328.8
1407.93234	9292.9
1411.38068	9264
1414.82669	9259.6
1418.27039	9226.7
1421.71177	9106.6
1425.15083	8933.2
1428.58758	8823.2
1432.02203	8934.2
1435.45416	9114.2
1438.88399	9273.9
1442.31151	9274.4
1445.73673	9331.5
1449.15965	9389.2
1452.58027	9399.6
1455.9986	9355.5
1459.41463	9396.7
1462.82837	9604.3
1466.23982	9913.9
1469.64898	10208.9
1473.05586	10471.7
1476.46045	10604.5
1479.86276	10779.7
1483.26279	11020.4
1486.66054	11394
1490.05602	11934.9
1493.44922	12787.6
1496.84016	14128
1500.22882	16158.8
1503.61521	18983.3
1506.99934	22007.1
1510.38121	24074.6
1513.76081	23961.2
1517.13816	21463.2
1520.51324	17938.5
1523.88607	14986.4
1527.25665	13142.6
1530.62498	12154.9
1533.99105	11547.9
1537.35488	11144.2
1540.71647	10781.6
1544.07581	10561.7
1547.4329	10401.5
1550.78776	10343.4
1554.14038	10370.4
1557.49077	10512.5
1560.83892	10792.2
1564.18484	11274.6
1567.52853	11890.5
1570.86999	12420.4
1574.20922	12688.9
1577.54624	12519.6
1580.88103	11613.9
1584.2136	10480.9
1587.54395	9876.3
1590.87208	9880.7
1594.19801	10458
1597.52172	11306.3
1600.84321	11658.7
1604.16251	11237
1607.47959	10529.5
1610.79447	9812.8
1614.10715	9055.9
1617.41763	8412.5
1620.7259	7942.9
1624.03199	7741.4
1627.33587	7699.1
1630.63757	7929.5
1633.93707	8431.4
1637.23439	9296.3
1640.52951	10807.8
1643.82246	12990.2
1647.11321	15500.5
1650.40179	17079.3
1653.68819	16312.7
1656.97241	13651.9
1660.25446	10832
1663.53433	8888.9
1666.81203	7760.4
1670.08756	7122.2
1673.36092	6727.5
1676.63211	6483.3
1679.90115	6309.2
1683.16801	6178.8
1686.43272	6077.2
1689.69527	6008.8
1692.95567	5963.9
1696.2139	5938.3
1699.46999	5919.6
1702.72392	5883.1
1705.97571	5871.9
1709.22535	5845.2
1712.47284	5827.3
1715.71819	5812.9
1718.96139	5788.5
1722.20246	5754.7
1725.44139	5713.5
1728.67818	5679.4
1731.91284	5610.7
1735.14537	5567.9
1738.37576	5536.1
1741.60403	5499.3
1744.83017	5475.4
1748.05418	5443.1
1751.27607	5435.2
1754.49584	5420
1757.71349	5420.5
1760.92903	5409.3
1764.14244	5408.7
1767.35375	5365.7
1770.56294	5371.6
1773.77002	5341.1
1776.97499	5315.9
1780.17785	5281.7
1783.37861	5258.7
1786.57727	5206.7
1789.77382	5231.6
1792.96828	5214.2
1796.16064	5172
1799.3509	5185.5
1802.53907	5169.2
1805.72514	5158
1808.90913	5119
1812.09102	5108.2
1815.27083	5067.9
1818.44856	5064.5
1821.6242	5061.3
1824.79776	5038.9
1827.96924	5040.5
1831.13864	5037.8
1834.30597	5036.6
1837.47122	5038.8
1840.6344	5029.5
1843.7955	5011.9
1846.95454	4982.7
1850.11151	4980.1
1853.26642	4979.1
1856.41926	4978.8
1859.57004	4985.7
1862.71876	4981.2
1865.86542	4963.3
1869.01003	4965.9
1872.15258	4959.2
1875.29308	4983.5
1878.43152	4955.8
1881.56792	4941.5
1884.70227	4959
1887.83457	4927.1
1890.96482	4915.5
1894.09304	4915.3
1897.21921	4914
1900.34335	4907.1
1903.46544	4890.7
1906.58551	4898.5
1909.70353	4884.2
1912.81953	4873.4
1915.93349	4882.2
1919.04543	4860.1
1922.15534	4867.5
1925.26322	4833.3
1928.36908	4836.5
1931.47292	4822.5
1934.57473	4809.7
1937.67453	4782.7
1940.77232	4764.6
1943.86808	4757.2
1946.96184	4734.5
1950.05358	4728.8
1953.14331	4694.3
1956.23103	4697.7
1959.31675	4698.3
1962.40046	4654.8
1965.48217	4661.3
1968.56188	4648.5
1971.63959	4639.4
1974.7153	4638.6
1977.78901	4629.5
1980.86073	4597.4
1983.93046	4577.9
1986.99819	4539.2
1990.06394	4530.4
1993.1277	4505.1
1996.18947	4497.4
1999.24925	4482.1
2002.30706	4456
2005.36288	4449.7
2008.41672	4449.2
2011.46859	4417.5
2014.51848	4411.2
2017.56639	4398.3
2020.61233	4364.5
2023.6563	4379.9
2026.6983	4360.1
2029.73833	4350.4
2032.7764	4342.1
2035.8125	4309.2
2038.84664	4332.9
2041.87881	4315.9
2044.90903	4315.8
2047.93729	4302.4
2050.96359	4294.3
2053.98794	4272.5
2057.01034	4279.6
2060.03078	4262.2
2063.04927	4259.5
2066.06582	4252
2069.08042	4237.3
2072.09307	4246.8
2075.10378	4234.4
2078.11255	4252.8
2081.11938	4244.3
2084.12426	4226.2
2087.12722	4227.9
2090.12824	4236.9
2093.12732	4219.6
2096.12447	4238.2
2099.11969	4240.1
2102.11299	4238.9
2105.10435	4231.1
2108.09379	4245.4
2111.08131	4236
2114.0669	4248.7
2117.05057	4241
2120.03233	4239
2123.01216	4253.7
2125.99008	4269.6
2128.96609	4257.1
2131.94018	4257.1
2134.91236	4266.6
2137.88263	4257.3
2140.851	4258
2143.81746	4266.3
2146.78201	4255.8
2149.74466	4257.1
2152.7054	4247.4
2155.66425	4237.7
2158.6212	4235.1
2161.57625	4234.9
2164.52941	4227.7
2167.48067	4229.1
2170.43004	4225.5
2173.37752	4226.8
2176.32311	4210.3
2179.26681	4213.1
2182.20863	4209.8
2185.14856	4220.9
2188.08661	4206.7
2191.02278	4196.3
2193.95707	4195.7
2196.88948	4191.3
2199.82001	4185.8
2202.74867	4182.5
2205.67545	4168.1
2208.60037	4184.4
2211.52341	4171.3
2214.44458	4163.8
2217.36388	4150.6
2220.28132	4162.1
2223.1969	4132.5
2226.11061	4139.8
2229.02246	4125.4
2231.93245	4105.7
2234.84058	4105.9
2237.74686	4104.5
2240.65128	4092
2243.55385	4089.6
2246.45456	4090.3
2249.35343	4085.4
2252.25044	4074.8
2255.14561	4089.2
2258.03893	4102.7
2260.93041	4090
2263.82004	4078.7
2266.70783	4061.8
2269.59378	4061.2
2272.4779	4059.7
2275.36017	4046.9
2278.24061	4034.9
2281.11922	4023.2
2283.996	4029.7
2286.87094	3998.8
2289.74405	3985.2
2292.61534	3972
2295.4848	3972.5
2298.35243	3978.4
2301.21824	3973.7
2304.08223	3963.4
2306.94439	3952.8
2309.80474	3961.4
2312.66327	3955.7
2315.51999	3945.4
2318.37489	3966.1
2321.22797	3953.2
2324.07925	3950.4
2326.92871	3948.1
2329.77637	3941.9
2332.62222	3940.5
2335.46626	3917
2338.3085	3937.3
2341.14893	3918.9
2343.98756	3924.4
2346.8244	3937.7
2349.65943	3932.9
2352.49267	3961.4
2355.32411	3963
2358.15376	3959.3
2360.98161	3957.2
2363.80768	3971.4
2366.63195	3985.2
2369.45444	3980.6
2372.27514	3979
2375.09405	3943.3
2377.91118	3957.3
2380.72652	3933.7
2383.54009	3914.1
2386.35187	3902.9
2389.16188	3869.2
2391.97011	3872.4
2394.77657	3840.5
2397.58125	3846.8
2400.38416	3825.8
2403.18529	3822.2
2405.98466	3811.3
2408.78226	3792.8
2411.57809	3789.2
2414.37216	3804.2
2417.16446	3795.4
2419.955	3779
2422.74378	3786.4
2425.5308	3765.3
2428.31606	3782.9
2431.09956	3788.8
2433.88131	3789.6
2436.6613	3781.3
2439.43954	3787.1
2442.21603	3793.1
2444.99077	3802.2
2447.76377	3802.6
2450.53501	3796.3
2453.30451	3801.8
2456.07226	3787
2458.83827	3800.8
2461.60254	3800.5
2464.36507	3782
2467.12586	3792.9
2469.88492	3797.5
2472.64224	3811.8
2475.39782	3803.2
2478.15167	3798.3
2480.90379	3814.2
2483.65417	3827.6
2486.40283	3832.9
2489.14976	3843.5
2491.89497	3839.8
2494.63845	3867.2
2497.3802	3851.4
2500.12024	3837.2
2502.85855	3809.8
2505.59514	3796.6
2508.33002	3779.8
2511.06318	3771.2
2513.79462	3748.6
2516.52435	3731.1
2519.25237	3722.7
2521.97867	3712.7
2524.70327	3701.4
2527.42616	3682
2530.14734	3682.4
2532.86681	3674.3
2535.58458	3693.6
2538.30065	3665.6
2541.01501	3692.4
2543.72768	3680.2
2546.43864	3690.1
2549.14791	3691.5
2551.85548	3686.2
2554.56136	3668.8
2557.26554	3665.9
2559.96803	3660.1
2562.66883	3658.6
2565.36794	3670.5
2568.06536	3655.8
2570.7611	3652.3
2573.45514	3644.1
2576.14751	3630.5
2578.83819	3634.6
2581.52719	3627.1
2584.21451	3621.9
2586.90015	3616.5
2589.58411	3613.7
2592.2664	3612.3
2594.94701	3603.3
2597.62594	3601.9
2600.30321	3599.2
2602.9788	3587.1
2605.65273	3584.5
2608.32498	3599.7
2610.99557	3595.3
2613.66449	3580.1
2616.33175	3590.7
2618.99734	3578.7
2621.66128	3586.9
2624.32355	3574.8
2626.98416	3565.3
2629.64311	3566.4
2632.30041	3558.8
2634.95605	3554.5
2637.61004	3549.6
2640.26238	3549.1
2642.91306	3549.3
2645.56209	3538.1
2648.20948	3535.8
2650.85521	3539.2
2653.4993	3536.6
2656.14175	3548
2658.78255	3548.5
2661.42171	3555.7
2664.05923	3553.2
2666.6951	3555.1
2669.32934	3558.8
2671.96194	3555.3
2674.59291	3555.8
2677.22224	3568.6
2679.84993	3562.8
2682.476	3547.5
2685.10043	3544
2687.72324	3535.8
2690.34441	3544
2692.96396	3543.2
2695.58188	3549.6
2698.19818	3532.9
2700.81285	3539.3
2703.4259	3552.5
2706.03733	3554.6
2708.64714	3550.1
2711.25533	3554.8
2713.86191	3548.5
2716.46687	3542.6
2719.07021	3551.7
2721.67194	3558.2
2724.27206	3550.1
2726.87057	3548
2729.46747	3550.4
2732.06276	3565.9
2734.65644	3535
2737.24852	3530.2
2739.83899	3532.3
2742.42786	3518.2
2745.01513	3515.7
2747.60079	3504
2750.18486	3504.2
2752.76733	3502.4
2755.3482	3490.5
2757.92747	3496.2
2760.50515	3478.6
2763.08123	3467.5
2765.65573	3468.8
2768.22863	3469.5
2770.79994	3469.9
2773.36967	3459.7
2775.9378	3471.9
2778.50435	3470.2
2781.06932	3453.6
2783.6327	3473.3
2786.1945	3462.5
2788.75471	3473.2
2791.31335	3456.2
2793.87041	3457.9
2796.42589	3457.6
2798.97979	3449.9
2801.53212	3458.2
2804.08288	3436.9
2806.63206	3438
2809.17967	3446.9
2811.72571	3442.1
2814.27018	3451.4
2816.81308	3458.2
2819.35442	3460.4
2821.89419	3453.1
2824.43239	3448.7
2826.96904	3448.1
2829.50412	3457.4
2832.03763	3447.2
2834.56959	3440
2837.1	3442.8
2839.62884	3446.5
2842.15613	3443.3
2844.68186	3440.5
2847.20604	3444.6
2849.72867	3467.4
2852.24974	3465.5
2854.76927	3465.1
2857.28724	3462.1
2859.80367	3466.1
2862.31855	3463.6
2864.83189	3464.9
2867.34368	3473
2869.85393	3478
2872.36264	3461.9
2874.8698	3472
2877.37543	3474.6
2879.87952	3472.2
2882.38207	3460.6
2884.88308	3450.4
2887.38256	3455.7
2889.88051	3460
2892.37692	3454.8
2894.8718	3455.8
2897.36515	3453.9
2899.85698	3452.9
2902.34727	3467.8
2904.83604	3455.2
2907.32328	3471
2909.809	3469
2912.29319	3477.2
2914.77587	3470.6
2917.25702	3477.5
2919.73665	3452.4
2922.21476	3467.4
2924.69136	3451.3
2927.16644	3451.9
2929.64	3450.6
2932.11205	3432.1
2934.58258	3414.8
2937.05161	3412.7
2939.51912	3404.1
2941.98513	3413.4
2944.44962	3392.4
2946.91261	3383.3
2949.37409	3386.8
2951.83407	3391.8
2954.29254	3391
2956.74951	3388
2959.20498	3383.5
2961.65895	3381.7
2964.11142	3376.9
2966.56239	3378.8
2969.01186	3363
2971.45984	3360.1
2973.90632	3338.5
2976.35131	3337.4
2978.7948	3327.1
2981.23681	3330.2
2983.67732	3326.1
2986.11635	3312.1
2988.55388	3293.7
2990.98993	3295.4
2993.4245	3283.3
2995.85758	3291.1
2998.28917	3290.3
3000.71928	3293.8
3003.14791	3277.8
3005.57506	3270.7
3008.00073	3278.4
3010.42493	3281.3
3012.84764	3282.2
3015.26888	3270.6
3017.68865	3263.2
3020.10694	3271.5
3022.52376	3261.2
3024.9391	3250.7
3027.35298	3249.2
3029.76539	3223.3
3032.17632	3229.2
3034.5858	3222
3036.9938	3217.4
3039.40034	3207.2
3041.80542	3205
3044.20903	3206.7
3046.61118	3220.7
3049.01187	3210.5
3051.4111	3197.3
3053.80888	3208.4
3056.20519	3190.3
3058.60005	3183.9
3060.99345	3194.7
3063.3854	3177.9
3065.7759	3171.4
3068.16494	3168.9
3070.55254	3172.6
3072.93868	3149.2
3075.32338	3155.1
3077.70662	3146.6
3080.08842	3127.5
3082.46878	3134.8
3084.84769	3132.4
3087.22515	3140.6
3089.60118	3129.5
3091.97576	3137.2
3094.3489	3136.2
3096.72061	3138.1
3099.09087	3139.6
3101.4597	3156
3103.82709	3138.1
3106.19305	3150
3108.55757	3143.5
3110.92066	3130.5
3113.28232	3130.9
3115.64255	3116
3118.00134	3116.1
3120.35871	3124.9
3122.71466	3115.8
3125.06917	3116.2
3127.42226	3131.6
3129.77393	3122.4
3132.12417	3118.9
3134.47299	3123.2
3136.82039	3124.1
3139.16636	3132.7
3141.51092	3125.9
3143.85406	3132.5
3146.19579	3128.8
3148.53609	3141.6
3150.87499	3146.5
3153.21246	3157.7
3155.54853	3149.5
3157.88318	3167.7
3160.21642	3162.5
3162.54826	3164.4
3164.87868	3163.5
3167.2077	3161.1
3169.5353	3175.8
3171.86151	3180.2
3174.18631	3171.8
3176.5097	3170.2
3178.83169	3162.3
3181.15228	3168.4
3183.47147	3169.9
3185.78926	3161.2
3188.10565	3165.2
3190.42065	3168.1
3192.73424	3162.9
3195.04645	3162.3
3197.35725	3160.5
3199.66667	3168
3201.97469	3184.4
3204.28132	3188.7
3206.58656	3197.1
3208.8904	3203.6
3211.19287	3205.5
3213.49394	3210.1
3215.79363	3210.5
3218.09193	3226.4
3220.38884	3240.4
3222.68438	3221.2
3224.97853	3223.9
3227.2713	3232.7
3229.56269	3213.3
3231.8527	3224.4
3234.14133	3211.3
3236.42858	3213.1
3238.71446	3206.4
3240.99896	3201.1
3243.28209	3200.2
3245.56384	3207.9
3247.84423	3212.2
3250.12324	3209.4
3252.40088	3194.3
3254.67715	3197
3256.95205	3191.3
3259.22558	3197.8
3261.49775	3205.6
3263.76855	3191.9
3266.03799	3193.2
3268.30606	3206.5
3270.57277	3191.4
3272.83812	3192.9
3275.10211	3187.9
3277.36474	3180.9
3279.62601	3182.2
3281.88593	3180.6
3284.14448	3179.2
3286.40168	3191
3288.65753	3196.6
3290.91202	3199.3
3293.16516	3182.9
3295.41695	3201
3297.66738	3167.1
3299.91647	3166.5
3302.16421	3153.1
3304.4106	3146
3306.65564	3132
3308.89933	3100.9
3311.14169	3071.7
3313.38269	3063.9
3315.62236	3044.1
3317.86068	3008.2
3320.09766	2996
3322.3333	2983.5
3324.5676	2970.3
3326.80056	2916.5
3329.03219	2914.2
3331.26248	1.5
3333.49143	-0.8
3335.71905	0.6
