Data from AgNP_FTO_APTES_UA_100uM_CRN_10uM_R6G_10uM_NaF_0.1M_Addition_RamanShift__42__16-06-00-450.txt Node

Date: Thu Mar 24 16:06:00 GMT 2022
User: TCL
Spectrometer: QEP01345
Trigger mode: 4
Integration Time (sec): 7.000000E0
Scans to average: 10
Electric dark correction enabled: true
Nonlinearity correction enabled: false
Boxcar width: 0
XAxis mode: Raman Shifts
Number of Pixels in Spectrum: 1044
>>>>>Begin Spectral Data<<<<<
46.04893	-0.3375
50.45542	-0.1375
54.85868	0.9625
59.25871	-0.0375
63.6555	29.2625
68.04907	29.9625
72.43941	28.7625
76.82654	31.6625
81.21044	36.3625
85.59113	35.5625
89.96862	38.3625
94.34289	32.6625
98.71396	40.2625
103.08183	35.6625
107.4465	42.1625
111.80798	44.0625
116.16626	42.6625
120.52136	48.6625
124.87327	43.5625
129.222	45.9625
133.56755	52.5625
137.90993	49.2625
142.24913	59.6625
146.58517	64.7625
150.91804	75.2625
155.24774	92.6625
159.57429	111.2625
163.89768	144.7625
168.21792	193.8625
172.53501	260.1625
176.84895	367.4625
181.15975	519.8625
185.46741	735.0625
189.77193	1006.0625
194.07331	1339.7625
198.37157	1761.8625
202.6667	2176.2625
206.9587	2606.1625
211.24758	3049.3625
215.53334	3530.2625
219.81599	4050.5625
224.09553	4645.1625
228.37195	5328.8625
232.64527	6062.0625
236.91549	6778.0625
241.18261	7385.7625
245.44663	7860.8625
249.70755	8198.0625
253.96539	8471.0625
258.22014	8737.1625
262.4718	8975.0625
266.72039	9131.1625
270.96589	9213.1625
275.20832	9103.0625
279.44768	8901.4625
283.68397	8705.0625
287.91719	8566.5625
292.14735	8578.6625
296.37445	8812.7625
300.59849	9214.3625
304.81948	9706.3625
309.03742	10114.5625
313.25231	10174.8625
317.46415	9820.3625
321.67296	9058.8625
325.87872	8438.6625
330.08145	8073.3625
334.28114	8035.6625
338.47781	8158.4625
342.67145	8373.1625
346.86207	8720.4625
351.04966	9234.4625
355.23424	9808.4625
359.4158	10240.0625
363.59435	10420.9625
367.76989	10442.7625
371.94243	10365.7625
376.11196	10255.4625
380.27849	10151.5625
384.44203	10024.3625
388.60257	9870.4625
392.76012	9823.0625
396.91468	9920.8625
401.06626	10140.7625
405.21485	10306.5625
409.36047	10049.6625
413.50311	9398.5625
417.64277	8825.9625
421.77947	8494.7625
425.9132	8366.1625
430.04396	8336.2625
434.17176	8377.4625
438.2966	8499.0625
442.41849	8703.4625
446.53742	9055.1625
450.6534	9330.4625
454.76644	9465.4625
458.87653	9446.0625
462.98368	9275.0625
467.08789	9104.0625
471.18916	8877.3625
475.2875	8643.9625
479.38291	8424.0625
483.4754	8251.6625
487.56496	8122.8625
491.6516	8048.3625
495.73531	8012.1625
499.81612	8033.5625
503.89401	8132.5625
507.96899	8254.4625
512.04106	8374.4625
516.11023	8508.1625
520.1765	8616.4625
524.23987	8613.1625
528.30034	8550.9625
532.35792	8447.7625
536.41261	8301.6625
540.46441	8071.2625
544.51333	7949.5625
548.55936	7952.5625
552.60252	8182.7625
556.64279	8430.2625
560.6802	8583.6625
564.71473	8752.7625
568.7464	9084.9625
572.7752	9338.4625
576.80114	9106.2625
580.82422	8881.6625
584.84444	8915.5625
588.86181	9106.3625
592.87633	9402.5625
596.888	9635.9625
600.89682	9734.1625
604.9028	10735.0625
608.90594	14027.4625
612.90624	18542.0625
616.90371	17555.5625
620.89834	11614.2625
624.89015	8779.0625
628.87913	8276.4625
632.86528	8461.9625
636.84862	8689.9625
640.82913	8532.6625
644.80683	7957.5625
648.78172	7567.1625
652.75379	7546.0625
656.72306	7947.1625
660.68952	8443.7625
664.65319	8318.1625
668.61405	7772.3625
672.57211	7500.2625
676.52738	7518.9625
680.47986	7476.5625
684.42955	7363.2625
688.37646	7256.3625
692.32058	7270.9625
696.26192	7338.4625
700.20048	7481.0625
704.13626	7552.1625
708.06928	7527.3625
711.99952	7446.0625
715.927	7447.7625
719.85171	7540.5625
723.77365	7575.3625
727.69284	7531.3625
731.60928	7468.5625
735.52295	7457.1625
739.43388	7497.8625
743.34206	7530.9625
747.24749	7534.2625
751.15017	7542.0625
755.05012	7650.7625
758.94733	8118.4625
762.8418	9385.1625
766.73354	11573.8625
770.62254	13734.5625
774.50882	14647.6625
778.39237	13861.5625
782.27321	11707.4625
786.15132	9599.2625
790.02671	8293.2625
793.89938	7688.0625
797.76935	7425.1625
801.6366	7293.5625
805.50115	7246.8625
809.36299	7175.1625
813.22213	7128.0625
817.07857	7081.0625
820.93231	7062.6625
824.78336	7079.8625
828.63172	7110.3625
832.47738	7135.9625
836.32036	7084.4625
840.16066	7030.6625
843.99827	6997.1625
847.8332	6982.4625
851.66546	6971.1625
855.49504	6992.8625
859.32195	6986.3625
863.1462	6970.2625
866.96777	6944.3625
870.78668	6948.8625
874.60293	6959.6625
878.41652	7015.7625
882.22745	7091.3625
886.03573	7145.0625
889.84136	7122.0625
893.64433	7063.8625
897.44466	7001.5625
901.24235	7005.7625
905.0374	6941.3625
908.8298	6857.3625
912.61957	6805.6625
916.40671	6820.1625
920.19121	6912.4625
923.97308	7010.3625
927.75233	7162.4625
931.52895	7244.9625
935.30295	7156.1625
939.07433	6888.5625
942.84309	6667.0625
946.60924	6535.1625
950.37278	6474.8625
954.13371	6427.0625
957.89203	6415.1625
961.64774	6394.7625
965.40086	6360.7625
969.15137	6339.1625
972.89929	6324.9625
976.64461	6310.3625
980.38733	6314.4625
984.12747	6321.8625
987.86502	6354.3625
991.59999	6407.4625
995.33237	6519.4625
999.06217	6712.7625
1002.78939	6946.6625
1006.51404	7167.4625
1010.23611	7375.2625
1013.95561	7463.2625
1017.67255	7445.3625
1021.38692	7300.7625
1025.09872	7114.8625
1028.80796	6968.8625
1032.51465	6998.7625
1036.21877	7101.3625
1039.92035	7170.3625
1043.61937	7181.9625
1047.31584	7166.0625
1051.00976	7148.3625
1054.70114	7066.4625
1058.38998	7057.7625
1062.07627	7082.6625
1065.76003	7097.9625
1069.44126	7177.5625
1073.11995	7319.7625
1076.79611	7506.9625
1080.46974	7702.4625
1084.14085	8004.7625
1087.80943	8301.2625
1091.47549	8407.6625
1095.13903	8230.2625
1098.80005	7891.0625
1102.45857	7609.6625
1106.11456	7559.5625
1109.76805	7631.6625
1113.41903	7897.4625
1117.06751	8302.8625
1120.71348	8797.9625
1124.35696	9378.3625
1127.99793	9811.2625
1131.63641	9643.0625
1135.2724	9046.9625
1138.90589	8510.2625
1142.5369	8173.2625
1146.16542	7935.8625
1149.79145	7766.9625
1153.415	7747.0625
1157.03607	7841.6625
1160.65467	8063.0625
1164.27079	8515.4625
1167.88443	9169.8625
1171.49561	10195.2625
1175.10432	11791.4625
1178.71056	13919.2625
1182.31434	15690.1625
1185.91565	16146.8625
1189.51451	15429.1625
1193.11091	14192.7625
1196.70485	12855.5625
1200.29634	11819.1625
1203.88538	10996.3625
1207.47197	10077.4625
1211.05612	9329.3625
1214.63782	8865.4625
1218.21708	8709.7625
1221.79391	8730.5625
1225.36829	8765.8625
1228.94024	8737.3625
1232.50976	8561.6625
1236.07685	8425.5625
1239.6415	8382.5625
1243.20374	8388.4625
1246.76355	8435.6625
1250.32093	8558.5625
1253.8759	8778.1625
1257.42845	9115.5625
1260.97859	9532.1625
1264.52631	10012.9625
1268.07163	10521.2625
1271.61453	10975.9625
1275.15503	11326.0625
1278.69312	11530.4625
1282.22882	11731.3625
1285.76211	12154.9625
1289.29301	12743.6625
1292.82151	13353.6625
1296.34761	14090.2625
1299.87133	15186.4625
1303.39266	16957.0625
1306.9116	19464.8625
1310.42815	22117.2625
1313.94233	23163.2625
1317.45412	21948.4625
1320.96354	19709.9625
1324.47058	17467.4625
1327.97525	15718.1625
1331.47754	14532.3625
1334.97747	14043.9625
1338.47502	13993.9625
1341.97022	14394.9625
1345.46305	15287.7625
1348.95352	16706.3625
1352.44163	18611.7625
1355.92738	21291.3625
1359.41078	25231.2625
1362.89183	28680.4625
1366.37053	27316.1625
1369.84688	21875.7625
1373.32088	17047.6625
1376.79254	14331.9625
1380.26186	12936.5625
1383.72883	12102.1625
1387.19347	11408.5625
1390.65578	10825.3625
1394.11575	10435.2625
1397.57339	10268.8625
1401.0287	10265.0625
1404.48168	10291.6625
1407.93234	10278.1625
1411.38068	10223.5625
1414.82669	10163.8625
1418.27039	10065.6625
1421.71177	9861.3625
1425.15083	9604.6625
1428.58758	9502.6625
1432.02203	9672.6625
1435.45416	9933.1625
1438.88399	10054.2625
1442.31151	10092.4625
1445.73673	10143.9625
1449.15965	10240.7625
1452.58027	10221.0625
1455.9986	10136.3625
1459.41463	10140.8625
1462.82837	10383.2625
1466.23982	10735.3625
1469.64898	11126.1625
1473.05586	11412.2625
1476.46045	11585.6625
1479.86276	11756.6625
1483.26279	12000.1625
1486.66054	12419.8625
1490.05602	13018.5625
1493.44922	13982.7625
1496.84016	15413.2625
1500.22882	17671.7625
1503.61521	20772.4625
1506.99934	24229.6625
1510.38121	26685.3625
1513.76081	26613.3625
1517.13816	23689.8625
1520.51324	19611.0625
1523.88607	16209.2625
1527.25665	14152.4625
1530.62498	13029.9625
1533.99105	12404.6625
1537.35488	11929.6625
1540.71647	11558.5625
1544.07581	11283.0625
1547.4329	11082.2625
1550.78776	11028.4625
1554.14038	11027.8625
1557.49077	11191.3625
1560.83892	11458.4625
1564.18484	12036.3625
1567.52853	12709.7625
1570.86999	13278.4625
1574.20922	13623.0625
1577.54624	13445.9625
1580.88103	12478.5625
1584.2136	11234.2625
1587.54395	10557.1625
1590.87208	10667.8625
1594.19801	11442.6625
1597.52172	12556.5625
1600.84321	12994.7625
1604.16251	12447.1625
1607.47959	11537.3625
1610.79447	10540.3625
1614.10715	9579.1625
1617.41763	8784.6625
1620.7259	8246.9625
1624.03199	8007.3625
1627.33587	8025.9625
1630.63757	8318.9625
1633.93707	8928.6625
1637.23439	10067.0625
1640.52951	11926.6625
1643.82246	14666.1625
1647.11321	17656.9625
1650.40179	19400.5625
1653.68819	18321.2625
1656.97241	14978.1625
1660.25446	11613.2625
1663.53433	9340.7625
1666.81203	8021.7625
1670.08756	7279.7625
1673.36092	6848.4625
1676.63211	6547.7625
1679.90115	6305.2625
1683.16801	6199.2625
1686.43272	6091.5625
1689.69527	6008.6625
1692.95567	5947.9625
1696.2139	5918.9625
1699.46999	5891.5625
1702.72392	5875.6625
1705.97571	5845.5625
1709.22535	5830.2625
1712.47284	5809.5625
1715.71819	5805.9625
1718.96139	5762.7625
1722.20246	5730.7625
1725.44139	5694.3625
1728.67818	5622.5625
1731.91284	5575.7625
1735.14537	5500.0625
1738.37576	5472.8625
1741.60403	5452.7625
1744.83017	5428.4625
1748.05418	5383.2625
1751.27607	5375.7625
1754.49584	5371.6625
1757.71349	5357.8625
1760.92903	5355.3625
1764.14244	5355.1625
1767.35375	5335.9625
1770.56294	5302.8625
1773.77002	5261.2625
1776.97499	5232.5625
1780.17785	5201.7625
1783.37861	5162.7625
1786.57727	5158.2625
1789.77382	5156.1625
1792.96828	5135.0625
1796.16064	5127.7625
1799.3509	5102.6625
1802.53907	5103.8625
1805.72514	5058.2625
1808.90913	5054.6625
1812.09102	5031.4625
1815.27083	5000.1625
1818.44856	4993.6625
1821.6242	4985.6625
1824.79776	4976.6625
1827.96924	4961.3625
1831.13864	4930.4625
1834.30597	4943.0625
1837.47122	4927.5625
1840.6344	4920.5625
1843.7955	4909.7625
1846.95454	4904.4625
1850.11151	4895.2625
1853.26642	4886.4625
1856.41926	4878.6625
1859.57004	4873.8625
1862.71876	4882.1625
1865.86542	4877.4625
1869.01003	4886.6625
1872.15258	4881.9625
1875.29308	4861.2625
1878.43152	4866.7625
1881.56792	4869.5625
1884.70227	4860.2625
1887.83457	4838.4625
1890.96482	4853.8625
1894.09304	4828.7625
1897.21921	4831.3625
1900.34335	4826.4625
1903.46544	4828.6625
1906.58551	4836.1625
1909.70353	4820.1625
1912.81953	4793.1625
1915.93349	4797.4625
1919.04543	4773.5625
1922.15534	4780.1625
1925.26322	4761.1625
1928.36908	4734.3625
1931.47292	4723.7625
1934.57473	4702.4625
1937.67453	4688.3625
1940.77232	4670.5625
1943.86808	4653.9625
1946.96184	4644.6625
1950.05358	4626.9625
1953.14331	4620.7625
1956.23103	4594.6625
1959.31675	4588.2625
1962.40046	4576.2625
1965.48217	4569.7625
1968.56188	4560.2625
1971.63959	4560.6625
1974.7153	4545.6625
1977.78901	4542.7625
1980.86073	4503.9625
1983.93046	4476.4625
1986.99819	4460.5625
1990.06394	4449.3625
1993.1277	4411.9625
1996.18947	4401.5625
1999.24925	4383.3625
2002.30706	4374.7625
2005.36288	4354.2625
2008.41672	4337.0625
2011.46859	4334.7625
2014.51848	4327.5625
2017.56639	4294.2625
2020.61233	4280.2625
2023.6563	4278.2625
2026.6983	4282.3625
2029.73833	4250.0625
2032.7764	4254.1625
2035.8125	4243.6625
2038.84664	4239.8625
2041.87881	4230.0625
2044.90903	4220.1625
2047.93729	4225.8625
2050.96359	4198.8625
2053.98794	4193.1625
2057.01034	4191.6625
2060.03078	4174.9625
2063.04927	4176.5625
2066.06582	4153.9625
2069.08042	4169.6625
2072.09307	4143.8625
2075.10378	4157.4625
2078.11255	4162.1625
2081.11938	4155.3625
2084.12426	4155.0625
2087.12722	4145.9625
2090.12824	4143.1625
2093.12732	4155.1625
2096.12447	4153.2625
2099.11969	4140.0625
2102.11299	4154.4625
2105.10435	4158.8625
2108.09379	4162.0625
2111.08131	4142.1625
2114.0669	4152.4625
2117.05057	4139.9625
2120.03233	4154.9625
2123.01216	4165.9625
2125.99008	4170.6625
2128.96609	4170.5625
2131.94018	4180.3625
2134.91236	4189.0625
2137.88263	4170.7625
2140.851	4161.6625
2143.81746	4175.3625
2146.78201	4168.3625
2149.74466	4165.0625
2152.7054	4155.4625
2155.66425	4138.0625
2158.6212	4143.8625
2161.57625	4134.6625
2164.52941	4136.3625
2167.48067	4137.9625
2170.43004	4119.6625
2173.37752	4135.5625
2176.32311	4126.0625
2179.26681	4138.6625
2182.20863	4118.7625
2185.14856	4127.2625
2188.08661	4124.0625
2191.02278	4123.9625
2193.95707	4108.1625
2196.88948	4106.7625
2199.82001	4103.1625
2202.74867	4088.1625
2205.67545	4099.2625
2208.60037	4074.7625
2211.52341	4077.6625
2214.44458	4070.1625
2217.36388	4063.0625
2220.28132	4046.7625
2223.1969	4046.8625
2226.11061	4040.7625
2229.02246	4025.1625
2231.93245	4022.7625
2234.84058	4004.6625
2237.74686	4010.1625
2240.65128	4005.3625
2243.55385	4000.1625
2246.45456	3995.9625
2249.35343	4002.1625
2252.25044	4003.4625
2255.14561	4006.8625
2258.03893	4011.6625
2260.93041	4001.6625
2263.82004	4006.6625
2266.70783	3989.0625
2269.59378	3988.4625
2272.4779	3963.7625
2275.36017	3945.0625
2278.24061	3956.1625
2281.11922	3932.4625
2283.996	3927.7625
2286.87094	3924.6625
2289.74405	3909.2625
2292.61534	3894.1625
2295.4848	3888.8625
2298.35243	3875.4625
2301.21824	3874.3625
2304.08223	3890.3625
2306.94439	3881.7625
2309.80474	3869.9625
2312.66327	3879.1625
2315.51999	3872.0625
2318.37489	3871.1625
2321.22797	3875.3625
2324.07925	3863.6625
2326.92871	3869.9625
2329.77637	3865.4625
2332.62222	3854.0625
2335.46626	3847.6625
2338.3085	3852.1625
2341.14893	3850.3625
2343.98756	3866.0625
2346.8244	3863.2625
2349.65943	3857.9625
2352.49267	3877.2625
2355.32411	3881.5625
2358.15376	3888.2625
2360.98161	3904.6625
2363.80768	3917.2625
2366.63195	3913.6625
2369.45444	3916.2625
2372.27514	3903.9625
2375.09405	3908.8625
2377.91118	3889.4625
2380.72652	3876.6625
2383.54009	3843.2625
2386.35187	3841.8625
2389.16188	3801.0625
2391.97011	3802.0625
2394.77657	3770.5625
2397.58125	3770.8625
2400.38416	3763.5625
2403.18529	3752.8625
2405.98466	3737.0625
2408.78226	3713.8625
2411.57809	3722.6625
2414.37216	3728.0625
2417.16446	3730.6625
2419.955	3713.3625
2422.74378	3706.4625
2425.5308	3712.8625
2428.31606	3726.9625
2431.09956	3727.4625
2433.88131	3744.1625
2436.6613	3714.7625
2439.43954	3716.8625
2442.21603	3728.6625
2444.99077	3738.7625
2447.76377	3737.2625
2450.53501	3736.3625
2453.30451	3754.1625
2456.07226	3736.9625
2458.83827	3732.0625
2461.60254	3737.5625
2464.36507	3733.8625
2467.12586	3733.1625
2469.88492	3721.9625
2472.64224	3737.2625
2475.39782	3747.4625
2478.15167	3756.6625
2480.90379	3783.7625
2483.65417	3790.7625
2486.40283	3806.2625
2489.14976	3805.2625
2491.89497	3810.8625
2494.63845	3808.1625
2497.3802	3800.3625
2500.12024	3780.0625
2502.85855	3785.0625
2505.59514	3760.3625
2508.33002	3745.7625
2511.06318	3713.2625
2513.79462	3695.6625
2516.52435	3686.8625
2519.25237	3682.0625
2521.97867	3660.6625
2524.70327	3663.6625
2527.42616	3648.0625
2530.14734	3646.5625
2532.86681	3646.4625
2535.58458	3644.2625
2538.30065	3621.5625
2541.01501	3646.8625
2543.72768	3656.7625
2546.43864	3654.4625
2549.14791	3644.9625
2551.85548	3636.5625
2554.56136	3641.4625
2557.26554	3625.8625
2559.96803	3615.1625
2562.66883	3630.8625
2565.36794	3616.1625
2568.06536	3625.2625
2570.7611	3621.7625
2573.45514	3604.5625
2576.14751	3596.5625
2578.83819	3600.6625
2581.52719	3595.6625
2584.21451	3586.0625
2586.90015	3591.7625
2589.58411	3575.1625
2592.2664	3577.5625
2594.94701	3588.8625
2597.62594	3583.6625
2600.30321	3584.5625
2602.9788	3562.2625
2605.65273	3574.4625
2608.32498	3581.0625
2610.99557	3569.7625
2613.66449	3559.9625
2616.33175	3564.5625
2618.99734	3564.7625
2621.66128	3569.4625
2624.32355	3568.2625
2626.98416	3568.8625
2629.64311	3567.0625
2632.30041	3549.7625
2634.95605	3532.3625
2637.61004	3536.2625
2640.26238	3537.3625
2642.91306	3541.0625
2645.56209	3525.8625
2648.20948	3523.3625
2650.85521	3524.6625
2653.4993	3517.6625
2656.14175	3534.6625
2658.78255	3527.0625
2661.42171	3537.3625
2664.05923	3541.0625
2666.6951	3566.5625
2669.32934	3551.5625
2671.96194	3557.5625
2674.59291	3555.9625
2677.22224	3552.3625
2679.84993	3556.7625
2682.476	3538.9625
2685.10043	3545.3625
2687.72324	3543.4625
2690.34441	3537.0625
2692.96396	3541.4625
2695.58188	3537.8625
2698.19818	3536.1625
2700.81285	3539.6625
2703.4259	3529.5625
2706.03733	3548.8625
2708.64714	3533.4625
2711.25533	3559.5625
2713.86191	3549.8625
2716.46687	3547.3625
2719.07021	3557.4625
2721.67194	3547.9625
2724.27206	3545.5625
2726.87057	3548.8625
2729.46747	3549.0625
2732.06276	3551.5625
2734.65644	3549.9625
2737.24852	3540.6625
2739.83899	3516.8625
2742.42786	3533.9625
2745.01513	3511.7625
2747.60079	3495.5625
2750.18486	3504.7625
2752.76733	3500.7625
2755.3482	3493.9625
2757.92747	3484.2625
2760.50515	3481.5625
2763.08123	3482.6625
2765.65573	3478.1625
2768.22863	3482.9625
2770.79994	3453.5625
2773.36967	3472.8625
2775.9378	3461.4625
2778.50435	3469.6625
2781.06932	3465.1625
2783.6327	3463.9625
2786.1945	3475.1625
2788.75471	3472.3625
2791.31335	3476.3625
2793.87041	3476.1625
2796.42589	3464.7625
2798.97979	3469.3625
2801.53212	3472.1625
2804.08288	3459.5625
2806.63206	3459.2625
2809.17967	3468.2625
2811.72571	3463.6625
2814.27018	3469.9625
2816.81308	3483.4625
2819.35442	3481.0625
2821.89419	3464.2625
2824.43239	3488.2625
2826.96904	3463.0625
2829.50412	3487.3625
2832.03763	3475.2625
2834.56959	3477.8625
2837.1	3485.8625
2839.62884	3468.3625
2842.15613	3464.1625
2844.68186	3483.5625
2847.20604	3481.9625
2849.72867	3494.5625
2852.24974	3494.3625
2854.76927	3506.6625
2857.28724	3502.2625
2859.80367	3506.3625
2862.31855	3496.3625
2864.83189	3498.6625
2867.34368	3523.8625
2869.85393	3509.8625
2872.36264	3508.4625
2874.8698	3510.5625
2877.37543	3520.9625
2879.87952	3520.8625
2882.38207	3505.4625
2884.88308	3499.8625
2887.38256	3495.2625
2889.88051	3490.3625
2892.37692	3484.2625
2894.8718	3476.0625
2897.36515	3498.5625
2899.85698	3493.1625
2902.34727	3501.1625
2904.83604	3512.1625
2907.32328	3501.3625
2909.809	3516.0625
2912.29319	3510.2625
2914.77587	3509.6625
2917.25702	3498.1625
2919.73665	3491.8625
2922.21476	3500.9625
2924.69136	3480.5625
2927.16644	3475.3625
2929.64	3469.4625
2932.11205	3455.9625
2934.58258	3445.3625
2937.05161	3443.8625
2939.51912	3447.8625
2941.98513	3431.5625
2944.44962	3433.9625
2946.91261	3415.6625
2949.37409	3422.7625
2951.83407	3412.8625
2954.29254	3420.2625
2956.74951	3418.8625
2959.20498	3405.2625
2961.65895	3402.5625
2964.11142	3409.2625
2966.56239	3399.5625
2969.01186	3402.2625
2971.45984	3381.0625
2973.90632	3380.0625
2976.35131	3370.7625
2978.7948	3367.8625
2981.23681	3351.8625
2983.67732	3352.1625
2986.11635	3329.1625
2988.55388	3325.1625
2990.98993	3323.0625
2993.4245	3319.4625
2995.85758	3304.3625
2998.28917	3309.5625
3000.71928	3309.0625
3003.14791	3298.0625
3005.57506	3301.8625
3008.00073	3292.0625
3010.42493	3302.6625
3012.84764	3283.9625
3015.26888	3285.2625
3017.68865	3281.8625
3020.10694	3286.5625
3022.52376	3284.3625
3024.9391	3255.3625
3027.35298	3254.4625
3029.76539	3263.0625
3032.17632	3242.1625
3034.5858	3242.1625
3036.9938	3238.9625
3039.40034	3221.7625
3041.80542	3235.3625
3044.20903	3224.4625
3046.61118	3224.0625
3049.01187	3220.9625
3051.4111	3216.5625
3053.80888	3211.4625
3056.20519	3190.9625
3058.60005	3191.9625
3060.99345	3197.2625
3063.3854	3189.5625
3065.7759	3182.7625
3068.16494	3178.4625
3070.55254	3158.4625
3072.93868	3159.1625
3075.32338	3150.9625
3077.70662	3133.4625
3080.08842	3139.5625
3082.46878	3119.4625
3084.84769	3139.9625
3087.22515	3144.5625
3089.60118	3138.6625
3091.97576	3141.6625
3094.3489	3151.3625
3096.72061	3138.9625
3099.09087	3129.9625
3101.4597	3140.8625
3103.82709	3134.2625
3106.19305	3148.6625
3108.55757	3148.0625
3110.92066	3143.7625
3113.28232	3132.9625
3115.64255	3122.3625
3118.00134	3128.0625
3120.35871	3100.4625
3122.71466	3122.6625
3125.06917	3113.9625
3127.42226	3111.9625
3129.77393	3119.2625
3132.12417	3119.0625
3134.47299	3133.5625
3136.82039	3122.7625
3139.16636	3126.8625
3141.51092	3125.0625
3143.85406	3132.6625
3146.19579	3135.1625
3148.53609	3160.5625
3150.87499	3153.9625
3153.21246	3165.4625
3155.54853	3154.7625
3157.88318	3158.4625
3160.21642	3164.8625
3162.54826	3169.2625
3164.87868	3179.3625
3167.2077	3161.0625
3169.5353	3162.8625
3171.86151	3177.3625
3174.18631	3173.2625
3176.5097	3179.7625
3178.83169	3172.1625
3181.15228	3169.4625
3183.47147	3167.7625
3185.78926	3172.8625
3188.10565	3167.6625
3190.42065	3167.9625
3192.73424	3174.8625
3195.04645	3184.0625
3197.35725	3178.1625
3199.66667	3180.5625
3201.97469	3186.8625
3204.28132	3194.9625
3206.58656	3188.6625
3208.8904	3213.1625
3211.19287	3210.7625
3213.49394	3214.6625
3215.79363	3218.7625
3218.09193	3220.8625
3220.38884	3232.2625
3222.68438	3238.4625
3224.97853	3228.2625
3227.2713	3237.6625
3229.56269	3231.9625
3231.8527	3233.7625
3234.14133	3228.4625
3236.42858	3234.1625
3238.71446	3227.1625
3240.99896	3207.7625
3243.28209	3207.8625
3245.56384	3207.7625
3247.84423	3219.6625
3250.12324	3205.5625
3252.40088	3209.1625
3254.67715	3215.3625
3256.95205	3211.9625
3259.22558	3213.5625
3261.49775	3213.3625
3263.76855	3209.2625
3266.03799	3215.4625
3268.30606	3219.3625
3270.57277	3204.1625
3272.83812	3204.2625
3275.10211	3199.6625
3277.36474	3207.8625
3279.62601	3212.6625
3281.88593	3198.4625
3284.14448	3201.1625
3286.40168	3219.7625
3288.65753	3214.1625
3290.91202	3223.0625
3293.16516	3225.1625
3295.41695	3212.8625
3297.66738	3203.0625
3299.91647	3195.5625
3302.16421	3171.7625
3304.4106	3155.4625
3306.65564	3147.6625
3308.89933	3117.0625
3311.14169	3097.2625
3313.38269	3072.5625
3315.62236	3056.3625
3317.86068	3021.2625
3320.09766	3004.4625
3322.3333	2988.7625
3324.5676	2974.8625
3326.80056	2938.9625
3329.03219	2921.5625
3331.26248	0.4625
3333.49143	-2.3375
3335.71905	1.3625
