Data from AgNP_FTO_APTES_UA_100uM_CRN_100uM_R6G_10uM_NaF_0.1M_Addition_RamanShift__33__18-26-00-606.txt Node

Date: Thu Mar 24 18:26:00 GMT 2022
User: TCL
Spectrometer: QEP01345
Trigger mode: 4
Integration Time (sec): 7.000000E0
Scans to average: 10
Electric dark correction enabled: true
Nonlinearity correction enabled: false
Boxcar width: 0
XAxis mode: Raman Shifts
Number of Pixels in Spectrum: 1044
>>>>>Begin Spectral Data<<<<<
46.04893	-1.0375
50.45542	-1.8375
54.85868	0.2625
59.25871	-0.3375
63.6555	31.8625
68.04907	35.9625
72.43941	34.7625
76.82654	34.0625
81.21044	42.1625
85.59113	41.6625
89.96862	41.4625
94.34289	41.7625
98.71396	44.3625
103.08183	44.8625
107.4465	44.8625
111.80798	48.7625
116.16626	47.6625
120.52136	46.6625
124.87327	47.4625
129.222	49.8625
133.56755	55.4625
137.90993	52.0625
142.24913	63.7625
146.58517	68.3625
150.91804	76.4625
155.24774	92.5625
159.57429	111.0625
163.89768	142.3625
168.21792	183.7625
172.53501	255.1625
176.84895	349.4625
181.15975	487.7625
185.46741	689.6625
189.77193	939.5625
194.07331	1263.6625
198.37157	1638.0625
202.6667	2020.5625
206.9587	2425.2625
211.24758	2819.7625
215.53334	3240.5625
219.81599	3691.4625
224.09553	4196.6625
228.37195	4757.5625
232.64527	5407.8625
236.91549	6018.0625
241.18261	6604.7625
245.44663	7073.2625
249.70755	7453.8625
253.96539	7748.6625
258.22014	8027.9625
262.4718	8282.9625
266.72039	8456.7625
270.96589	8518.6625
275.20832	8515.8625
279.44768	8406.1625
283.68397	8263.6625
287.91719	8172.7625
292.14735	8150.5625
296.37445	8266.9625
300.59849	8510.4625
304.81948	8805.1625
309.03742	8985.3625
313.25231	8998.6625
317.46415	8736.2625
321.67296	8258.3625
325.87872	7853.4625
330.08145	7598.1625
334.28114	7569.2625
338.47781	7659.1625
342.67145	7805.8625
346.86207	8027.2625
351.04966	8346.6625
355.23424	8660.1625
359.4158	8935.1625
363.59435	9074.5625
367.76989	9097.0625
371.94243	9084.5625
376.11196	9019.5625
380.27849	9018.9625
384.44203	8932.1625
388.60257	8914.1625
392.76012	8904.6625
396.91468	8991.5625
401.06626	9147.1625
405.21485	9287.3625
409.36047	9115.5625
413.50311	8748.8625
417.64277	8383.8625
421.77947	8187.1625
425.9132	8115.7625
430.04396	8146.5625
434.17176	8170.3625
438.2966	8300.6625
442.41849	8489.9625
446.53742	8752.4625
450.6534	9011.7625
454.76644	9175.9625
458.87653	9168.8625
462.98368	9064.5625
467.08789	8947.3625
471.18916	8770.9625
475.2875	8624.3625
479.38291	8469.6625
483.4754	8318.7625
487.56496	8201.2625
491.6516	8089.6625
495.73531	8047.5625
499.81612	8015.5625
503.89401	8070.5625
507.96899	8105.7625
512.04106	8165.1625
516.11023	8209.2625
520.1765	8215.3625
524.23987	8194.0625
528.30034	8132.5625
532.35792	8061.0625
536.41261	7943.0625
540.46441	7794.9625
544.51333	7727.6625
548.55936	7785.6625
552.60252	7966.2625
556.64279	8219.7625
560.6802	8366.8625
564.71473	8453.8625
568.7464	8703.5625
572.7752	8996.5625
576.80114	9038.5625
580.82422	9037.5625
584.84444	9137.6625
588.86181	9331.4625
592.87633	9583.1625
596.888	9769.4625
600.89682	9788.2625
604.9028	10292.2625
608.90594	12310.7625
612.90624	14896.1625
616.90371	14069.3625
620.89834	10190.8625
624.89015	8338.9625
628.87913	8004.8625
632.86528	8217.2625
636.84862	8379.3625
640.82913	8260.4625
644.80683	7855.3625
648.78172	7503.7625
652.75379	7417.6625
656.72306	7638.2625
660.68952	7963.6625
664.65319	7871.9625
668.61405	7467.4625
672.57211	7316.1625
676.52738	7306.1625
680.47986	7290.5625
684.42955	7226.7625
688.37646	7153.8625
692.32058	7169.5625
696.26192	7258.0625
700.20048	7340.9625
704.13626	7419.4625
708.06928	7428.5625
711.99952	7384.3625
715.927	7340.7625
719.85171	7427.3625
723.77365	7444.9625
727.69284	7400.7625
731.60928	7327.0625
735.52295	7345.0625
739.43388	7351.6625
743.34206	7384.4625
747.24749	7390.7625
751.15017	7404.7625
755.05012	7539.7625
758.94733	7886.3625
762.8418	8766.8625
766.73354	10265.3625
770.62254	11764.5625
774.50882	12257.9625
778.39237	11585.8625
782.27321	10088.8625
786.15132	8652.2625
790.02671	7771.2625
793.89938	7371.7625
797.76935	7178.2625
801.6366	7120.9625
805.50115	7078.1625
809.36299	7014.1625
813.22213	6989.6625
817.07857	6968.9625
820.93231	6947.8625
824.78336	6905.8625
828.63172	6917.1625
832.47738	6902.0625
836.32036	6881.9625
840.16066	6854.5625
843.99827	6828.5625
847.8332	6800.8625
851.66546	6816.6625
855.49504	6813.2625
859.32195	6810.5625
863.1462	6766.9625
866.96777	6760.7625
870.78668	6762.9625
874.60293	6789.4625
878.41652	6809.2625
882.22745	6875.9625
886.03573	6924.6625
889.84136	6915.6625
893.64433	6877.7625
897.44466	6858.1625
901.24235	6806.0625
905.0374	6754.7625
908.8298	6706.1625
912.61957	6671.6625
916.40671	6707.7625
920.19121	6780.5625
923.97308	6873.4625
927.75233	6913.6625
931.52895	6903.1625
935.30295	6807.9625
939.07433	6600.1625
942.84309	6448.1625
946.60924	6341.6625
950.37278	6290.8625
954.13371	6276.5625
957.89203	6283.1625
961.64774	6252.2625
965.40086	6236.4625
969.15137	6247.8625
972.89929	6201.2625
976.64461	6182.3625
980.38733	6159.3625
984.12747	6170.4625
987.86502	6191.5625
991.59999	6260.0625
995.33237	6340.2625
999.06217	6479.5625
1002.78939	6676.0625
1006.51404	6884.4625
1010.23611	7058.4625
1013.95561	7142.2625
1017.67255	7131.3625
1021.38692	6989.8625
1025.09872	6801.1625
1028.80796	6682.2625
1032.51465	6641.5625
1036.21877	6697.9625
1039.92035	6731.2625
1043.61937	6766.7625
1047.31584	6772.9625
1051.00976	6788.7625
1054.70114	6780.5625
1058.38998	6792.4625
1062.07627	6843.6625
1065.76003	6896.7625
1069.44126	6954.2625
1073.11995	7096.4625
1076.79611	7230.2625
1080.46974	7353.4625
1084.14085	7532.9625
1087.80943	7722.0625
1091.47549	7800.7625
1095.13903	7709.6625
1098.80005	7489.0625
1102.45857	7245.7625
1106.11456	7126.9625
1109.76805	7161.6625
1113.41903	7300.2625
1117.06751	7568.0625
1120.71348	7875.8625
1124.35696	8246.0625
1127.99793	8521.2625
1131.63641	8536.3625
1135.2724	8206.5625
1138.90589	7872.1625
1142.5369	7679.4625
1146.16542	7536.8625
1149.79145	7467.4625
1153.415	7473.3625
1157.03607	7565.6625
1160.65467	7776.5625
1164.27079	8153.5625
1167.88443	8703.7625
1171.49561	9521.4625
1175.10432	10760.3625
1178.71056	12380.1625
1182.31434	13777.3625
1185.91565	14178.4625
1189.51451	13747.3625
1193.11091	12899.9625
1196.70485	11911.5625
1200.29634	11107.3625
1203.88538	10440.6625
1207.47197	9764.4625
1211.05612	9197.9625
1214.63782	8836.5625
1218.21708	8698.9625
1221.79391	8653.2625
1225.36829	8666.9625
1228.94024	8592.2625
1232.50976	8425.4625
1236.07685	8256.4625
1239.6415	8172.4625
1243.20374	8164.1625
1246.76355	8199.7625
1250.32093	8298.2625
1253.8759	8443.7625
1257.42845	8724.1625
1260.97859	9053.3625
1264.52631	9453.6625
1268.07163	9836.0625
1271.61453	10192.2625
1275.15503	10461.3625
1278.69312	10688.6625
1282.22882	10942.4625
1285.76211	11284.2625
1289.29301	11824.1625
1292.82151	12393.0625
1296.34761	13100.5625
1299.87133	14032.6625
1303.39266	15392.8625
1306.9116	17113.3625
1310.42815	18859.3625
1313.94233	19636.1625
1317.45412	19072.2625
1320.96354	17831.3625
1324.47058	16582.8625
1327.97525	15490.2625
1331.47754	14679.7625
1334.97747	14238.0625
1338.47502	14144.8625
1341.97022	14324.2625
1345.46305	14715.9625
1348.95352	15385.6625
1352.44163	16404.6625
1355.92738	17940.7625
1359.41078	20295.2625
1362.89183	22564.9625
1366.37053	22027.4625
1369.84688	18684.6625
1373.32088	15306.0625
1376.79254	13274.3625
1380.26186	12304.4625
1383.72883	11724.1625
1387.19347	11255.1625
1390.65578	10866.9625
1394.11575	10626.6625
1397.57339	10589.6625
1401.0287	10703.5625
1404.48168	10774.5625
1407.93234	10748.7625
1411.38068	10649.0625
1414.82669	10402.6625
1418.27039	10124.3625
1421.71177	9752.8625
1425.15083	9389.6625
1428.58758	9206.9625
1432.02203	9283.3625
1435.45416	9505.7625
1438.88399	9689.3625
1442.31151	9825.9625
1445.73673	9929.3625
1449.15965	10065.2625
1452.58027	10105.8625
1455.9986	10078.3625
1459.41463	10135.5625
1462.82837	10343.1625
1466.23982	10718.7625
1469.64898	11099.5625
1473.05586	11413.5625
1476.46045	11616.1625
1479.86276	11758.2625
1483.26279	11914.1625
1486.66054	12151.6625
1490.05602	12534.5625
1493.44922	13145.5625
1496.84016	14008.8625
1500.22882	15268.5625
1503.61521	17118.9625
1506.99934	19119.7625
1510.38121	20483.0625
1513.76081	20360.4625
1517.13816	18583.4625
1520.51324	16239.7625
1523.88607	14219.0625
1527.25665	12966.1625
1530.62498	12319.6625
1533.99105	11914.7625
1537.35488	11613.7625
1540.71647	11272.3625
1544.07581	10928.5625
1547.4329	10663.3625
1550.78776	10460.5625
1554.14038	10344.5625
1557.49077	10345.1625
1560.83892	10537.8625
1564.18484	10887.0625
1567.52853	11340.7625
1570.86999	11784.6625
1574.20922	12043.1625
1577.54624	12023.1625
1580.88103	11430.1625
1584.2136	10717.6625
1587.54395	10383.8625
1590.87208	10624.1625
1594.19801	11287.9625
1597.52172	12188.1625
1600.84321	12523.3625
1604.16251	12034.4625
1607.47959	11087.8625
1610.79447	10106.2625
1614.10715	9213.4625
1617.41763	8453.1625
1620.7259	7957.7625
1624.03199	7701.4625
1627.33587	7645.3625
1630.63757	7896.8625
1633.93707	8446.6625
1637.23439	9456.6625
1640.52951	11064.4625
1643.82246	13303.6625
1647.11321	15600.1625
1650.40179	16789.0625
1653.68819	15902.9625
1656.97241	13407.9625
1660.25446	10713.1625
1663.53433	8793.6625
1666.81203	7619.1625
1670.08756	6936.9625
1673.36092	6511.9625
1676.63211	6257.5625
1679.90115	6052.4625
1683.16801	5929.2625
1686.43272	5798.0625
1689.69527	5713.2625
1692.95567	5642.7625
1696.2139	5592.4625
1699.46999	5550.6625
1702.72392	5513.1625
1705.97571	5502.9625
1709.22535	5475.5625
1712.47284	5447.6625
1715.71819	5443.4625
1718.96139	5381.8625
1722.20246	5357.3625
1725.44139	5320.5625
1728.67818	5275.8625
1731.91284	5212.7625
1735.14537	5172.0625
1738.37576	5136.6625
1741.60403	5114.7625
1744.83017	5083.5625
1748.05418	5061.7625
1751.27607	5047.6625
1754.49584	5028.2625
1757.71349	5003.3625
1760.92903	5000.6625
1764.14244	4987.5625
1767.35375	4976.5625
1770.56294	4951.4625
1773.77002	4921.0625
1776.97499	4911.0625
1780.17785	4878.3625
1783.37861	4866.4625
1786.57727	4852.9625
1789.77382	4851.2625
1792.96828	4844.1625
1796.16064	4825.4625
1799.3509	4811.2625
1802.53907	4805.3625
1805.72514	4781.3625
1808.90913	4740.3625
1812.09102	4739.7625
1815.27083	4731.8625
1818.44856	4689.7625
1821.6242	4702.0625
1824.79776	4681.8625
1827.96924	4639.0625
1831.13864	4657.1625
1834.30597	4654.3625
1837.47122	4653.7625
1840.6344	4633.2625
1843.7955	4630.1625
1846.95454	4629.8625
1850.11151	4612.7625
1853.26642	4593.9625
1856.41926	4590.2625
1859.57004	4578.3625
1862.71876	4591.9625
1865.86542	4581.0625
1869.01003	4571.6625
1872.15258	4579.5625
1875.29308	4564.0625
1878.43152	4544.6625
1881.56792	4548.6625
1884.70227	4563.7625
1887.83457	4551.1625
1890.96482	4544.9625
1894.09304	4533.5625
1897.21921	4530.9625
1900.34335	4529.4625
1903.46544	4512.7625
1906.58551	4508.2625
1909.70353	4504.1625
1912.81953	4503.8625
1915.93349	4493.7625
1919.04543	4476.9625
1922.15534	4466.0625
1925.26322	4456.8625
1928.36908	4432.9625
1931.47292	4422.6625
1934.57473	4417.1625
1937.67453	4393.8625
1940.77232	4383.2625
1943.86808	4376.8625
1946.96184	4348.3625
1950.05358	4340.9625
1953.14331	4313.4625
1956.23103	4300.5625
1959.31675	4284.5625
1962.40046	4270.7625
1965.48217	4281.5625
1968.56188	4255.9625
1971.63959	4241.9625
1974.7153	4241.5625
1977.78901	4225.6625
1980.86073	4197.7625
1983.93046	4185.2625
1986.99819	4172.7625
1990.06394	4150.9625
1993.1277	4126.8625
1996.18947	4138.8625
1999.24925	4109.1625
2002.30706	4073.1625
2005.36288	4063.4625
2008.41672	4063.7625
2011.46859	4033.1625
2014.51848	4023.9625
2017.56639	4013.4625
2020.61233	3994.9625
2023.6563	4004.8625
2026.6983	3961.9625
2029.73833	3965.3625
2032.7764	3962.8625
2035.8125	3942.5625
2038.84664	3939.6625
2041.87881	3923.6625
2044.90903	3930.4625
2047.93729	3912.0625
2050.96359	3912.2625
2053.98794	3887.2625
2057.01034	3883.5625
2060.03078	3868.9625
2063.04927	3858.3625
2066.06582	3852.0625
2069.08042	3853.6625
2072.09307	3853.7625
2075.10378	3861.7625
2078.11255	3846.8625
2081.11938	3853.4625
2084.12426	3857.9625
2087.12722	3843.6625
2090.12824	3854.3625
2093.12732	3829.1625
2096.12447	3839.6625
2099.11969	3845.5625
2102.11299	3840.7625
2105.10435	3843.7625
2108.09379	3852.5625
2111.08131	3853.6625
2114.0669	3845.2625
2117.05057	3837.8625
2120.03233	3843.7625
2123.01216	3861.0625
2125.99008	3841.2625
2128.96609	3855.9625
2131.94018	3855.1625
2134.91236	3836.8625
2137.88263	3845.1625
2140.851	3845.3625
2143.81746	3832.4625
2146.78201	3829.6625
2149.74466	3827.5625
2152.7054	3841.5625
2155.66425	3820.6625
2158.6212	3802.3625
2161.57625	3820.2625
2164.52941	3812.4625
2167.48067	3795.4625
2170.43004	3792.3625
2173.37752	3809.4625
2176.32311	3789.0625
2179.26681	3798.0625
2182.20863	3788.0625
2185.14856	3803.6625
2188.08661	3793.5625
2191.02278	3789.8625
2193.95707	3785.8625
2196.88948	3780.9625
2199.82001	3783.9625
2202.74867	3763.4625
2205.67545	3760.9625
2208.60037	3751.6625
2211.52341	3744.9625
2214.44458	3744.0625
2217.36388	3726.5625
2220.28132	3716.8625
2223.1969	3711.2625
2226.11061	3691.0625
2229.02246	3675.7625
2231.93245	3683.7625
2234.84058	3680.8625
2237.74686	3672.4625
2240.65128	3679.3625
2243.55385	3667.9625
2246.45456	3657.4625
2249.35343	3662.1625
2252.25044	3659.4625
2255.14561	3655.0625
2258.03893	3655.9625
2260.93041	3642.4625
2263.82004	3644.3625
2266.70783	3635.0625
2269.59378	3626.2625
2272.4779	3607.6625
2275.36017	3608.4625
2278.24061	3596.1625
2281.11922	3582.9625
2283.996	3581.2625
2286.87094	3571.0625
2289.74405	3549.8625
2292.61534	3533.0625
2295.4848	3546.4625
2298.35243	3538.6625
2301.21824	3544.7625
2304.08223	3518.9625
2306.94439	3527.0625
2309.80474	3535.5625
2312.66327	3520.2625
2315.51999	3517.3625
2318.37489	3526.0625
2321.22797	3514.1625
2324.07925	3510.6625
2326.92871	3504.4625
2329.77637	3499.3625
2332.62222	3494.9625
2335.46626	3492.7625
2338.3085	3484.6625
2341.14893	3492.2625
2343.98756	3479.9625
2346.8244	3489.1625
2349.65943	3490.4625
2352.49267	3510.7625
2355.32411	3500.0625
2358.15376	3510.5625
2360.98161	3508.8625
2363.80768	3523.8625
2366.63195	3526.8625
2369.45444	3528.8625
2372.27514	3517.8625
2375.09405	3514.4625
2377.91118	3514.7625
2380.72652	3491.7625
2383.54009	3481.8625
2386.35187	3470.1625
2389.16188	3448.3625
2391.97011	3440.3625
2394.77657	3434.3625
2397.58125	3404.6625
2400.38416	3407.4625
2403.18529	3392.2625
2405.98466	3390.4625
2408.78226	3378.9625
2411.57809	3374.5625
2414.37216	3355.7625
2417.16446	3373.7625
2419.955	3351.7625
2422.74378	3357.9625
2425.5308	3338.4625
2428.31606	3359.6625
2431.09956	3341.4625
2433.88131	3348.3625
2436.6613	3346.9625
2439.43954	3360.1625
2442.21603	3339.8625
2444.99077	3346.7625
2447.76377	3353.8625
2450.53501	3362.4625
2453.30451	3364.1625
2456.07226	3342.6625
2458.83827	3348.3625
2461.60254	3348.5625
2464.36507	3360.2625
2467.12586	3347.0625
2469.88492	3355.6625
2472.64224	3355.2625
2475.39782	3353.6625
2478.15167	3368.3625
2480.90379	3367.0625
2483.65417	3374.1625
2486.40283	3385.8625
2489.14976	3390.6625
2491.89497	3398.6625
2494.63845	3394.7625
2497.3802	3387.3625
2500.12024	3379.9625
2502.85855	3386.8625
2505.59514	3369.2625
2508.33002	3339.7625
2511.06318	3330.4625
2513.79462	3316.7625
2516.52435	3311.4625
2519.25237	3310.0625
2521.97867	3295.2625
2524.70327	3301.0625
2527.42616	3289.9625
2530.14734	3283.8625
2532.86681	3283.1625
2535.58458	3280.1625
2538.30065	3269.6625
2541.01501	3282.3625
2543.72768	3273.9625
2546.43864	3284.6625
2549.14791	3273.0625
2551.85548	3275.5625
2554.56136	3268.1625
2557.26554	3258.8625
2559.96803	3261.2625
2562.66883	3247.0625
2565.36794	3239.4625
2568.06536	3252.2625
2570.7611	3231.5625
2573.45514	3225.3625
2576.14751	3229.7625
2578.83819	3222.1625
2581.52719	3220.8625
2584.21451	3218.3625
2586.90015	3226.4625
2589.58411	3209.6625
2592.2664	3217.1625
2594.94701	3214.4625
2597.62594	3204.7625
2600.30321	3193.6625
2602.9788	3200.5625
2605.65273	3197.9625
2608.32498	3198.2625
2610.99557	3192.9625
2613.66449	3191.2625
2616.33175	3196.0625
2618.99734	3203.8625
2621.66128	3202.4625
2624.32355	3200.4625
2626.98416	3197.7625
2629.64311	3193.0625
2632.30041	3185.4625
2634.95605	3191.3625
2637.61004	3172.6625
2640.26238	3182.8625
2642.91306	3180.0625
2645.56209	3175.5625
2648.20948	3168.7625
2650.85521	3177.1625
2653.4993	3163.1625
2656.14175	3189.0625
2658.78255	3172.5625
2661.42171	3189.5625
2664.05923	3190.0625
2666.6951	3189.4625
2669.32934	3205.0625
2671.96194	3203.4625
2674.59291	3200.4625
2677.22224	3195.0625
2679.84993	3217.9625
2682.476	3181.5625
2685.10043	3185.5625
2687.72324	3167.2625
2690.34441	3172.5625
2692.96396	3178.1625
2695.58188	3179.6625
2698.19818	3159.3625
2700.81285	3173.0625
2703.4259	3166.2625
2706.03733	3169.2625
2708.64714	3164.9625
2711.25533	3181.6625
2713.86191	3181.5625
2716.46687	3197.8625
2719.07021	3190.7625
2721.67194	3200.7625
2724.27206	3197.6625
2726.87057	3199.1625
2729.46747	3196.2625
2732.06276	3188.2625
2734.65644	3181.7625
2737.24852	3190.2625
2739.83899	3173.2625
2742.42786	3177.9625
2745.01513	3160.0625
2747.60079	3147.7625
2750.18486	3160.1625
2752.76733	3155.3625
2755.3482	3129.3625
2757.92747	3155.0625
2760.50515	3136.0625
2763.08123	3129.8625
2765.65573	3150.2625
2768.22863	3145.4625
2770.79994	3139.1625
2773.36967	3149.4625
2775.9378	3136.3625
2778.50435	3127.6625
2781.06932	3137.5625
2783.6327	3139.2625
2786.1945	3141.1625
2788.75471	3142.3625
2791.31335	3141.7625
2793.87041	3147.7625
2796.42589	3125.0625
2798.97979	3150.5625
2801.53212	3130.3625
2804.08288	3121.0625
2806.63206	3117.1625
2809.17967	3121.6625
2811.72571	3110.0625
2814.27018	3121.9625
2816.81308	3116.3625
2819.35442	3117.5625
2821.89419	3117.2625
2824.43239	3121.5625
2826.96904	3100.5625
2829.50412	3113.0625
2832.03763	3102.1625
2834.56959	3095.6625
2837.1	3101.8625
2839.62884	3101.0625
2842.15613	3108.3625
2844.68186	3113.4625
2847.20604	3102.9625
2849.72867	3118.9625
2852.24974	3117.2625
2854.76927	3137.5625
2857.28724	3105.9625
2859.80367	3125.7625
2862.31855	3119.4625
2864.83189	3120.6625
2867.34368	3118.5625
2869.85393	3118.1625
2872.36264	3121.6625
2874.8698	3115.0625
2877.37543	3124.7625
2879.87952	3138.6625
2882.38207	3119.1625
2884.88308	3116.0625
2887.38256	3119.7625
2889.88051	3117.2625
2892.37692	3113.6625
2894.8718	3123.3625
2897.36515	3121.9625
2899.85698	3128.5625
2902.34727	3113.3625
2904.83604	3104.6625
2907.32328	3127.0625
2909.809	3113.0625
2912.29319	3134.3625
2914.77587	3135.2625
2917.25702	3133.1625
2919.73665	3116.2625
2922.21476	3124.2625
2924.69136	3119.8625
2927.16644	3121.9625
2929.64	3112.4625
2932.11205	3087.1625
2934.58258	3093.7625
2937.05161	3081.2625
2939.51912	3084.8625
2941.98513	3072.0625
2944.44962	3067.5625
2946.91261	3054.3625
2949.37409	3058.7625
2951.83407	3061.5625
2954.29254	3061.4625
2956.74951	3059.3625
2959.20498	3060.3625
2961.65895	3052.3625
2964.11142	3051.9625
2966.56239	3050.8625
2969.01186	3024.7625
2971.45984	3022.2625
2973.90632	3026.2625
2976.35131	2996.0625
2978.7948	3012.7625
2981.23681	2997.3625
2983.67732	2997.3625
2986.11635	2987.7625
2988.55388	2971.2625
2990.98993	2973.3625
2993.4245	2971.2625
2995.85758	2952.5625
2998.28917	2961.1625
3000.71928	2958.4625
3003.14791	2952.4625
3005.57506	2942.0625
3008.00073	2945.6625
3010.42493	2949.0625
3012.84764	2926.6625
3015.26888	2927.7625
3017.68865	2922.4625
3020.10694	2932.0625
3022.52376	2916.3625
3024.9391	2918.4625
3027.35298	2893.3625
3029.76539	2906.0625
3032.17632	2893.2625
3034.5858	2872.3625
3036.9938	2878.2625
3039.40034	2876.3625
3041.80542	2885.2625
3044.20903	2870.1625
3046.61118	2872.5625
3049.01187	2885.3625
3051.4111	2874.9625
3053.80888	2862.0625
3056.20519	2857.5625
3058.60005	2855.9625
3060.99345	2849.7625
3063.3854	2838.8625
3065.7759	2834.4625
3068.16494	2840.5625
3070.55254	2824.2625
3072.93868	2825.8625
3075.32338	2818.2625
3077.70662	2804.9625
3080.08842	2814.7625
3082.46878	2810.2625
3084.84769	2795.1625
3087.22515	2809.2625
3089.60118	2809.4625
3091.97576	2813.3625
3094.3489	2809.0625
3096.72061	2806.2625
3099.09087	2817.9625
3101.4597	2821.5625
3103.82709	2803.3625
3106.19305	2803.2625
3108.55757	2799.5625
3110.92066	2797.6625
3113.28232	2801.7625
3115.64255	2798.8625
3118.00134	2799.3625
3120.35871	2795.4625
3122.71466	2791.4625
3125.06917	2782.9625
3127.42226	2785.6625
3129.77393	2788.5625
3132.12417	2787.9625
3134.47299	2802.8625
3136.82039	2788.8625
3139.16636	2790.4625
3141.51092	2788.7625
3143.85406	2791.7625
3146.19579	2794.7625
3148.53609	2797.6625
3150.87499	2806.7625
3153.21246	2816.2625
3155.54853	2813.7625
3157.88318	2812.4625
3160.21642	2822.0625
3162.54826	2838.7625
3164.87868	2829.9625
3167.2077	2834.1625
3169.5353	2839.1625
3171.86151	2842.1625
3174.18631	2839.5625
3176.5097	2836.2625
3178.83169	2839.9625
3181.15228	2836.2625
3183.47147	2832.2625
3185.78926	2832.6625
3188.10565	2833.5625
3190.42065	2842.2625
3192.73424	2848.6625
3195.04645	2840.5625
3197.35725	2848.1625
3199.66667	2843.5625
3201.97469	2852.1625
3204.28132	2839.3625
3206.58656	2872.0625
3208.8904	2856.3625
3211.19287	2856.4625
3213.49394	2859.2625
3215.79363	2863.4625
3218.09193	2873.6625
3220.38884	2872.3625
3222.68438	2872.5625
3224.97853	2890.8625
3227.2713	2868.4625
3229.56269	2872.2625
3231.8527	2879.5625
3234.14133	2865.4625
3236.42858	2854.2625
3238.71446	2872.6625
3240.99896	2868.7625
3243.28209	2850.4625
3245.56384	2862.6625
3247.84423	2845.8625
3250.12324	2842.1625
3252.40088	2851.0625
3254.67715	2840.9625
3256.95205	2840.5625
3259.22558	2847.6625
3261.49775	2836.2625
3263.76855	2840.3625
3266.03799	2836.0625
3268.30606	2835.5625
3270.57277	2842.1625
3272.83812	2836.6625
3275.10211	2835.3625
3277.36474	2823.1625
3279.62601	2837.3625
3281.88593	2827.5625
3284.14448	2834.0625
3286.40168	2838.0625
3288.65753	2830.7625
3290.91202	2829.3625
3293.16516	2824.4625
3295.41695	2822.1625
3297.66738	2813.7625
3299.91647	2789.7625
3302.16421	2784.4625
3304.4106	2789.8625
3306.65564	2765.2625
3308.89933	2736.3625
3311.14169	2734.9625
3313.38269	2703.3625
3315.62236	2686.9625
3317.86068	2669.8625
3320.09766	2646.7625
3322.3333	2638.1625
3324.5676	2627.5625
3326.80056	2569.7625
3329.03219	2558.2625
3331.26248	1.5625
3333.49143	-1.3375
3335.71905	1.3625
