Data from AgNP_FTO_APTES_UA_100uM_CRN_10uM_R6G_10uM_NaF_0.1M_Addition_RamanShift__53__16-18-50-465.txt Node

Date: Thu Mar 24 16:18:50 GMT 2022
User: TCL
Spectrometer: QEP01345
Trigger mode: 4
Integration Time (sec): 7.000000E0
Scans to average: 10
Electric dark correction enabled: true
Nonlinearity correction enabled: false
Boxcar width: 0
XAxis mode: Raman Shifts
Number of Pixels in Spectrum: 1044
>>>>>Begin Spectral Data<<<<<
46.04893	-0.6
50.45542	-0.5
54.85868	0.8
59.25871	-0.2
63.6555	33
68.04907	32.9
72.43941	35.4
76.82654	35.8
81.21044	40.3
85.59113	42.1
89.96862	42.2
94.34289	41.1
98.71396	44.1
103.08183	42.9
107.4465	47.2
111.80798	49.5
116.16626	48.1
120.52136	50.9
124.87327	49.9
129.222	55.5
133.56755	57.1
137.90993	60.8
142.24913	72.2
146.58517	78.6
150.91804	97.1
155.24774	115
159.57429	148.6
163.89768	187.6
168.21792	255.5
172.53501	346.2
176.84895	485.3
181.15975	697
185.46741	979.4
189.77193	1353.5
194.07331	1831
198.37157	2396.9
202.6667	2987.5
206.9587	3614.3
211.24758	4285.6
215.53334	5021.5
219.81599	5904.2
224.09553	6919.4
228.37195	8050.4
232.64527	9212.3
236.91549	10259.1
241.18261	11044.8
245.44663	11540.9
249.70755	11849.6
253.96539	12124.3
258.22014	12421.8
262.4718	12609.5
266.72039	12647.7
270.96589	12413.7
275.20832	12002.4
279.44768	11529.8
283.68397	11103.9
287.91719	10934.7
292.14735	11140.2
296.37445	11890.3
300.59849	13147.4
304.81948	14683.3
309.03742	15989
313.25231	16373.9
317.46415	15372.1
321.67296	13295.3
325.87872	11437.8
330.08145	10572.8
334.28114	10443.6
338.47781	10808.4
342.67145	11384.1
346.86207	12316.1
351.04966	13828.7
355.23424	15574.9
359.4158	16720.2
363.59435	17005.3
367.76989	16695.7
371.94243	16124
376.11196	15563
380.27849	15018.7
384.44203	14392.2
388.60257	13831
392.76012	13497.7
396.91468	13602.4
401.06626	14106.3
405.21485	14472.7
409.36047	13788.3
413.50311	12209.4
417.64277	10723.5
421.77947	9837.3
425.9132	9464.7
430.04396	9324.4
434.17176	9321.6
438.2966	9564.6
442.41849	9957.7
446.53742	10447.4
450.6534	10861.1
454.76644	10972.5
458.87653	10739.3
462.98368	10379.3
467.08789	10013
471.18916	9579.1
475.2875	9111.8
479.38291	8708
483.4754	8437.2
487.56496	8243.7
491.6516	8170.5
495.73531	8149.6
499.81612	8243.2
503.89401	8494.1
507.96899	8792.3
512.04106	9218.4
516.11023	9652.5
520.1765	9999.9
524.23987	10052.4
528.30034	9848.3
532.35792	9631.5
536.41261	9277.6
540.46441	8764.7
544.51333	8443.8
548.55936	8498.8
552.60252	8948.9
556.64279	9489.6
560.6802	9785.8
564.71473	10377.4
568.7464	11686.8
572.7752	12085.9
576.80114	10688.6
580.82422	9277.7
584.84444	8636.1
588.86181	8448.8
592.87633	8507.3
596.888	8736.6
600.89682	9553.6
604.9028	12664.3
608.90594	21389.1
612.90624	33021.3
616.90371	31038.9
620.89834	16721
624.89015	10101.1
628.87913	9017.1
632.86528	9473.9
636.84862	9965.6
640.82913	9396.6
644.80683	8221.5
648.78172	7504.1
652.75379	7615.5
656.72306	8606.8
660.68952	9771.8
664.65319	9333
668.61405	7993
672.57211	7350.4
676.52738	7309
680.47986	7247.8
684.42955	7008
688.37646	6902.7
692.32058	6925.2
696.26192	7074.7
700.20048	7332.7
704.13626	7521
708.06928	7450.3
711.99952	7334.2
715.927	7339.3
719.85171	7495.9
723.77365	7580.3
727.69284	7477.1
731.60928	7338.1
735.52295	7311.7
739.43388	7340.8
743.34206	7389.3
747.24749	7368.5
751.15017	7416.2
755.05012	7763.6
758.94733	9058.6
762.8418	12258.2
766.73354	17172.4
770.62254	21385.5
774.50882	23104.3
778.39237	21649.3
782.27321	16925.1
786.15132	12010.7
790.02671	9208.1
793.89938	8006
797.76935	7496.2
801.6366	7286.3
805.50115	7192.6
809.36299	7126.9
813.22213	7052.3
817.07857	7017.8
820.93231	7040.6
824.78336	7161.8
828.63172	7326.1
832.47738	7374.9
836.32036	7235.9
840.16066	7016.6
843.99827	6876.7
847.8332	6793.8
851.66546	6806.4
855.49504	6811.1
859.32195	6775.6
863.1462	6708.1
866.96777	6677.4
870.78668	6678.8
874.60293	6737.8
878.41652	6840
882.22745	6999.8
886.03573	7092.4
889.84136	7039.6
893.64433	6979.2
897.44466	6985.9
901.24235	7028.7
905.0374	6941.5
908.8298	6765.3
912.61957	6653.6
916.40671	6607.1
920.19121	6706.5
923.97308	6905.4
927.75233	7287.4
931.52895	7702.5
935.30295	7524.3
939.07433	6866.8
942.84309	6394.9
946.60924	6145
950.37278	6006
954.13371	5963.9
957.89203	5897.9
961.64774	5897.3
965.40086	5881
969.15137	5851
972.89929	5831.1
976.64461	5822.3
980.38733	5811
984.12747	5822.4
987.86502	5870
991.59999	5923.9
995.33237	6046.3
999.06217	6230.4
1002.78939	6530.7
1006.51404	6894.2
1010.23611	7168
1013.95561	7231
1017.67255	7103.4
1021.38692	6903.7
1025.09872	6666.3
1028.80796	6521.7
1032.51465	6558.4
1036.21877	6706.9
1039.92035	6844.5
1043.61937	6929.8
1047.31584	6994.1
1051.00976	6975.7
1054.70114	6874.1
1058.38998	6799.5
1062.07627	6831.4
1065.76003	6816.9
1069.44126	6878.6
1073.11995	7064.1
1076.79611	7427.5
1080.46974	8051.5
1084.14085	8867.9
1087.80943	9555.6
1091.47549	9638.4
1095.13903	9109.9
1098.80005	8284.8
1102.45857	7752.6
1106.11456	7675.3
1109.76805	7952.7
1113.41903	8729.3
1117.06751	9874.3
1120.71348	11485.5
1124.35696	13254
1127.99793	14097.3
1131.63641	12901.1
1135.2724	10948.5
1138.90589	9529.8
1142.5369	8693.7
1146.16542	8151.4
1149.79145	7849
1153.415	7786.8
1157.03607	7936.4
1160.65467	8295.8
1164.27079	8984.8
1167.88443	10125.1
1171.49561	11967.2
1175.10432	15123.7
1178.71056	19110.9
1182.31434	21792
1185.91565	22077.1
1189.51451	20758.1
1193.11091	18399.6
1196.70485	15820
1200.29634	14070
1203.88538	12702
1207.47197	10997.7
1211.05612	9510.7
1214.63782	8670.3
1218.21708	8319.6
1221.79391	8202
1225.36829	8186.9
1228.94024	8152.9
1232.50976	8077.8
1236.07685	8082.2
1239.6415	8175.9
1243.20374	8357.6
1246.76355	8519.3
1250.32093	8723.8
1253.8759	9111.7
1257.42845	9726
1260.97859	10558
1264.52631	11419.4
1268.07163	12119.6
1271.61453	12580.6
1275.15503	12635
1278.69312	12572.7
1282.22882	12813.2
1285.76211	13648.6
1289.29301	14661.6
1292.82151	15458.7
1296.34761	16398.3
1299.87133	18156.2
1303.39266	21712
1306.9116	27503.2
1310.42815	33658.8
1313.94233	35795
1317.45412	32155
1320.96354	26410.8
1324.47058	21090.6
1327.97525	17001.1
1331.47754	14688.5
1334.97747	13875.7
1338.47502	14240.1
1341.97022	15804.5
1345.46305	18628.9
1348.95352	22364.3
1352.44163	26819.2
1355.92738	33486.5
1359.41078	43685
1362.89183	50909
1366.37053	45214.3
1369.84688	32728
1373.32088	23284.9
1376.79254	18257.3
1380.26186	15422.9
1383.72883	13647.1
1387.19347	12301.7
1390.65578	11052.9
1394.11575	10103.2
1397.57339	9575.4
1401.0287	9354.2
1404.48168	9238.6
1407.93234	9166.7
1411.38068	9368.7
1414.82669	9694.8
1418.27039	9925.7
1421.71177	9910.8
1425.15083	9743.8
1428.58758	9910.5
1432.02203	10351
1435.45416	10543.2
1438.88399	10355.9
1442.31151	10164.2
1445.73673	10232.4
1449.15965	10342.5
1452.58027	10230.6
1455.9986	9881.4
1459.41463	9764.9
1462.82837	10042
1466.23982	10545.1
1469.64898	11019.3
1473.05586	11193.3
1476.46045	11275
1479.86276	11544.6
1483.26279	12180.4
1486.66054	13179.3
1490.05602	14703.8
1493.44922	17012.4
1496.84016	20621.5
1500.22882	26383.4
1503.61521	34430.7
1506.99934	43662.6
1510.38121	50915.3
1513.76081	51775.6
1517.13816	44678.3
1520.51324	33879.1
1523.88607	24854.8
1527.25665	19384.1
1530.62498	16371.2
1533.99105	14570.2
1537.35488	13398.8
1540.71647	12732.2
1544.07581	12501.5
1547.4329	12494.7
1550.78776	12693.6
1554.14038	13129.7
1557.49077	13745.4
1560.83892	14690
1564.18484	16081.9
1567.52853	17532.9
1570.86999	18451.1
1574.20922	18867.7
1577.54624	18347.5
1580.88103	16130
1584.2136	13281
1587.54395	11524.1
1590.87208	11239
1594.19801	12216.9
1597.52172	13833
1600.84321	14516.8
1604.16251	13848.8
1607.47959	12751.8
1610.79447	11603.9
1614.10715	10299.7
1617.41763	9165.8
1620.7259	8485.4
1624.03199	8202.4
1627.33587	8344.8
1630.63757	8820.6
1633.93707	9856.5
1637.23439	11610.4
1640.52951	14743.1
1643.82246	19924.4
1647.11321	26367.4
1650.40179	30617.3
1653.68819	28551.1
1656.97241	21729.3
1660.25446	15156.6
1663.53433	11012.2
1666.81203	8809
1670.08756	7611.5
1673.36092	6907.5
1676.63211	6478.5
1679.90115	6205.3
1683.16801	5990.2
1686.43272	5852.4
1689.69527	5755.6
1692.95567	5707
1696.2139	5671.1
1699.46999	5667.3
1702.72392	5622.1
1705.97571	5597.6
1709.22535	5606.2
1712.47284	5611.6
1715.71819	5609.5
1718.96139	5608.4
1722.20246	5556.4
1725.44139	5495.6
1728.67818	5369.8
1731.91284	5254.1
1735.14537	5181.7
1738.37576	5135.1
1741.60403	5099.6
1744.83017	5043.5
1748.05418	5018
1751.27607	4977.5
1754.49584	4955.6
1757.71349	4940.4
1760.92903	4913.5
1764.14244	4881.7
1767.35375	4826.5
1770.56294	4798.6
1773.77002	4737.6
1776.97499	4682.8
1780.17785	4623.5
1783.37861	4588.6
1786.57727	4562.5
1789.77382	4527.4
1792.96828	4517.6
1796.16064	4508.2
1799.3509	4499.8
1802.53907	4482.7
1805.72514	4449.1
1808.90913	4428.3
1812.09102	4406.7
1815.27083	4371
1818.44856	4347.2
1821.6242	4328.8
1824.79776	4326.1
1827.96924	4302.4
1831.13864	4276.9
1834.30597	4270.2
1837.47122	4242.3
1840.6344	4222.3
1843.7955	4214.4
1846.95454	4196.5
1850.11151	4184
1853.26642	4172.6
1856.41926	4196.1
1859.57004	4176.3
1862.71876	4193.7
1865.86542	4192.4
1869.01003	4202
1872.15258	4204.2
1875.29308	4201.4
1878.43152	4219.3
1881.56792	4210.9
1884.70227	4179
1887.83457	4177.3
1890.96482	4172.8
1894.09304	4165.7
1897.21921	4154.7
1900.34335	4148.9
1903.46544	4146.8
1906.58551	4149
1909.70353	4158.1
1912.81953	4137.9
1915.93349	4134.4
1919.04543	4128.1
1922.15534	4089.6
1925.26322	4071.7
1928.36908	4044.4
1931.47292	4023.6
1934.57473	3987.8
1937.67453	3953.3
1940.77232	3930.7
1943.86808	3921.3
1946.96184	3895.5
1950.05358	3890.7
1953.14331	3874.7
1956.23103	3864
1959.31675	3866.6
1962.40046	3859.5
1965.48217	3865.6
1968.56188	3878.4
1971.63959	3893.2
1974.7153	3888.1
1977.78901	3863
1980.86073	3818.6
1983.93046	3787.4
1986.99819	3746.6
1990.06394	3706
1993.1277	3695.3
1996.18947	3679.7
1999.24925	3650
2002.30706	3643.4
2005.36288	3649.5
2008.41672	3603.6
2011.46859	3586.1
2014.51848	3576.7
2017.56639	3569
2020.61233	3557.6
2023.6563	3536.8
2026.6983	3521.8
2029.73833	3511
2032.7764	3506.5
2035.8125	3504.4
2038.84664	3494
2041.87881	3487.1
2044.90903	3487.5
2047.93729	3481.3
2050.96359	3451.3
2053.98794	3451.3
2057.01034	3426.2
2060.03078	3419.2
2063.04927	3400.3
2066.06582	3394.7
2069.08042	3391.7
2072.09307	3391.4
2075.10378	3369.1
2078.11255	3374.1
2081.11938	3404
2084.12426	3379.3
2087.12722	3378
2090.12824	3379.4
2093.12732	3362.3
2096.12447	3378
2099.11969	3370.7
2102.11299	3366.8
2105.10435	3374.7
2108.09379	3380.6
2111.08131	3393.9
2114.0669	3403.2
2117.05057	3398.7
2120.03233	3420.6
2123.01216	3445.9
2125.99008	3451.1
2128.96609	3457
2131.94018	3442.5
2134.91236	3433.1
2137.88263	3415.6
2140.851	3404.3
2143.81746	3401
2146.78201	3381.7
2149.74466	3350.4
2152.7054	3343.6
2155.66425	3328.7
2158.6212	3324.7
2161.57625	3309.8
2164.52941	3311
2167.48067	3304
2170.43004	3314.3
2173.37752	3318.4
2176.32311	3313
2179.26681	3325.6
2182.20863	3307.7
2185.14856	3318.4
2188.08661	3313.8
2191.02278	3301
2193.95707	3289.2
2196.88948	3284.9
2199.82001	3273.6
2202.74867	3270.9
2205.67545	3276.4
2208.60037	3264.3
2211.52341	3258.8
2214.44458	3251.6
2217.36388	3247.6
2220.28132	3238.1
2223.1969	3232.6
2226.11061	3214.4
2229.02246	3178.8
2231.93245	3188.7
2234.84058	3189.1
2237.74686	3166.6
2240.65128	3191.6
2243.55385	3175.6
2246.45456	3169
2249.35343	3189.5
2252.25044	3220.2
2255.14561	3230.9
2258.03893	3259.8
2260.93041	3284.7
2263.82004	3297.1
2266.70783	3261.5
2269.59378	3270.7
2272.4779	3242.6
2275.36017	3245.1
2278.24061	3219.7
2281.11922	3209.3
2283.996	3199
2286.87094	3178.5
2289.74405	3156.7
2292.61534	3122.8
2295.4848	3124.6
2298.35243	3111.9
2301.21824	3093.1
2304.08223	3098.5
2306.94439	3099.4
2309.80474	3102.7
2312.66327	3097.9
2315.51999	3090.2
2318.37489	3091.2
2321.22797	3094.7
2324.07925	3094.7
2326.92871	3094.3
2329.77637	3088.1
2332.62222	3086.4
2335.46626	3089.7
2338.3085	3081
2341.14893	3082.1
2343.98756	3111.6
2346.8244	3107.6
2349.65943	3144.7
2352.49267	3158
2355.32411	3177.7
2358.15376	3198.9
2360.98161	3225.3
2363.80768	3222
2366.63195	3254.1
2369.45444	3267.7
2372.27514	3268.1
2375.09405	3252.2
2377.91118	3224.3
2380.72652	3199.8
2383.54009	3165.1
2386.35187	3135.4
2389.16188	3102.2
2391.97011	3082.6
2394.77657	3064.8
2397.58125	3034.2
2400.38416	3023.8
2403.18529	3006.8
2405.98466	2992.9
2408.78226	2988.5
2411.57809	2982.6
2414.37216	2967.2
2417.16446	2975.3
2419.955	2970.1
2422.74378	2979.4
2425.5308	2971.9
2428.31606	2987
2431.09956	2988.7
2433.88131	2998.3
2436.6613	3007.8
2439.43954	3031
2442.21603	3029.8
2444.99077	3045.9
2447.76377	3053.9
2450.53501	3055.9
2453.30451	3077.3
2456.07226	3063.1
2458.83827	3059.1
2461.60254	3054.2
2464.36507	3058.4
2467.12586	3053.5
2469.88492	3047.2
2472.64224	3061.7
2475.39782	3078
2478.15167	3099.4
2480.90379	3122.2
2483.65417	3141.8
2486.40283	3185.6
2489.14976	3203.7
2491.89497	3213.5
2494.63845	3220.8
2497.3802	3194.1
2500.12024	3179.1
2502.85855	3136.9
2505.59514	3111
2508.33002	3064.5
2511.06318	3028.5
2513.79462	2983.8
2516.52435	2948.8
2519.25237	2917.2
2521.97867	2900.2
2524.70327	2886.2
2527.42616	2869.5
2530.14734	2878.5
2532.86681	2885.8
2535.58458	2876.8
2538.30065	2879.8
2541.01501	2884.7
2543.72768	2887.6
2546.43864	2916.5
2549.14791	2905.2
2551.85548	2924.4
2554.56136	2929.6
2557.26554	2920.9
2559.96803	2922.1
2562.66883	2917.5
2565.36794	2914.3
2568.06536	2901
2570.7611	2896.2
2573.45514	2876.7
2576.14751	2859.7
2578.83819	2862.5
2581.52719	2845.2
2584.21451	2840.2
2586.90015	2845.3
2589.58411	2825.8
2592.2664	2827.6
2594.94701	2822.4
2597.62594	2828.4
2600.30321	2823.3
2602.9788	2813.2
2605.65273	2826.1
2608.32498	2824.1
2610.99557	2835.4
2613.66449	2838.7
2616.33175	2839.4
2618.99734	2845.6
2621.66128	2841.1
2624.32355	2833.8
2626.98416	2827.1
2629.64311	2822.3
2632.30041	2815.7
2634.95605	2797
2637.61004	2796.4
2640.26238	2762.1
2642.91306	2765.5
2645.56209	2753.3
2648.20948	2752.8
2650.85521	2757.7
2653.4993	2747.6
2656.14175	2772.5
2658.78255	2773.2
2661.42171	2780.3
2664.05923	2789.9
2666.6951	2814.9
2669.32934	2836.8
2671.96194	2834.8
2674.59291	2848.7
2677.22224	2838.4
2679.84993	2855.9
2682.476	2821.4
2685.10043	2825.5
2687.72324	2805.2
2690.34441	2815.8
2692.96396	2806.4
2695.58188	2807.2
2698.19818	2798.4
2700.81285	2798.1
2703.4259	2813.4
2706.03733	2818.8
2708.64714	2816.1
2711.25533	2823.3
2713.86191	2821.9
2716.46687	2831.1
2719.07021	2826.5
2721.67194	2829.8
2724.27206	2844.2
2726.87057	2839.5
2729.46747	2822.8
2732.06276	2811
2734.65644	2793.2
2737.24852	2790.5
2739.83899	2764.7
2742.42786	2753.9
2745.01513	2735.1
2747.60079	2734.5
2750.18486	2719.1
2752.76733	2715.1
2755.3482	2705.8
2757.92747	2692.9
2760.50515	2681
2763.08123	2685.2
2765.65573	2671.7
2768.22863	2669
2770.79994	2667.2
2773.36967	2672.2
2775.9378	2676.7
2778.50435	2672
2781.06932	2677.7
2783.6327	2685.4
2786.1945	2691.2
2788.75471	2704.1
2791.31335	2692.6
2793.87041	2696.6
2796.42589	2700.7
2798.97979	2701.8
2801.53212	2705.9
2804.08288	2727.9
2806.63206	2741.9
2809.17967	2750.9
2811.72571	2758.5
2814.27018	2788.8
2816.81308	2822.6
2819.35442	2826.8
2821.89419	2828.9
2824.43239	2861.7
2826.96904	2849.1
2829.50412	2866.4
2832.03763	2842.7
2834.56959	2849
2837.1	2845.3
2839.62884	2836.3
2842.15613	2849.7
2844.68186	2856.9
2847.20604	2870
2849.72867	2901
2852.24974	2914
2854.76927	2928.6
2857.28724	2941.7
2859.80367	2947.6
2862.31855	2955.1
2864.83189	2990.6
2867.34368	2997.1
2869.85393	3020.2
2872.36264	3035.6
2874.8698	3024.3
2877.37543	3020.2
2879.87952	3001.4
2882.38207	2997.3
2884.88308	2975.5
2887.38256	2963.9
2889.88051	2955.7
2892.37692	2936.9
2894.8718	2934.1
2897.36515	2941.6
2899.85698	2930.8
2902.34727	2916.5
2904.83604	2930.1
2907.32328	2908
2909.809	2913.3
2912.29319	2912.8
2914.77587	2886.8
2917.25702	2871.6
2919.73665	2869.2
2922.21476	2856.6
2924.69136	2828
2927.16644	2816.7
2929.64	2810.5
2932.11205	2802.7
2934.58258	2794.7
2937.05161	2786.6
2939.51912	2768
2941.98513	2769.6
2944.44962	2773.8
2946.91261	2754.6
2949.37409	2756.6
2951.83407	2758.3
2954.29254	2759.4
2956.74951	2759.8
2959.20498	2763.5
2961.65895	2764.4
2964.11142	2749
2966.56239	2754
2969.01186	2741.3
2971.45984	2709.6
2973.90632	2707.9
2976.35131	2696.6
2978.7948	2690.5
2981.23681	2674.6
2983.67732	2675.9
2986.11635	2661.5
2988.55388	2657.1
2990.98993	2654.1
2993.4245	2657.7
2995.85758	2663.8
2998.28917	2669.6
3000.71928	2675.8
3003.14791	2675.2
3005.57506	2686.3
3008.00073	2695.4
3010.42493	2695.5
3012.84764	2688.5
3015.26888	2688.4
3017.68865	2690.4
3020.10694	2695.3
3022.52376	2673.7
3024.9391	2664.6
3027.35298	2655.8
3029.76539	2634.7
3032.17632	2613.2
3034.5858	2594.8
3036.9938	2572.7
3039.40034	2570.3
3041.80542	2557.2
3044.20903	2543.8
3046.61118	2539.2
3049.01187	2526.3
3051.4111	2524.1
3053.80888	2520.3
3056.20519	2512.5
3058.60005	2503.2
3060.99345	2503.1
3063.3854	2486.5
3065.7759	2479
3068.16494	2479.2
3070.55254	2475.3
3072.93868	2465.1
3075.32338	2460.4
3077.70662	2456.6
3080.08842	2433.7
3082.46878	2442.9
3084.84769	2433.3
3087.22515	2434.3
3089.60118	2430.3
3091.97576	2434.1
3094.3489	2429.5
3096.72061	2422.3
3099.09087	2427.3
3101.4597	2434.4
3103.82709	2435
3106.19305	2436
3108.55757	2433.6
3110.92066	2436.6
3113.28232	2439.7
3115.64255	2427.9
3118.00134	2414.3
3120.35871	2420.1
3122.71466	2428
3125.06917	2427.8
3127.42226	2430.4
3129.77393	2417.7
3132.12417	2424.9
3134.47299	2440.6
3136.82039	2434
3139.16636	2451.4
3141.51092	2466.7
3143.85406	2465.4
3146.19579	2472.1
3148.53609	2481.2
3150.87499	2492
3153.21246	2495.8
3155.54853	2515.3
3157.88318	2532.9
3160.21642	2533.3
3162.54826	2528.1
3164.87868	2528.8
3167.2077	2539.8
3169.5353	2535
3171.86151	2540.8
3174.18631	2547
3176.5097	2528.9
3178.83169	2524.9
3181.15228	2538.6
3183.47147	2536.2
3185.78926	2549.1
3188.10565	2538.2
3190.42065	2546.7
3192.73424	2558.6
3195.04645	2551
3197.35725	2571.2
3199.66667	2582.1
3201.97469	2594
3204.28132	2612.8
3206.58656	2625
3208.8904	2626.3
3211.19287	2630.6
3213.49394	2646.3
3215.79363	2661.6
3218.09193	2668.7
3220.38884	2673
3222.68438	2686.2
3224.97853	2680.6
3227.2713	2676
3229.56269	2679.2
3231.8527	2687.5
3234.14133	2676.7
3236.42858	2651.8
3238.71446	2665
3240.99896	2663
3243.28209	2660.8
3245.56384	2664.8
3247.84423	2666.3
3250.12324	2660.6
3252.40088	2641.8
3254.67715	2642.7
3256.95205	2649.6
3259.22558	2648.5
3261.49775	2646.2
3263.76855	2641.1
3266.03799	2634.1
3268.30606	2633.4
3270.57277	2637.6
3272.83812	2637.9
3275.10211	2635.7
3277.36474	2623.1
3279.62601	2626
3281.88593	2624.1
3284.14448	2629.2
3286.40168	2631.3
3288.65753	2638.9
3290.91202	2639
3293.16516	2632.1
3295.41695	2642.9
3297.66738	2626.5
3299.91647	2606.2
3302.16421	2586.1
3304.4106	2564.6
3306.65564	2539.9
3308.89933	2520.6
3311.14169	2496.5
3313.38269	2461.9
3315.62236	2440.3
3317.86068	2415
3320.09766	2395.3
3322.3333	2371.2
3324.5676	2354.3
3326.80056	2320
3329.03219	2295.9
3331.26248	0.5
3333.49143	-1.8
3335.71905	0.9
