Data from AgNP_FTO_APTES_UA_100uM_CRN_10uM_R6G_10uM_NaF_0.1M_Addition_RamanShift__9__15-27-30-407.txt Node

Date: Thu Mar 24 15:27:30 GMT 2022
User: TCL
Spectrometer: QEP01345
Trigger mode: 4
Integration Time (sec): 7.000000E0
Scans to average: 10
Electric dark correction enabled: true
Nonlinearity correction enabled: false
Boxcar width: 0
XAxis mode: Raman Shifts
Number of Pixels in Spectrum: 1044
>>>>>Begin Spectral Data<<<<<
46.04893	-1.75
50.45542	1.05
54.85868	0.05
59.25871	0.75
63.6555	1.65
68.04907	1.05
72.43941	1.75
76.82654	0.15
81.21044	3.15
85.59113	-0.85
89.96862	2.65
94.34289	1.35
98.71396	1.45
103.08183	-0.95
107.4465	0.45
111.80798	0.75
116.16626	0.55
120.52136	-0.55
124.87327	-4.35
129.222	-1.45
133.56755	1.05
137.90993	-4.25
142.24913	2.55
146.58517	0.15
150.91804	-0.85
155.24774	0.95
159.57429	2.25
163.89768	0.05
168.21792	0.15
172.53501	-0.85
176.84895	0.75
181.15975	-0.55
185.46741	-0.75
189.77193	-1.25
194.07331	-3.65
198.37157	1.05
202.6667	-2.25
206.9587	-6.45
211.24758	-3.25
215.53334	-4.05
219.81599	-6.95
224.09553	-1.55
228.37195	-3.55
232.64527	-1.95
236.91549	-8.45
241.18261	-9.55
245.44663	-4.75
249.70755	-9.55
253.96539	-8.45
258.22014	-8.85
262.4718	-7.25
266.72039	-7.35
270.96589	-7.35
275.20832	-8.45
279.44768	-4.85
283.68397	-9.25
287.91719	-2.85
292.14735	-8.25
296.37445	-6.15
300.59849	-7.15
304.81948	-8.05
309.03742	-8.15
313.25231	-3.75
317.46415	-3.05
321.67296	-5.35
325.87872	-8.65
330.08145	-7.85
334.28114	-6.55
338.47781	-8.75
342.67145	-9.25
346.86207	-7.35
351.04966	-7.05
355.23424	-5.05
359.4158	-1.75
363.59435	-5.35
367.76989	-6.55
371.94243	-7.65
376.11196	-3.05
380.27849	-4.15
384.44203	-12.75
388.60257	-8.35
392.76012	-5.25
396.91468	-5.45
401.06626	-8.15
405.21485	-2.25
409.36047	-5.25
413.50311	-3.95
417.64277	-7.65
421.77947	-1.45
425.9132	2.45
430.04396	-0.45
434.17176	3.05
438.2966	2.15
442.41849	-2.65
446.53742	-4.15
450.6534	-6.75
454.76644	-2.75
458.87653	-5.45
462.98368	-5.45
467.08789	-7.15
471.18916	-9.95
475.2875	-10.05
479.38291	-4.25
483.4754	-5.95
487.56496	-4.65
491.6516	-1.35
495.73531	-6.65
499.81612	-8.35
503.89401	-5.75
507.96899	-5.25
512.04106	-6.95
516.11023	-1.95
520.1765	-7.25
524.23987	-5.05
528.30034	-3.75
532.35792	-6.25
536.41261	-6.15
540.46441	-5.75
544.51333	-3.95
548.55936	-3.65
552.60252	-5.75
556.64279	-4.05
560.6802	-6.85
564.71473	-8.55
568.7464	-6.75
572.7752	-5.35
576.80114	-9.15
580.82422	-7.35
584.84444	-8.25
588.86181	-6.95
592.87633	-6.65
596.888	-5.15
600.89682	-6.45
604.9028	-6.05
608.90594	-7.25
612.90624	-4.85
616.90371	-7.35
620.89834	-8.55
624.89015	-7.05
628.87913	-11.75
632.86528	-6.05
636.84862	-7.45
640.82913	-4.45
644.80683	-7.35
648.78172	-3.85
652.75379	-7.95
656.72306	-3.95
660.68952	-5.05
664.65319	-7.15
668.61405	-6.45
672.57211	-5.95
676.52738	-5.75
680.47986	-4.85
684.42955	-6.05
688.37646	-2.95
692.32058	-5.65
696.26192	-7.85
700.20048	-0.55
704.13626	0.65
708.06928	-0.45
711.99952	-1.75
715.927	-1.85
719.85171	-2.35
723.77365	-4.95
727.69284	-1.35
731.60928	-3.25
735.52295	-9.75
739.43388	-7.95
743.34206	-6.25
747.24749	-9.85
751.15017	-6.95
755.05012	-7.65
758.94733	-6.35
762.8418	-4.25
766.73354	-8.65
770.62254	-7.85
774.50882	-7.75
778.39237	-4.95
782.27321	-5.65
786.15132	-6.15
790.02671	-8.15
793.89938	-6.35
797.76935	-5.25
801.6366	-5.95
805.50115	-6.65
809.36299	-3.25
813.22213	-7.35
817.07857	-4.25
820.93231	-5.45
824.78336	-7.25
828.63172	-3.15
832.47738	-3.95
836.32036	-5.75
840.16066	-5.75
843.99827	-1.55
847.8332	-5.15
851.66546	-5.05
855.49504	-4.15
859.32195	-4.75
863.1462	-7.25
866.96777	-5.95
870.78668	-8.15
874.60293	-5.35
878.41652	-9.05
882.22745	-6.65
886.03573	-7.55
889.84136	-5.65
893.64433	-8.55
897.44466	-1.95
901.24235	-7.65
905.0374	-10.15
908.8298	-3.95
912.61957	-8.45
916.40671	-9.95
920.19121	-6.25
923.97308	-6.45
927.75233	-3.85
931.52895	-9.65
935.30295	-7.65
939.07433	-6.25
942.84309	-8.45
946.60924	-8.85
950.37278	-7.05
954.13371	-5.55
957.89203	-5.55
961.64774	-6.35
965.40086	-5.25
969.15137	-4.65
972.89929	-4.85
976.64461	-8.15
980.38733	-9.15
984.12747	-8.05
987.86502	-9.05
991.59999	-8.15
995.33237	-4.55
999.06217	-5.35
1002.78939	-7.05
1006.51404	-6.75
1010.23611	-10.65
1013.95561	-4.95
1017.67255	-6.65
1021.38692	-5.25
1025.09872	-4.85
1028.80796	-10.95
1032.51465	-6.65
1036.21877	-7.15
1039.92035	-2.35
1043.61937	-8.55
1047.31584	-4.75
1051.00976	-5.05
1054.70114	-6.05
1058.38998	-9.55
1062.07627	-6.45
1065.76003	-6.65
1069.44126	-7.65
1073.11995	-9.05
1076.79611	-6.35
1080.46974	-8.05
1084.14085	-5.25
1087.80943	-5.95
1091.47549	-8.45
1095.13903	-6.25
1098.80005	-11.25
1102.45857	-8.95
1106.11456	-7.55
1109.76805	-5.85
1113.41903	-5.45
1117.06751	-4.45
1120.71348	-3.65
1124.35696	-4.25
1127.99793	-4.85
1131.63641	-5.15
1135.2724	-9.35
1138.90589	-6.55
1142.5369	-4.25
1146.16542	-5.25
1149.79145	-9.85
1153.415	-6.55
1157.03607	-7.75
1160.65467	-7.45
1164.27079	-9.45
1167.88443	-10.05
1171.49561	-7.65
1175.10432	-7.95
1178.71056	-9.55
1182.31434	-7.75
1185.91565	-9.95
1189.51451	-8.45
1193.11091	-7.05
1196.70485	-8.55
1200.29634	-10.55
1203.88538	-5.95
1207.47197	-7.05
1211.05612	-6.85
1214.63782	-8.35
1218.21708	-6.75
1221.79391	-9.95
1225.36829	-7.75
1228.94024	-8.45
1232.50976	-6.25
1236.07685	-6.35
1239.6415	-3.75
1243.20374	-4.35
1246.76355	-2.95
1250.32093	-0.65
1253.8759	-2.65
1257.42845	0.05
1260.97859	3.55
1264.52631	-1.15
1268.07163	2.05
1271.61453	-2.65
1275.15503	2.15
1278.69312	-3.65
1282.22882	-6.25
1285.76211	-5.35
1289.29301	-7.15
1292.82151	-10.65
1296.34761	-6.65
1299.87133	-8.75
1303.39266	-4.95
1306.9116	-9.25
1310.42815	-14.45
1313.94233	-10.15
1317.45412	-14.25
1320.96354	-11.65
1324.47058	-4.85
1327.97525	-10.15
1331.47754	-12.65
1334.97747	-10.45
1338.47502	-6.85
1341.97022	-9.85
1345.46305	-13.15
1348.95352	-8.95
1352.44163	-12.55
1355.92738	-11.35
1359.41078	-10.45
1362.89183	-9.75
1366.37053	-5.35
1369.84688	-5.95
1373.32088	-10.85
1376.79254	-6.15
1380.26186	-3.45
1383.72883	-3.85
1387.19347	2.35
1390.65578	0.05
1394.11575	-4.35
1397.57339	-1.35
1401.0287	-7.75
1404.48168	-8.15
1407.93234	-9.45
1411.38068	-8.15
1414.82669	-9.45
1418.27039	-10.15
1421.71177	-10.65
1425.15083	-10.45
1428.58758	-8.25
1432.02203	-9.45
1435.45416	-8.75
1438.88399	-8.05
1442.31151	-11.55
1445.73673	-4.05
1449.15965	-6.15
1452.58027	-9.65
1455.9986	-7.85
1459.41463	-8.75
1462.82837	-10.55
1466.23982	-8.55
1469.64898	-9.95
1473.05586	-5.75
1476.46045	-9.95
1479.86276	-10.85
1483.26279	-11.85
1486.66054	-10.45
1490.05602	-13.15
1493.44922	-9.65
1496.84016	-10.95
1500.22882	-12.25
1503.61521	-10.65
1506.99934	-6.75
1510.38121	-11.05
1513.76081	-8.75
1517.13816	-9.25
1520.51324	-12.95
1523.88607	-13.55
1527.25665	-10.65
1530.62498	-11.55
1533.99105	-7.95
1537.35488	-11.25
1540.71647	-7.65
1544.07581	-11.75
1547.4329	-6.35
1550.78776	-13.15
1554.14038	-10.55
1557.49077	-9.15
1560.83892	-9.15
1564.18484	-9.55
1567.52853	-6.75
1570.86999	-9.05
1574.20922	-5.95
1577.54624	-8.05
1580.88103	-10.35
1584.2136	-9.75
1587.54395	-8.05
1590.87208	-9.55
1594.19801	-10.65
1597.52172	-3.55
1600.84321	-6.85
1604.16251	-11.85
1607.47959	-4.15
1610.79447	-9.25
1614.10715	-6.75
1617.41763	-5.55
1620.7259	-5.15
1624.03199	-0.85
1627.33587	-4.85
1630.63757	-1.95
1633.93707	3.55
1637.23439	-1.15
1640.52951	3.75
1643.82246	3.45
1647.11321	4.15
1650.40179	12.35
1653.68819	13.85
1656.97241	13.85
1660.25446	14.25
1663.53433	13.75
1666.81203	10.75
1670.08756	8.95
1673.36092	8.25
1676.63211	1.55
1679.90115	2.15
1683.16801	3.85
1686.43272	3.25
1689.69527	7.75
1692.95567	9.05
1696.2139	22.65
1699.46999	34.85
1702.72392	35.35
1705.97571	19.55
1709.22535	13.35
1712.47284	6.55
1715.71819	-0.25
1718.96139	-15.05
1722.20246	-6.95
1725.44139	-6.85
1728.67818	-7.85
1731.91284	-3.45
1735.14537	-4.45
1738.37576	-4.15
1741.60403	-1.05
1744.83017	-2.65
1748.05418	5.55
1751.27607	3.95
1754.49584	11.85
1757.71349	17.15
1760.92903	20.15
1764.14244	24.55
1767.35375	22.35
1770.56294	19.25
1773.77002	16.35
1776.97499	6.95
1780.17785	4.15
1783.37861	-0.55
1786.57727	-3.15
1789.77382	-3.75
1792.96828	-2.55
1796.16064	-7.75
1799.3509	-6.55
1802.53907	-7.55
1805.72514	-9.05
1808.90913	-4.25
1812.09102	-8.45
1815.27083	-7.45
1818.44856	-7.05
1821.6242	-6.75
1824.79776	-6.55
1827.96924	-10.05
1831.13864	-8.25
1834.30597	-6.45
1837.47122	-7.55
1840.6344	-8.35
1843.7955	-6.15
1846.95454	-5.55
1850.11151	-8.85
1853.26642	-11.95
1856.41926	-5.05
1859.57004	-9.15
1862.71876	-6.75
1865.86542	-8.85
1869.01003	-4.55
1872.15258	-8.65
1875.29308	-5.65
1878.43152	-8.35
1881.56792	-5.85
1884.70227	-9.95
1887.83457	-8.05
1890.96482	-8.35
1894.09304	-6.45
1897.21921	-7.05
1900.34335	-9.65
1903.46544	-5.25
1906.58551	-7.05
1909.70353	-6.75
1912.81953	-8.65
1915.93349	-6.55
1919.04543	-6.25
1922.15534	-3.35
1925.26322	-7.65
1928.36908	-6.95
1931.47292	-7.45
1934.57473	-5.85
1937.67453	-8.25
1940.77232	-8.25
1943.86808	-7.15
1946.96184	-9.55
1950.05358	-5.05
1953.14331	-7.05
1956.23103	-5.55
1959.31675	-6.95
1962.40046	-10.15
1965.48217	-9.05
1968.56188	-9.25
1971.63959	-7.55
1974.7153	-5.95
1977.78901	-9.85
1980.86073	-6.25
1983.93046	-4.65
1986.99819	-10.65
1990.06394	-6.85
1993.1277	-7.15
1996.18947	-4.35
1999.24925	-6.95
2002.30706	-7.05
2005.36288	-5.75
2008.41672	-5.35
2011.46859	-7.45
2014.51848	-7.95
2017.56639	-5.45
2020.61233	-10.65
2023.6563	-5.45
2026.6983	-8.85
2029.73833	-5.25
2032.7764	-7.85
2035.8125	-8.95
2038.84664	-6.05
2041.87881	-8.15
2044.90903	-9.45
2047.93729	-8.25
2050.96359	-6.15
2053.98794	-5.75
2057.01034	-10.25
2060.03078	-8.65
2063.04927	-11.95
2066.06582	-10.15
2069.08042	-5.65
2072.09307	-8.75
2075.10378	-8.45
2078.11255	-7.15
2081.11938	-4.15
2084.12426	-4.75
2087.12722	-5.25
2090.12824	-5.95
2093.12732	-4.45
2096.12447	-5.95
2099.11969	-9.95
2102.11299	-5.85
2105.10435	-5.35
2108.09379	-5.05
2111.08131	-7.55
2114.0669	-6.35
2117.05057	-5.75
2120.03233	-7.45
2123.01216	-7.85
2125.99008	-7.45
2128.96609	-8.95
2131.94018	-7.15
2134.91236	-5.85
2137.88263	-3.25
2140.851	-6.75
2143.81746	-6.65
2146.78201	-5.45
2149.74466	-8.75
2152.7054	-6.85
2155.66425	-9.55
2158.6212	-5.85
2161.57625	-5.25
2164.52941	-7.25
2167.48067	-8.15
2170.43004	-6.45
2173.37752	-4.65
2176.32311	-7.15
2179.26681	-8.05
2182.20863	-10.25
2185.14856	-4.95
2188.08661	-8.85
2191.02278	-7.15
2193.95707	-8.25
2196.88948	-7.15
2199.82001	-5.75
2202.74867	-5.45
2205.67545	-4.85
2208.60037	-8.75
2211.52341	-8.25
2214.44458	-7.15
2217.36388	-9.75
2220.28132	-5.35
2223.1969	-9.25
2226.11061	-8.75
2229.02246	-9.85
2231.93245	-5.15
2234.84058	-7.35
2237.74686	-7.25
2240.65128	-5.35
2243.55385	-5.75
2246.45456	-7.75
2249.35343	-7.85
2252.25044	-5.95
2255.14561	-7.85
2258.03893	-3.95
2260.93041	-4.55
2263.82004	-7.15
2266.70783	-7.15
2269.59378	-2.85
2272.4779	-6.85
2275.36017	-4.75
2278.24061	-7.75
2281.11922	-4.95
2283.996	-8.65
2286.87094	-7.05
2289.74405	-4.95
2292.61534	-9.15
2295.4848	-2.85
2298.35243	-5.85
2301.21824	-4.55
2304.08223	-6.95
2306.94439	-7.85
2309.80474	-9.05
2312.66327	-6.05
2315.51999	-9.15
2318.37489	-7.45
2321.22797	-2.65
2324.07925	-7.65
2326.92871	-5.35
2329.77637	-0.85
2332.62222	-5.25
2335.46626	-5.25
2338.3085	-2.95
2341.14893	-3.65
2343.98756	-9.25
2346.8244	-4.65
2349.65943	-7.25
2352.49267	-8.95
2355.32411	-4.35
2358.15376	-5.85
2360.98161	-6.65
2363.80768	-5.45
2366.63195	-6.05
2369.45444	-7.95
2372.27514	-4.25
2375.09405	-5.95
2377.91118	-9.65
2380.72652	-7.75
2383.54009	-5.45
2386.35187	-2.45
2389.16188	-9.45
2391.97011	-7.95
2394.77657	-4.35
2397.58125	-5.55
2400.38416	-6.85
2403.18529	-6.35
2405.98466	-6.85
2408.78226	-5.55
2411.57809	-3.15
2414.37216	-5.75
2417.16446	-5.75
2419.955	-9.35
2422.74378	-6.15
2425.5308	-4.35
2428.31606	-6.05
2431.09956	-6.55
2433.88131	-3.65
2436.6613	-11.15
2439.43954	-5.65
2442.21603	-6.55
2444.99077	-8.25
2447.76377	-9.45
2450.53501	-7.75
2453.30451	-7.65
2456.07226	-4.85
2458.83827	-5.95
2461.60254	-6.05
2464.36507	-6.85
2467.12586	-6.55
2469.88492	-6.25
2472.64224	-7.45
2475.39782	-6.45
2478.15167	-5.85
2480.90379	-4.25
2483.65417	-7.75
2486.40283	-2.95
2489.14976	-4.75
2491.89497	-4.65
2494.63845	-3.45
2497.3802	-2.95
2500.12024	-1.55
2502.85855	-7.15
2505.59514	-5.75
2508.33002	-7.15
2511.06318	-4.25
2513.79462	-4.65
2516.52435	-8.05
2519.25237	-12.05
2521.97867	-4.75
2524.70327	-2.35
2527.42616	-4.95
2530.14734	-6.25
2532.86681	-5.15
2535.58458	-4.95
2538.30065	-11.35
2541.01501	-8.75
2543.72768	-7.05
2546.43864	-5.85
2549.14791	-6.75
2551.85548	-7.75
2554.56136	-2.95
2557.26554	-7.05
2559.96803	-7.65
2562.66883	-5.75
2565.36794	-5.05
2568.06536	-3.45
2570.7611	-6.35
2573.45514	-5.65
2576.14751	-7.35
2578.83819	-7.85
2581.52719	-7.35
2584.21451	-5.75
2586.90015	-6.55
2589.58411	-4.95
2592.2664	-5.85
2594.94701	-4.55
2597.62594	-4.25
2600.30321	-3.85
2602.9788	-4.15
2605.65273	-4.05
2608.32498	-5.45
2610.99557	-5.25
2613.66449	-9.75
2616.33175	-5.35
2618.99734	-7.85
2621.66128	-7.55
2624.32355	-4.45
2626.98416	-4.95
2629.64311	-7.25
2632.30041	-7.15
2634.95605	-6.25
2637.61004	-3.85
2640.26238	-8.85
2642.91306	-5.45
2645.56209	-3.55
2648.20948	-6.35
2650.85521	-0.95
2653.4993	-5.45
2656.14175	-0.55
2658.78255	-4.15
2661.42171	-3.45
2664.05923	-6.05
2666.6951	-2.65
2669.32934	-3.65
2671.96194	-5.35
2674.59291	-5.65
2677.22224	-6.25
2679.84993	-2.95
2682.476	-10.55
2685.10043	-7.15
2687.72324	-8.95
2690.34441	-6.25
2692.96396	-7.05
2695.58188	-5.55
2698.19818	-3.85
2700.81285	-2.95
2703.4259	3.45
2706.03733	7.95
2708.64714	0.35
2711.25533	-0.95
2713.86191	-4.35
2716.46687	-3.05
2719.07021	-4.85
2721.67194	-0.35
2724.27206	-1.55
2726.87057	-6.85
2729.46747	-5.65
2732.06276	-0.45
2734.65644	-6.65
2737.24852	-7.15
2739.83899	-6.75
2742.42786	-1.25
2745.01513	-6.25
2747.60079	-4.45
2750.18486	-4.95
2752.76733	-5.75
2755.3482	-6.15
2757.92747	-4.85
2760.50515	-5.15
2763.08123	-4.75
2765.65573	-4.25
2768.22863	-6.05
2770.79994	-7.75
2773.36967	-7.05
2775.9378	-5.25
2778.50435	-6.05
2781.06932	-6.55
2783.6327	-4.25
2786.1945	-4.05
2788.75471	-4.35
2791.31335	-8.15
2793.87041	-4.35
2796.42589	-5.25
2798.97979	-6.85
2801.53212	-6.65
2804.08288	-6.65
2806.63206	-6.25
2809.17967	-4.95
2811.72571	-4.75
2814.27018	-2.65
2816.81308	-4.85
2819.35442	-5.65
2821.89419	-6.25
2824.43239	-4.95
2826.96904	-6.35
2829.50412	-4.95
2832.03763	-5.55
2834.56959	-7.45
2837.1	-8.65
2839.62884	-4.25
2842.15613	-6.25
2844.68186	-4.55
2847.20604	-2.75
2849.72867	-5.45
2852.24974	-3.75
2854.76927	1.05
2857.28724	-0.25
2859.80367	-2.75
2862.31855	-2.15
2864.83189	-5.95
2867.34368	-5.55
2869.85393	-6.45
2872.36264	-4.35
2874.8698	-5.85
2877.37543	-6.35
2879.87952	-7.25
2882.38207	-5.25
2884.88308	-4.85
2887.38256	-4.35
2889.88051	-3.75
2892.37692	-5.95
2894.8718	-4.95
2897.36515	-7.95
2899.85698	-5.75
2902.34727	-5.95
2904.83604	-7.35
2907.32328	-4.05
2909.809	-3.55
2912.29319	-5.15
2914.77587	-8.75
2917.25702	-4.65
2919.73665	-6.45
2922.21476	-4.45
2924.69136	-0.85
2927.16644	-2.85
2929.64	-2.55
2932.11205	-7.75
2934.58258	-3.05
2937.05161	-5.65
2939.51912	-6.25
2941.98513	-4.55
2944.44962	-2.25
2946.91261	-6.45
2949.37409	-7.05
2951.83407	-5.35
2954.29254	-2.65
2956.74951	-5.85
2959.20498	-4.55
2961.65895	-5.15
2964.11142	-6.45
2966.56239	-2.85
2969.01186	-6.55
2971.45984	-6.35
2973.90632	-4.85
2976.35131	-5.05
2978.7948	-5.05
2981.23681	-6.75
2983.67732	-2.15
2986.11635	-7.35
2988.55388	-4.65
2990.98993	-4.55
2993.4245	-5.65
2995.85758	-0.35
2998.28917	-2.45
3000.71928	-6.65
3003.14791	-3.35
3005.57506	-2.55
3008.00073	-4.55
3010.42493	-4.75
3012.84764	-1.95
3015.26888	-4.05
3017.68865	-5.65
3020.10694	0.05
3022.52376	-5.25
3024.9391	-4.15
3027.35298	-3.05
3029.76539	-2.95
3032.17632	-9.15
3034.5858	-4.95
3036.9938	-2.95
3039.40034	-5.35
3041.80542	-6.15
3044.20903	-7.75
3046.61118	-3.85
3049.01187	-2.55
3051.4111	-4.05
3053.80888	-4.35
3056.20519	-6.55
3058.60005	-3.65
3060.99345	-2.45
3063.3854	-7.25
3065.7759	-4.95
3068.16494	-6.05
3070.55254	-4.25
3072.93868	-3.95
3075.32338	-5.95
3077.70662	-9.35
3080.08842	-0.95
3082.46878	-1.45
3084.84769	-7.75
3087.22515	-4.35
3089.60118	-3.25
3091.97576	-2.75
3094.3489	-3.25
3096.72061	-5.15
3099.09087	-4.05
3101.4597	-1.85
3103.82709	-3.35
3106.19305	-4.75
3108.55757	-5.15
3110.92066	-3.15
3113.28232	-6.25
3115.64255	-5.25
3118.00134	-3.55
3120.35871	-4.05
3122.71466	-1.55
3125.06917	-4.05
3127.42226	-0.15
3129.77393	-5.35
3132.12417	-5.75
3134.47299	-6.55
3136.82039	-2.45
3139.16636	-6.15
3141.51092	-4.65
3143.85406	-3.75
3146.19579	-4.95
3148.53609	-5.05
3150.87499	-3.75
3153.21246	-3.15
3155.54853	-3.95
3157.88318	-5.95
3160.21642	-9.25
3162.54826	-4.65
3164.87868	-2.95
3167.2077	-7.35
3169.5353	-4.55
3171.86151	-2.35
3174.18631	-5.75
3176.5097	-6.95
3178.83169	-3.35
3181.15228	-7.15
3183.47147	-4.55
3185.78926	-2.95
3188.10565	-3.15
3190.42065	-5.25
3192.73424	-6.15
3195.04645	-7.35
3197.35725	-3.35
3199.66667	-4.25
3201.97469	-4.25
3204.28132	-4.15
3206.58656	-3.65
3208.8904	-4.25
3211.19287	-6.25
3213.49394	-2.05
3215.79363	-3.75
3218.09193	-3.75
3220.38884	-1.05
3222.68438	-1.65
3224.97853	-1.55
3227.2713	-4.65
3229.56269	-5.65
3231.8527	-3.95
3234.14133	-2.15
3236.42858	-1.95
3238.71446	-3.35
3240.99896	-5.85
3243.28209	-4.75
3245.56384	-2.55
3247.84423	-6.95
3250.12324	-3.85
3252.40088	-6.45
3254.67715	-4.85
3256.95205	-2.35
3259.22558	-5.35
3261.49775	-4.35
3263.76855	-3.25
3266.03799	-1.55
3268.30606	-2.55
3270.57277	-7.05
3272.83812	-5.75
3275.10211	-4.15
3277.36474	-4.25
3279.62601	-4.35
3281.88593	0.05
3284.14448	-3.85
3286.40168	-2.75
3288.65753	-2.05
3290.91202	-4.15
3293.16516	2.15
3295.41695	-3.05
3297.66738	-4.95
3299.91647	-1.85
3302.16421	-2.05
3304.4106	-4.55
3306.65564	-3.35
3308.89933	-3.55
3311.14169	-3.35
3313.38269	-0.85
3315.62236	-4.35
3317.86068	-4.95
3320.09766	-0.75
3322.3333	-1.95
3324.5676	1.05
3326.80056	-0.35
3329.03219	-1.15
3331.26248	0.95
3333.49143	-1.05
3335.71905	1.05
