Data from AgNP_FTO_APTES_UA_100uM_CRN_10uM_R6G_10uM_NaF_0.1M_Addition_RamanShift__1__15-18-10-396.txt Node

Date: Thu Mar 24 15:18:10 GMT 2022
User: TCL
Spectrometer: QEP01345
Trigger mode: 4
Integration Time (sec): 7.000000E0
Scans to average: 10
Electric dark correction enabled: true
Nonlinearity correction enabled: false
Boxcar width: 0
XAxis mode: Raman Shifts
Number of Pixels in Spectrum: 1044
>>>>>Begin Spectral Data<<<<<
46.04893	-0.85
50.45542	0.45
54.85868	0.35
59.25871	-0.15
63.6555	-0.35
68.04907	1.05
72.43941	-1.85
76.82654	-1.65
81.21044	0.95
85.59113	1.75
89.96862	1.25
94.34289	-3.15
98.71396	2.25
103.08183	-3.35
107.4465	-1.05
111.80798	0.45
116.16626	0.35
120.52136	-1.45
124.87327	1.05
129.222	-1.25
133.56755	1.25
137.90993	-2.35
142.24913	3.25
146.58517	-0.55
150.91804	-0.05
155.24774	3.55
159.57429	0.05
163.89768	-1.55
168.21792	1.35
172.53501	-0.55
176.84895	1.55
181.15975	3.35
185.46741	-0.45
189.77193	-0.85
194.07331	-2.85
198.37157	1.85
202.6667	-1.65
206.9587	-2.25
211.24758	-1.55
215.53334	3.45
219.81599	-3.05
224.09553	3.75
228.37195	3.15
232.64527	3.35
236.91549	-2.55
241.18261	0.35
245.44663	4.25
249.70755	-3.55
253.96539	-1.55
258.22014	-1.15
262.4718	0.55
266.72039	0.85
270.96589	3.35
275.20832	0.15
279.44768	1.95
283.68397	-0.75
287.91719	5.75
292.14735	-1.95
296.37445	1.05
300.59849	1.65
304.81948	1.35
309.03742	3.15
313.25231	3.25
317.46415	6.35
321.67296	7.15
325.87872	-0.25
330.08145	1.75
334.28114	-1.95
338.47781	2.65
342.67145	0.85
346.86207	-1.15
351.04966	2.45
355.23424	2.75
359.4158	3.85
363.59435	1.45
367.76989	6.75
371.94243	-1.75
376.11196	2.95
380.27849	6.05
384.44203	-0.15
388.60257	1.95
392.76012	3.55
396.91468	5.25
401.06626	1.25
405.21485	3.35
409.36047	4.55
413.50311	7.15
417.64277	5.55
421.77947	4.45
425.9132	10.25
430.04396	13.15
434.17176	8.95
438.2966	6.75
442.41849	6.35
446.53742	6.35
450.6534	4.45
454.76644	4.05
458.87653	5.65
462.98368	0.35
467.08789	0.15
471.18916	-1.05
475.2875	-2.55
479.38291	2.95
483.4754	0.55
487.56496	0.15
491.6516	1.15
495.73531	-2.25
499.81612	-0.25
503.89401	3.95
507.96899	-1.85
512.04106	1.75
516.11023	1.95
520.1765	-0.65
524.23987	2.95
528.30034	2.25
532.35792	1.35
536.41261	0.75
540.46441	2.55
544.51333	2.55
548.55936	0.75
552.60252	0.15
556.64279	3.45
560.6802	0.25
564.71473	1.65
568.7464	1.15
572.7752	3.15
576.80114	-2.25
580.82422	-0.65
584.84444	0.15
588.86181	-2.05
592.87633	0.25
596.888	0.95
600.89682	0.15
604.9028	4.35
608.90594	4.05
612.90624	4.05
616.90371	3.55
620.89834	0.85
624.89015	2.85
628.87913	-3.15
632.86528	1.75
636.84862	2.15
640.82913	1.05
644.80683	-0.15
648.78172	3.25
652.75379	1.65
656.72306	-0.75
660.68952	1.05
664.65319	-0.25
668.61405	-1.85
672.57211	-1.95
676.52738	-0.45
680.47986	0.85
684.42955	-2.35
688.37646	2.95
692.32058	0.15
696.26192	2.55
700.20048	6.95
704.13626	5.55
708.06928	6.75
711.99952	6.55
715.927	5.75
719.85171	5.25
723.77365	0.05
727.69284	4.75
731.60928	3.55
735.52295	-3.75
739.43388	-0.35
743.34206	1.15
747.24749	-2.85
751.15017	0.45
755.05012	1.95
758.94733	1.85
762.8418	0.95
766.73354	-1.35
770.62254	3.35
774.50882	1.75
778.39237	3.95
782.27321	7.25
786.15132	1.85
790.02671	0.45
793.89938	0.65
797.76935	2.15
801.6366	2.35
805.50115	2.35
809.36299	0.15
813.22213	-0.45
817.07857	2.45
820.93231	-1.45
824.78336	-1.95
828.63172	-1.55
832.47738	0.75
836.32036	0.45
840.16066	1.75
843.99827	3.55
847.8332	2.05
851.66546	3.75
855.49504	-0.05
859.32195	3.65
863.1462	-0.15
866.96777	2.35
870.78668	-1.35
874.60293	-0.85
878.41652	-0.15
882.22745	-1.25
886.03573	-0.55
889.84136	-0.55
893.64433	0.85
897.44466	3.35
901.24235	-3.55
905.0374	-0.65
908.8298	1.25
912.61957	1.45
916.40671	-5.05
920.19121	-0.35
923.97308	2.05
927.75233	1.55
931.52895	-2.15
935.30295	-4.25
939.07433	0.15
942.84309	0.35
946.60924	-6.05
950.37278	-3.75
954.13371	-0.55
957.89203	-0.35
961.64774	-2.45
965.40086	0.35
969.15137	-0.35
972.89929	-1.25
976.64461	0.15
980.38733	0.05
984.12747	-0.55
987.86502	-4.65
991.59999	-4.15
995.33237	2.25
999.06217	-1.65
1002.78939	0.05
1006.51404	-0.65
1010.23611	-4.45
1013.95561	0.45
1017.67255	-3.35
1021.38692	-1.25
1025.09872	-1.35
1028.80796	-4.45
1032.51465	-5.25
1036.21877	-0.25
1039.92035	2.15
1043.61937	-5.05
1047.31584	3.05
1051.00976	2.15
1054.70114	0.15
1058.38998	-3.15
1062.07627	1.65
1065.76003	1.05
1069.44126	-0.75
1073.11995	-0.85
1076.79611	0.45
1080.46974	0.85
1084.14085	0.25
1087.80943	0.65
1091.47549	0.65
1095.13903	0.85
1098.80005	-1.95
1102.45857	-2.85
1106.11456	-1.35
1109.76805	-1.15
1113.41903	1.15
1117.06751	2.45
1120.71348	2.75
1124.35696	2.65
1127.99793	2.75
1131.63641	0.55
1135.2724	-1.75
1138.90589	0.15
1142.5369	1.65
1146.16542	3.05
1149.79145	-1.05
1153.415	-1.15
1157.03607	-0.45
1160.65467	2.25
1164.27079	-0.25
1167.88443	-5.55
1171.49561	0.25
1175.10432	4.05
1178.71056	0.05
1182.31434	0.75
1185.91565	4.05
1189.51451	1.95
1193.11091	3.55
1196.70485	0.25
1200.29634	-0.95
1203.88538	1.85
1207.47197	0.55
1211.05612	0.85
1214.63782	2.25
1218.21708	-1.55
1221.79391	-0.35
1225.36829	0.05
1228.94024	0.75
1232.50976	-2.15
1236.07685	-0.15
1239.6415	0.35
1243.20374	3.65
1246.76355	6.85
1250.32093	6.05
1253.8759	7.75
1257.42845	3.45
1260.97859	9.05
1264.52631	7.35
1268.07163	6.65
1271.61453	7.65
1275.15503	8.35
1278.69312	2.25
1282.22882	3.75
1285.76211	5.25
1289.29301	-0.55
1292.82151	0.15
1296.34761	0.55
1299.87133	5.85
1303.39266	1.95
1306.9116	3.95
1310.42815	4.25
1313.94233	2.15
1317.45412	0.95
1320.96354	-2.05
1324.47058	3.25
1327.97525	0.35
1331.47754	-3.45
1334.97747	-3.55
1338.47502	-0.25
1341.97022	-5.15
1345.46305	-0.55
1348.95352	2.55
1352.44163	-0.05
1355.92738	0.85
1359.41078	-0.15
1362.89183	0.45
1366.37053	7.65
1369.84688	0.95
1373.32088	0.55
1376.79254	9.05
1380.26186	3.75
1383.72883	4.15
1387.19347	11.45
1390.65578	6.45
1394.11575	-1.95
1397.57339	0.85
1401.0287	-1.55
1404.48168	-1.55
1407.93234	-3.55
1411.38068	0.55
1414.82669	-3.05
1418.27039	-2.55
1421.71177	-2.75
1425.15083	-4.35
1428.58758	-0.75
1432.02203	-1.45
1435.45416	-3.75
1438.88399	-0.65
1442.31151	-6.65
1445.73673	0.85
1449.15965	-2.45
1452.58027	-4.05
1455.9986	-1.85
1459.41463	-1.35
1462.82837	-4.65
1466.23982	-2.45
1469.64898	-3.95
1473.05586	2.55
1476.46045	-4.05
1479.86276	-2.15
1483.26279	-2.75
1486.66054	-3.85
1490.05602	-4.95
1493.44922	-2.45
1496.84016	-1.55
1500.22882	-0.35
1503.61521	-1.15
1506.99934	1.05
1510.38121	1.85
1513.76081	1.35
1517.13816	3.35
1520.51324	1.95
1523.88607	0.25
1527.25665	-1.35
1530.62498	0.45
1533.99105	-2.95
1537.35488	-2.35
1540.71647	1.25
1544.07581	-4.95
1547.4329	-2.05
1550.78776	-5.15
1554.14038	-3.65
1557.49077	-1.75
1560.83892	-1.25
1564.18484	-0.45
1567.52853	1.45
1570.86999	0.75
1574.20922	3.25
1577.54624	1.25
1580.88103	-0.05
1584.2136	-1.75
1587.54395	-0.25
1590.87208	-4.05
1594.19801	0.75
1597.52172	-0.45
1600.84321	2.35
1604.16251	0.65
1607.47959	2.35
1610.79447	-1.65
1614.10715	-0.85
1617.41763	1.55
1620.7259	5.15
1624.03199	4.55
1627.33587	2.65
1630.63757	3.85
1633.93707	7.95
1637.23439	7.35
1640.52951	16.15
1643.82246	8.55
1647.11321	17.35
1650.40179	25.05
1653.68819	24.25
1656.97241	25.35
1660.25446	24.45
1663.53433	20.85
1666.81203	19.65
1670.08756	18.65
1673.36092	13.15
1676.63211	7.35
1679.90115	6.35
1683.16801	10.95
1686.43272	5.85
1689.69527	10.35
1692.95567	15.75
1696.2139	26.85
1699.46999	39.05
1702.72392	39.05
1705.97571	27.75
1709.22535	15.85
1712.47284	10.75
1715.71819	6.85
1718.96139	-11.55
1722.20246	-3.35
1725.44139	-1.65
1728.67818	0.75
1731.91284	1.75
1735.14537	3.25
1738.37576	1.35
1741.60403	4.55
1744.83017	2.65
1748.05418	8.15
1751.27607	8.05
1754.49584	16.25
1757.71349	20.05
1760.92903	23.45
1764.14244	27.05
1767.35375	22.85
1770.56294	24.45
1773.77002	20.25
1776.97499	11.65
1780.17785	8.75
1783.37861	2.55
1786.57727	-2.45
1789.77382	-1.35
1792.96828	1.15
1796.16064	-5.15
1799.3509	-2.25
1802.53907	-2.85
1805.72514	-2.65
1808.90913	-2.45
1812.09102	-0.35
1815.27083	-4.95
1818.44856	-2.25
1821.6242	-2.55
1824.79776	-4.85
1827.96924	-6.85
1831.13864	-3.45
1834.30597	-3.05
1837.47122	-2.65
1840.6344	-3.75
1843.7955	-1.85
1846.95454	-0.65
1850.11151	-5.75
1853.26642	-4.15
1856.41926	-3.65
1859.57004	-2.65
1862.71876	-0.65
1865.86542	-3.45
1869.01003	-2.25
1872.15258	-3.95
1875.29308	-4.15
1878.43152	-2.85
1881.56792	-2.15
1884.70227	-5.85
1887.83457	-4.65
1890.96482	-5.35
1894.09304	-1.95
1897.21921	-3.05
1900.34335	-2.45
1903.46544	-2.25
1906.58551	-5.25
1909.70353	-0.75
1912.81953	-6.35
1915.93349	-2.15
1919.04543	-2.95
1922.15534	-2.15
1925.26322	-0.85
1928.36908	-2.95
1931.47292	-3.55
1934.57473	-2.75
1937.67453	-3.95
1940.77232	-3.15
1943.86808	-4.25
1946.96184	-7.75
1950.05358	-0.95
1953.14331	-4.85
1956.23103	-3.15
1959.31675	-5.45
1962.40046	-4.45
1965.48217	-5.65
1968.56188	-5.35
1971.63959	-2.45
1974.7153	-3.35
1977.78901	-4.85
1980.86073	-1.15
1983.93046	-4.55
1986.99819	-4.75
1990.06394	-4.35
1993.1277	-4.15
1996.18947	-0.05
1999.24925	-0.85
2002.30706	-7.25
2005.36288	-1.95
2008.41672	-2.45
2011.46859	-3.55
2014.51848	-1.55
2017.56639	-4.05
2020.61233	-3.55
2023.6563	-5.75
2026.6983	-2.35
2029.73833	-4.25
2032.7764	-4.25
2035.8125	-4.15
2038.84664	0.55
2041.87881	-6.65
2044.90903	-3.15
2047.93729	-3.35
2050.96359	-5.35
2053.98794	-4.15
2057.01034	-3.35
2060.03078	-6.85
2063.04927	-4.95
2066.06582	-3.75
2069.08042	-1.95
2072.09307	-5.85
2075.10378	-3.55
2078.11255	-6.35
2081.11938	-1.85
2084.12426	-0.15
2087.12722	-1.05
2090.12824	-2.65
2093.12732	-2.25
2096.12447	-2.75
2099.11969	-1.85
2102.11299	-3.35
2105.10435	-1.85
2108.09379	-3.65
2111.08131	-3.75
2114.0669	-1.35
2117.05057	-2.35
2120.03233	-2.65
2123.01216	-1.95
2125.99008	-4.65
2128.96609	-6.05
2131.94018	-2.85
2134.91236	-3.55
2137.88263	-1.75
2140.851	-4.05
2143.81746	-3.75
2146.78201	-2.35
2149.74466	-4.55
2152.7054	-6.85
2155.66425	-6.15
2158.6212	-4.15
2161.57625	-1.75
2164.52941	-6.05
2167.48067	-4.45
2170.43004	-5.15
2173.37752	-2.15
2176.32311	-4.45
2179.26681	-4.35
2182.20863	-4.25
2185.14856	-2.15
2188.08661	-2.55
2191.02278	-4.25
2193.95707	-3.75
2196.88948	-2.45
2199.82001	-2.55
2202.74867	-1.45
2205.67545	-1.75
2208.60037	-6.55
2211.52341	-3.35
2214.44458	-3.35
2217.36388	-5.95
2220.28132	-4.25
2223.1969	-3.95
2226.11061	-3.65
2229.02246	-6.15
2231.93245	-4.25
2234.84058	-4.65
2237.74686	-6.15
2240.65128	-1.95
2243.55385	-5.35
2246.45456	-1.05
2249.35343	-1.95
2252.25044	-3.45
2255.14561	-6.05
2258.03893	-4.15
2260.93041	-0.45
2263.82004	-0.65
2266.70783	-4.05
2269.59378	-0.35
2272.4779	-3.35
2275.36017	-4.15
2278.24061	-5.35
2281.11922	-1.55
2283.996	-6.15
2286.87094	-4.75
2289.74405	-4.75
2292.61534	-2.15
2295.4848	-0.65
2298.35243	-3.55
2301.21824	-2.65
2304.08223	-1.15
2306.94439	-4.75
2309.80474	-4.45
2312.66327	-1.95
2315.51999	-5.65
2318.37489	-4.55
2321.22797	-0.85
2324.07925	-3.85
2326.92871	-2.25
2329.77637	-1.65
2332.62222	-4.75
2335.46626	-4.25
2338.3085	-0.55
2341.14893	-3.75
2343.98756	-3.05
2346.8244	-2.15
2349.65943	-1.85
2352.49267	-5.35
2355.32411	-2.05
2358.15376	-2.65
2360.98161	-1.35
2363.80768	-2.85
2366.63195	-3.45
2369.45444	-3.05
2372.27514	0.15
2375.09405	-2.45
2377.91118	-3.35
2380.72652	-6.45
2383.54009	-5.55
2386.35187	-2.05
2389.16188	-5.55
2391.97011	-3.35
2394.77657	-4.35
2397.58125	-3.55
2400.38416	-3.65
2403.18529	-2.75
2405.98466	-1.05
2408.78226	-2.55
2411.57809	-4.05
2414.37216	-3.55
2417.16446	-5.85
2419.955	-7.15
2422.74378	-2.55
2425.5308	-3.55
2428.31606	-2.65
2431.09956	-2.45
2433.88131	-1.35
2436.6613	-8.05
2439.43954	-2.95
2442.21603	-4.45
2444.99077	-1.95
2447.76377	-3.35
2450.53501	-5.25
2453.30451	-1.05
2456.07226	-6.95
2458.83827	-1.95
2461.60254	-5.45
2464.36507	-1.75
2467.12586	-6.25
2469.88492	-4.45
2472.64224	-3.35
2475.39782	-2.95
2478.15167	-3.45
2480.90379	-2.25
2483.65417	-4.05
2486.40283	-2.35
2489.14976	-4.15
2491.89497	-1.35
2494.63845	0.75
2497.3802	-2.25
2500.12024	-1.55
2502.85855	-3.25
2505.59514	-4.35
2508.33002	-3.45
2511.06318	-2.65
2513.79462	-2.35
2516.52435	-5.55
2519.25237	-3.45
2521.97867	-2.15
2524.70327	-1.75
2527.42616	-3.05
2530.14734	-2.25
2532.86681	-4.95
2535.58458	-2.65
2538.30065	-5.65
2541.01501	-4.65
2543.72768	-5.05
2546.43864	-2.35
2549.14791	-3.55
2551.85548	-5.35
2554.56136	-2.15
2557.26554	-4.35
2559.96803	-5.25
2562.66883	-3.95
2565.36794	-2.65
2568.06536	-1.35
2570.7611	-2.95
2573.45514	-4.75
2576.14751	-5.55
2578.83819	-3.55
2581.52719	-3.65
2584.21451	-1.25
2586.90015	-3.95
2589.58411	-4.45
2592.2664	-6.25
2594.94701	0.25
2597.62594	-1.45
2600.30321	-1.65
2602.9788	-4.15
2605.65273	-3.65
2608.32498	-1.95
2610.99557	-5.05
2613.66449	-7.05
2616.33175	-4.75
2618.99734	-2.65
2621.66128	-3.95
2624.32355	-0.65
2626.98416	-3.45
2629.64311	-3.65
2632.30041	-4.55
2634.95605	-4.05
2637.61004	-1.55
2640.26238	-7.15
2642.91306	-1.35
2645.56209	-0.85
2648.20948	-4.45
2650.85521	0.35
2653.4993	-5.65
2656.14175	1.75
2658.78255	0.95
2661.42171	0.85
2664.05923	-0.85
2666.6951	-3.15
2669.32934	-3.15
2671.96194	-4.05
2674.59291	-3.35
2677.22224	-3.55
2679.84993	-2.15
2682.476	-6.85
2685.10043	-5.55
2687.72324	-5.35
2690.34441	-5.05
2692.96396	-3.85
2695.58188	-4.75
2698.19818	-1.05
2700.81285	-2.95
2703.4259	8.45
2706.03733	14.65
2708.64714	3.95
2711.25533	1.95
2713.86191	0.55
2716.46687	1.15
2719.07021	-1.05
2721.67194	0.05
2724.27206	0.05
2726.87057	-2.55
2729.46747	-4.25
2732.06276	-0.25
2734.65644	-2.45
2737.24852	-2.75
2739.83899	-5.05
2742.42786	-1.15
2745.01513	-3.35
2747.60079	-5.05
2750.18486	-6.05
2752.76733	-2.25
2755.3482	-4.35
2757.92747	-2.85
2760.50515	-1.85
2763.08123	-2.35
2765.65573	-2.95
2768.22863	-2.05
2770.79994	-7.15
2773.36967	-0.05
2775.9378	-2.25
2778.50435	-3.95
2781.06932	-2.45
2783.6327	-2.85
2786.1945	-3.35
2788.75471	-3.05
2791.31335	-4.45
2793.87041	-4.45
2796.42589	-0.95
2798.97979	-1.55
2801.53212	-3.15
2804.08288	-8.25
2806.63206	-2.65
2809.17967	-4.75
2811.72571	-5.15
2814.27018	-2.55
2816.81308	-3.65
2819.35442	-4.75
2821.89419	-2.65
2824.43239	-3.05
2826.96904	-6.35
2829.50412	-4.25
2832.03763	1.35
2834.56959	-2.35
2837.1	-3.65
2839.62884	-0.05
2842.15613	-2.15
2844.68186	-3.65
2847.20604	-3.15
2849.72867	-1.95
2852.24974	-2.75
2854.76927	4.05
2857.28724	3.75
2859.80367	0.25
2862.31855	-3.15
2864.83189	-0.55
2867.34368	-1.05
2869.85393	-4.35
2872.36264	-1.85
2874.8698	-0.95
2877.37543	-1.75
2879.87952	-4.35
2882.38207	-4.15
2884.88308	-4.15
2887.38256	-0.65
2889.88051	-1.35
2892.37692	-4.15
2894.8718	-2.25
2897.36515	-3.75
2899.85698	-3.05
2902.34727	-4.85
2904.83604	-6.55
2907.32328	-3.25
2909.809	-0.25
2912.29319	-5.55
2914.77587	-4.65
2917.25702	-0.95
2919.73665	-3.85
2922.21476	-3.35
2924.69136	0.25
2927.16644	-0.65
2929.64	-3.15
2932.11205	-4.75
2934.58258	-3.55
2937.05161	-4.15
2939.51912	-5.25
2941.98513	-2.75
2944.44962	-1.85
2946.91261	-4.15
2949.37409	-4.35
2951.83407	-2.45
2954.29254	-1.35
2956.74951	-0.15
2959.20498	-2.25
2961.65895	-2.35
2964.11142	-2.45
2966.56239	1.65
2969.01186	-2.25
2971.45984	0.05
2973.90632	-3.85
2976.35131	-5.85
2978.7948	-2.15
2981.23681	-5.35
2983.67732	-1.95
2986.11635	-6.35
2988.55388	-4.85
2990.98993	-3.55
2993.4245	-3.95
2995.85758	-0.55
2998.28917	2.85
3000.71928	-3.25
3003.14791	0.55
3005.57506	-1.35
3008.00073	-3.55
3010.42493	-3.35
3012.84764	-3.75
3015.26888	-4.25
3017.68865	-3.25
3020.10694	1.95
3022.52376	-4.45
3024.9391	-5.45
3027.35298	-2.15
3029.76539	-0.35
3032.17632	-4.55
3034.5858	-1.15
3036.9938	-0.55
3039.40034	-2.25
3041.80542	-4.45
3044.20903	-2.65
3046.61118	-0.95
3049.01187	-4.15
3051.4111	-1.65
3053.80888	-2.25
3056.20519	-4.85
3058.60005	-1.25
3060.99345	-1.55
3063.3854	-5.45
3065.7759	-6.65
3068.16494	0.55
3070.55254	-0.55
3072.93868	-1.25
3075.32338	-4.15
3077.70662	-5.95
3080.08842	-4.55
3082.46878	-2.55
3084.84769	-4.15
3087.22515	0.25
3089.60118	-3.85
3091.97576	-0.85
3094.3489	-1.25
3096.72061	-6.55
3099.09087	0.45
3101.4597	-1.55
3103.82709	-3.05
3106.19305	-3.45
3108.55757	-2.05
3110.92066	-1.75
3113.28232	-2.05
3115.64255	-1.35
3118.00134	-3.15
3120.35871	-0.45
3122.71466	-1.15
3125.06917	-3.55
3127.42226	0.35
3129.77393	-2.15
3132.12417	-4.55
3134.47299	-4.15
3136.82039	-1.95
3139.16636	-3.65
3141.51092	-0.45
3143.85406	-2.65
3146.19579	-1.95
3148.53609	-3.65
3150.87499	-3.25
3153.21246	1.45
3155.54853	-1.75
3157.88318	-5.25
3160.21642	-6.85
3162.54826	0.25
3164.87868	-1.35
3167.2077	-2.85
3169.5353	-4.95
3171.86151	-3.15
3174.18631	-5.85
3176.5097	-1.55
3178.83169	-0.85
3181.15228	-4.75
3183.47147	-1.05
3185.78926	-1.55
3188.10565	-0.55
3190.42065	-3.55
3192.73424	-1.35
3195.04645	-5.65
3197.35725	-2.55
3199.66667	-5.35
3201.97469	-1.75
3204.28132	-4.65
3206.58656	0.85
3208.8904	0.15
3211.19287	-5.35
3213.49394	0.45
3215.79363	-1.55
3218.09193	-1.25
3220.38884	2.05
3222.68438	0.15
3224.97853	0.25
3227.2713	-3.65
3229.56269	-2.05
3231.8527	-0.95
3234.14133	-0.25
3236.42858	-1.25
3238.71446	-3.25
3240.99896	-2.55
3243.28209	-3.65
3245.56384	-3.65
3247.84423	-4.05
3250.12324	-3.85
3252.40088	-4.05
3254.67715	-2.65
3256.95205	-1.65
3259.22558	-2.45
3261.49775	-1.65
3263.76855	-2.55
3266.03799	-0.95
3268.30606	0.55
3270.57277	-5.65
3272.83812	-1.15
3275.10211	-1.45
3277.36474	-3.35
3279.62601	-1.65
3281.88593	-0.55
3284.14448	0.05
3286.40168	-1.35
3288.65753	-1.45
3290.91202	0.05
3293.16516	0.65
3295.41695	-3.55
3297.66738	-0.55
3299.91647	0.95
3302.16421	-1.85
3304.4106	-1.25
3306.65564	0.55
3308.89933	-7.25
3311.14169	-0.05
3313.38269	-0.55
3315.62236	-0.25
3317.86068	-1.95
3320.09766	-0.65
3322.3333	-1.35
3324.5676	4.35
3326.80056	2.55
3329.03219	1.75
3331.26248	0.15
3333.49143	-1.05
3335.71905	0.65
