Data from AgNP_FTO_APTES_UA_100uM_CRN_5uM_R6G_10uM_NaF_0.1M_Addition_RamanShift__21__15-03-00-378.txt Node

Date: Thu Mar 24 15:03:00 GMT 2022
User: TCL
Spectrometer: QEP01345
Trigger mode: 4
Integration Time (sec): 7.000000E0
Scans to average: 10
Electric dark correction enabled: true
Nonlinearity correction enabled: false
Boxcar width: 0
XAxis mode: Raman Shifts
Number of Pixels in Spectrum: 1044
>>>>>Begin Spectral Data<<<<<
46.04893	-1.3
50.45542	0.4
54.85868	0.2
59.25871	0.3
63.6555	32
68.04907	32.3
72.43941	32.1
76.82654	31.1
81.21044	37.8
85.59113	39.6
89.96862	39.4
94.34289	36.5
98.71396	40.4
103.08183	38.3
107.4465	45.6
111.80798	47.4
116.16626	44.6
120.52136	46.6
124.87327	48
129.222	50.2
133.56755	56.2
137.90993	56
142.24913	63.3
146.58517	68.6
150.91804	79.3
155.24774	98.8
159.57429	123.7
163.89768	157.3
168.21792	211.5
172.53501	294.5
176.84895	407.5
181.15975	575.3
185.46741	801.4
189.77193	1111.2
194.07331	1489
198.37157	1927.7
202.6667	2406.5
206.9587	2881
211.24758	3392.6
215.53334	3926.8
219.81599	4551.4
224.09553	5266.1
228.37195	6081.8
232.64527	6919
236.91549	7727.5
241.18261	8419.6
245.44663	8917.7
249.70755	9273.8
253.96539	9557.8
258.22014	9848.7
262.4718	10093.7
266.72039	10281.9
270.96589	10291.5
275.20832	10117.4
279.44768	9817.9
283.68397	9512
287.91719	9365.5
292.14735	9377.3
296.37445	9719.2
300.59849	10353.2
304.81948	11120.2
309.03742	11741.5
313.25231	11869.9
317.46415	11308.5
321.67296	10258.2
325.87872	9296.2
330.08145	8843.4
334.28114	8767.9
338.47781	8956
342.67145	9257.9
346.86207	9752.2
351.04966	10489.9
355.23424	11331.7
359.4158	11983
363.59435	12244.7
367.76989	12245.2
371.94243	12065.3
376.11196	11884.4
380.27849	11688.1
384.44203	11451.7
388.60257	11204
392.76012	11050.4
396.91468	11126
401.06626	11465.6
405.21485	11663.3
409.36047	11324.9
413.50311	10469
417.64277	9641.6
421.77947	9134.5
425.9132	8913.1
430.04396	8885.3
434.17176	8899.5
438.2966	9052.5
442.41849	9330.8
446.53742	9740.1
450.6534	10058
454.76644	10220.6
458.87653	10168.7
462.98368	9955
467.08789	9691.8
471.18916	9395.6
475.2875	9089.8
479.38291	8815.4
483.4754	8584.8
487.56496	8445.8
491.6516	8354.5
495.73531	8339.5
499.81612	8362.7
503.89401	8511.1
507.96899	8719
512.04106	8894.5
516.11023	9114.4
520.1765	9251.6
524.23987	9292.8
528.30034	9192.8
532.35792	9071.6
536.41261	8891.6
540.46441	8605.2
544.51333	8415.9
548.55936	8438.3
552.60252	8747.3
556.64279	9078.4
560.6802	9283.2
564.71473	9487.8
568.7464	10032.6
572.7752	10329.6
576.80114	9828.2
580.82422	9333.3
584.84444	9231.5
588.86181	9392.5
592.87633	9701.6
596.888	9976.5
600.89682	10219
604.9028	11746.6
608.90594	16360.6
612.90624	22626.1
616.90371	21812.1
620.89834	13671.1
624.89015	9646.3
628.87913	8919.5
632.86528	9134.9
636.84862	9436.5
640.82913	9200.5
644.80683	8486.7
648.78172	7973.3
652.75379	7970.2
656.72306	8504.7
660.68952	9201.3
664.65319	9050.5
668.61405	8268
672.57211	7908.6
676.52738	7888.3
680.47986	7850
684.42955	7671.4
688.37646	7551.4
692.32058	7585.4
696.26192	7670.7
700.20048	7859.2
704.13626	7949.9
708.06928	7904.9
711.99952	7803.9
715.927	7810.4
719.85171	7901.4
723.77365	7992.5
727.69284	7914.8
731.60928	7845.9
735.52295	7845.3
739.43388	7903.1
743.34206	7934.1
747.24749	7935.8
751.15017	7931.8
755.05012	8119.8
758.94733	8757
762.8418	10468.9
766.73354	13388
770.62254	16229.5
774.50882	17556
778.39237	16601.7
782.27321	13751.5
786.15132	10819.8
790.02671	9041.3
793.89938	8211.3
797.76935	7886.6
801.6366	7749.1
805.50115	7671.5
809.36299	7610.5
813.22213	7536.3
817.07857	7508.4
820.93231	7485.8
824.78336	7524.2
828.63172	7599
832.47738	7621.4
836.32036	7570.7
840.16066	7496.6
843.99827	7433.8
847.8332	7420.6
851.66546	7386.9
855.49504	7399.9
859.32195	7408.7
863.1462	7376.5
866.96777	7337.9
870.78668	7337.2
874.60293	7365.7
878.41652	7401.2
882.22745	7514.5
886.03573	7585.8
889.84136	7594.9
893.64433	7520.5
897.44466	7496.8
901.24235	7438.4
905.0374	7389.3
908.8298	7296.3
912.61957	7212.7
916.40671	7214.6
920.19121	7300.1
923.97308	7455
927.75233	7663.7
931.52895	7904
935.30295	7781.8
939.07433	7422.8
942.84309	7142.3
946.60924	6989.1
950.37278	6890.9
954.13371	6811.6
957.89203	6771.2
961.64774	6731.9
965.40086	6709.1
969.15137	6668.5
972.89929	6654.9
976.64461	6636.3
980.38733	6639.4
984.12747	6678.8
987.86502	6719.9
991.59999	6798.7
995.33237	6953.3
999.06217	7191.1
1002.78939	7491.8
1006.51404	7797.5
1010.23611	8001.2
1013.95561	8095.3
1017.67255	8079.8
1021.38692	7919.4
1025.09872	7695.4
1028.80796	7567.6
1032.51465	7650.7
1036.21877	7838.4
1039.92035	7950.9
1043.61937	7940.4
1047.31584	7895.9
1051.00976	7779.1
1054.70114	7660.4
1058.38998	7604
1062.07627	7589.4
1065.76003	7617.3
1069.44126	7673.6
1073.11995	7815.6
1076.79611	8056.3
1080.46974	8382.7
1084.14085	8838.5
1087.80943	9262.1
1091.47549	9365.4
1095.13903	9106.3
1098.80005	8627.3
1102.45857	8272.6
1106.11456	8179.8
1109.76805	8354.2
1113.41903	8761.3
1117.06751	9402
1120.71348	10161.1
1124.35696	11046.9
1127.99793	11629.2
1131.63641	11326.5
1135.2724	10339.9
1138.90589	9516.7
1142.5369	9003.6
1146.16542	8661.2
1149.79145	8459.2
1153.415	8380.1
1157.03607	8493.9
1160.65467	8803.2
1164.27079	9325.9
1167.88443	10156.6
1171.49561	11451.4
1175.10432	13507.9
1178.71056	16291.1
1182.31434	18563
1185.91565	19118.3
1189.51451	18166.6
1193.11091	16469.4
1196.70485	14666.1
1200.29634	13386.6
1203.88538	12354.6
1207.47197	11198.6
1211.05612	10188.7
1214.63782	9611.7
1218.21708	9420.8
1221.79391	9449
1225.36829	9539.4
1228.94024	9513.1
1232.50976	9322.1
1236.07685	9180.5
1239.6415	9119
1243.20374	9130.6
1246.76355	9242.3
1250.32093	9391.1
1253.8759	9675.8
1257.42845	10119.4
1260.97859	10669.3
1264.52631	11331.9
1268.07163	11969.1
1271.61453	12474.2
1275.15503	12874
1278.69312	13068.1
1282.22882	13296.1
1285.76211	13796.8
1289.29301	14522.1
1292.82151	15252.1
1296.34761	16110.2
1299.87133	17435
1303.39266	19799.1
1306.9116	23406.6
1310.42815	27263.7
1313.94233	28797.2
1317.45412	26977.5
1320.96354	23605.1
1324.47058	20350.7
1327.97525	17795.4
1331.47754	16258.8
1334.97747	15633.3
1338.47502	15669.5
1341.97022	16293.6
1345.46305	17647
1348.95352	19718.1
1352.44163	22355.5
1355.92738	26156.6
1359.41078	31890.1
1362.89183	36945.9
1366.37053	34748.8
1369.84688	26965.2
1373.32088	20309.5
1376.79254	16702.5
1380.26186	14853.1
1383.72883	13678.2
1387.19347	12742.3
1390.65578	11938.6
1394.11575	11392
1397.57339	11183.4
1401.0287	11163.3
1404.48168	11242.6
1407.93234	11283.2
1411.38068	11317.7
1414.82669	11403.1
1418.27039	11397.5
1421.71177	11200.2
1425.15083	10891.1
1428.58758	10813.6
1432.02203	11095.9
1435.45416	11442
1438.88399	11540.2
1442.31151	11474.9
1445.73673	11554
1449.15965	11636.8
1452.58027	11578.3
1455.9986	11384.2
1459.41463	11330.9
1462.82837	11570.1
1466.23982	12064.8
1469.64898	12481.6
1473.05586	12776
1476.46045	12921.4
1479.86276	13135.4
1483.26279	13496.4
1486.66054	14108.3
1490.05602	14956.1
1493.44922	16220.8
1496.84016	18217.1
1500.22882	21390.8
1503.61521	25984.4
1506.99934	31174.1
1510.38121	35078.5
1513.76081	35246.2
1517.13816	31183.7
1520.51324	25123.1
1523.88607	19997.8
1527.25665	16906.9
1530.62498	15188
1533.99105	14215
1537.35488	13524.4
1540.71647	13057
1544.07581	12820.7
1547.4329	12725
1550.78776	12724.1
1554.14038	12864.9
1557.49077	13122
1560.83892	13517.1
1564.18484	14293
1567.52853	15156.8
1570.86999	15897.7
1574.20922	16289.9
1577.54624	16045.6
1580.88103	14754.6
1584.2136	12988.8
1587.54395	12026.7
1590.87208	12090.8
1594.19801	13070.5
1597.52172	14523.7
1600.84321	15252.6
1604.16251	14657.3
1607.47959	13484.1
1610.79447	12222.2
1614.10715	10988.7
1617.41763	10010.3
1620.7259	9355.7
1624.03199	9055.5
1627.33587	9118.1
1630.63757	9496.2
1633.93707	10331
1637.23439	11746.5
1640.52951	14066
1643.82246	17519.4
1647.11321	21646.7
1650.40179	24192
1653.68819	22919.8
1656.97241	18466.9
1660.25446	13937.2
1663.53433	10913
1666.81203	9205.8
1670.08756	8266.4
1673.36092	7717.2
1676.63211	7353
1679.90115	7104.2
1683.16801	6919.5
1686.43272	6771.5
1689.69527	6695
1692.95567	6654.4
1696.2139	6614.1
1699.46999	6586.7
1702.72392	6540.7
1705.97571	6533.7
1709.22535	6503.1
1712.47284	6493.5
1715.71819	6506.9
1718.96139	6483.4
1722.20246	6443.4
1725.44139	6388.5
1728.67818	6299.4
1731.91284	6224.8
1735.14537	6162.6
1738.37576	6117.1
1741.60403	6092.4
1744.83017	6055.7
1748.05418	6020.3
1751.27607	6002.4
1754.49584	5989.2
1757.71349	5987.9
1760.92903	5976
1764.14244	5954.1
1767.35375	5942.6
1770.56294	5895.2
1773.77002	5866.3
1776.97499	5835.6
1780.17785	5804.4
1783.37861	5760.9
1786.57727	5742.6
1789.77382	5700.5
1792.96828	5711.4
1796.16064	5707.4
1799.3509	5676.7
1802.53907	5663.3
1805.72514	5638.5
1808.90913	5619.3
1812.09102	5592.4
1815.27083	5571.2
1818.44856	5562.4
1821.6242	5532
1824.79776	5537
1827.96924	5526.4
1831.13864	5520.6
1834.30597	5502.6
1837.47122	5493.5
1840.6344	5479.1
1843.7955	5478.5
1846.95454	5465.3
1850.11151	5463.3
1853.26642	5447.8
1856.41926	5438.1
1859.57004	5465.1
1862.71876	5436.4
1865.86542	5440.8
1869.01003	5439.5
1872.15258	5440.9
1875.29308	5451.3
1878.43152	5435
1881.56792	5440.1
1884.70227	5443.1
1887.83457	5442.7
1890.96482	5446.7
1894.09304	5442
1897.21921	5434.7
1900.34335	5418.9
1903.46544	5423.9
1906.58551	5421.6
1909.70353	5425.1
1912.81953	5408.7
1915.93349	5396.3
1919.04543	5386.4
1922.15534	5374.9
1925.26322	5356.4
1928.36908	5333.2
1931.47292	5301.7
1934.57473	5266.2
1937.67453	5258
1940.77232	5236.5
1943.86808	5225.2
1946.96184	5204.6
1950.05358	5184.1
1953.14331	5178.8
1956.23103	5180.1
1959.31675	5169.7
1962.40046	5152
1965.48217	5135.2
1968.56188	5130.2
1971.63959	5123.5
1974.7153	5128.6
1977.78901	5106.9
1980.86073	5091
1983.93046	5058.8
1986.99819	5034.2
1990.06394	5001.7
1993.1277	4988.6
1996.18947	4960.7
1999.24925	4938.4
2002.30706	4911
2005.36288	4894.2
2008.41672	4870.7
2011.46859	4871.1
2014.51848	4862.3
2017.56639	4838.9
2020.61233	4841.9
2023.6563	4819.9
2026.6983	4811.8
2029.73833	4801.7
2032.7764	4780
2035.8125	4787.4
2038.84664	4770.2
2041.87881	4765.8
2044.90903	4760.9
2047.93729	4767.7
2050.96359	4753.6
2053.98794	4724.9
2057.01034	4732.4
2060.03078	4706.4
2063.04927	4691.2
2066.06582	4696.2
2069.08042	4692.7
2072.09307	4682
2075.10378	4690.1
2078.11255	4676.6
2081.11938	4693.5
2084.12426	4673.7
2087.12722	4689
2090.12824	4694.1
2093.12732	4678.3
2096.12447	4695.1
2099.11969	4685.7
2102.11299	4674.9
2105.10435	4692.1
2108.09379	4686.7
2111.08131	4689.9
2114.0669	4696.9
2117.05057	4697.8
2120.03233	4716.4
2123.01216	4719.5
2125.99008	4734.3
2128.96609	4734.2
2131.94018	4721.9
2134.91236	4721.7
2137.88263	4721.6
2140.851	4714.1
2143.81746	4717.3
2146.78201	4723.7
2149.74466	4696.2
2152.7054	4692.8
2155.66425	4692.7
2158.6212	4679.8
2161.57625	4672.5
2164.52941	4675.5
2167.48067	4688.7
2170.43004	4675.8
2173.37752	4676.8
2176.32311	4691.1
2179.26681	4683.7
2182.20863	4674.1
2185.14856	4698.1
2188.08661	4675.8
2191.02278	4673.3
2193.95707	4664.7
2196.88948	4657.9
2199.82001	4666.3
2202.74867	4648.4
2205.67545	4656.1
2208.60037	4624.7
2211.52341	4630.3
2214.44458	4640.3
2217.36388	4634.5
2220.28132	4622.5
2223.1969	4627.7
2226.11061	4611.9
2229.02246	4594.3
2231.93245	4589.9
2234.84058	4574.2
2237.74686	4560.8
2240.65128	4575.7
2243.55385	4568.7
2246.45456	4558.2
2249.35343	4554.1
2252.25044	4567.3
2255.14561	4570.9
2258.03893	4585.3
2260.93041	4598.6
2263.82004	4573.8
2266.70783	4580.3
2269.59378	4557.7
2272.4779	4547.9
2275.36017	4538.3
2278.24061	4528.8
2281.11922	4525.4
2283.996	4504.6
2286.87094	4503.2
2289.74405	4467.7
2292.61534	4475.6
2295.4848	4461.1
2298.35243	4455.7
2301.21824	4452.1
2304.08223	4447.2
2306.94439	4458
2309.80474	4456.6
2312.66327	4451.9
2315.51999	4455
2318.37489	4458.5
2321.22797	4445.5
2324.07925	4447.9
2326.92871	4434.6
2329.77637	4466.1
2332.62222	4433.2
2335.46626	4452
2338.3085	4446.7
2341.14893	4453.5
2343.98756	4460.3
2346.8244	4473.1
2349.65943	4473.7
2352.49267	4480.9
2355.32411	4512.1
2358.15376	4512.2
2360.98161	4529
2363.80768	4533.5
2366.63195	4547.4
2369.45444	4541.2
2372.27514	4548.1
2375.09405	4531.3
2377.91118	4513.3
2380.72652	4491.6
2383.54009	4473.5
2386.35187	4463.7
2389.16188	4434.9
2391.97011	4406.6
2394.77657	4402.8
2397.58125	4385.8
2400.38416	4369.2
2403.18529	4342.3
2405.98466	4339.8
2408.78226	4336.5
2411.57809	4315.5
2414.37216	4313.6
2417.16446	4308.3
2419.955	4296.3
2422.74378	4292.5
2425.5308	4306
2428.31606	4302.3
2431.09956	4304.6
2433.88131	4302.6
2436.6613	4305.1
2439.43954	4323.4
2442.21603	4320.9
2444.99077	4344.4
2447.76377	4344
2450.53501	4336.2
2453.30451	4330
2456.07226	4339
2458.83827	4346.6
2461.60254	4336.7
2464.36507	4344
2467.12586	4355.7
2469.88492	4343.8
2472.64224	4354.8
2475.39782	4370.8
2478.15167	4374.5
2480.90379	4377.7
2483.65417	4416.5
2486.40283	4436.6
2489.14976	4451.2
2491.89497	4449.8
2494.63845	4453.8
2497.3802	4451.8
2500.12024	4440.5
2502.85855	4422.1
2505.59514	4405.9
2508.33002	4382.4
2511.06318	4343.6
2513.79462	4333.4
2516.52435	4297.1
2519.25237	4287.3
2521.97867	4276.3
2524.70327	4263.3
2527.42616	4236.6
2530.14734	4249.9
2532.86681	4233.7
2535.58458	4246
2538.30065	4233.6
2541.01501	4248
2543.72768	4242.3
2546.43864	4246.1
2549.14791	4244.5
2551.85548	4262.5
2554.56136	4261.7
2557.26554	4266.4
2559.96803	4247.9
2562.66883	4242.1
2565.36794	4244.9
2568.06536	4251.5
2570.7611	4249.9
2573.45514	4225.9
2576.14751	4228.9
2578.83819	4226.7
2581.52719	4213.9
2584.21451	4211.7
2586.90015	4217.6
2589.58411	4195.6
2592.2664	4196.8
2594.94701	4190.5
2597.62594	4195.6
2600.30321	4169
2602.9788	4186
2605.65273	4182
2608.32498	4203.7
2610.99557	4173.8
2613.66449	4181.3
2616.33175	4190.3
2618.99734	4188.8
2621.66128	4190.2
2624.32355	4195
2626.98416	4193.3
2629.64311	4187.2
2632.30041	4181.7
2634.95605	4174.9
2637.61004	4149
2640.26238	4146.4
2642.91306	4161.9
2645.56209	4152.4
2648.20948	4134.7
2650.85521	4140
2653.4993	4145.2
2656.14175	4152.6
2658.78255	4151
2661.42171	4157.5
2664.05923	4154.4
2666.6951	4163.5
2669.32934	4175.5
2671.96194	4184
2674.59291	4181.4
2677.22224	4168.3
2679.84993	4184.4
2682.476	4178.3
2685.10043	4182.1
2687.72324	4167.5
2690.34441	4166.3
2692.96396	4155.1
2695.58188	4166.2
2698.19818	4156.5
2700.81285	4154.6
2703.4259	4161.3
2706.03733	4169.5
2708.64714	4164.2
2711.25533	4180.9
2713.86191	4188.4
2716.46687	4186
2719.07021	4184.4
2721.67194	4184.3
2724.27206	4177.8
2726.87057	4177.9
2729.46747	4172.8
2732.06276	4165.6
2734.65644	4157.9
2737.24852	4142.5
2739.83899	4145
2742.42786	4136
2745.01513	4121.2
2747.60079	4132.8
2750.18486	4118.4
2752.76733	4130.1
2755.3482	4103.9
2757.92747	4109
2760.50515	4103.7
2763.08123	4102.5
2765.65573	4095.8
2768.22863	4097.9
2770.79994	4070.9
2773.36967	4091.3
2775.9378	4097.2
2778.50435	4099.7
2781.06932	4107.6
2783.6327	4095.5
2786.1945	4084.4
2788.75471	4083.2
2791.31335	4078.3
2793.87041	4095.3
2796.42589	4079.8
2798.97979	4094.3
2801.53212	4061.7
2804.08288	4081.5
2806.63206	4102.2
2809.17967	4101.2
2811.72571	4105.6
2814.27018	4104.5
2816.81308	4128.5
2819.35442	4119.4
2821.89419	4128
2824.43239	4136.1
2826.96904	4140.5
2829.50412	4143.6
2832.03763	4135.4
2834.56959	4137.5
2837.1	4118.8
2839.62884	4124.3
2842.15613	4104
2844.68186	4115.6
2847.20604	4113.9
2849.72867	4126.8
2852.24974	4139.7
2854.76927	4131.9
2857.28724	4148.7
2859.80367	4141.8
2862.31855	4163.2
2864.83189	4157.3
2867.34368	4183.3
2869.85393	4184.7
2872.36264	4201.5
2874.8698	4192.9
2877.37543	4199.3
2879.87952	4188.4
2882.38207	4183.2
2884.88308	4175.4
2887.38256	4177.2
2889.88051	4167.2
2892.37692	4165.4
2894.8718	4166.2
2897.36515	4174.8
2899.85698	4171.3
2902.34727	4166.4
2904.83604	4157.4
2907.32328	4166.1
2909.809	4162.7
2912.29319	4177.3
2914.77587	4157.4
2917.25702	4139.1
2919.73665	4129.3
2922.21476	4138.2
2924.69136	4134.2
2927.16644	4123.4
2929.64	4104.8
2932.11205	4102.9
2934.58258	4081.1
2937.05161	4077
2939.51912	4087.5
2941.98513	4074
2944.44962	4077.7
2946.91261	4065.3
2949.37409	4073.3
2951.83407	4062.8
2954.29254	4086.8
2956.74951	4067.1
2959.20498	4061
2961.65895	4065.3
2964.11142	4031.3
2966.56239	4046
2969.01186	4035.7
2971.45984	4020.3
2973.90632	4005.6
2976.35131	3977.9
2978.7948	3973.5
2981.23681	3966.7
2983.67732	3957.6
2986.11635	3945.3
2988.55388	3938.4
2990.98993	3940.8
2993.4245	3923.5
2995.85758	3949.1
2998.28917	3939.4
3000.71928	3929.9
3003.14791	3912.9
3005.57506	3925.3
3008.00073	3921.5
3010.42493	3926.7
3012.84764	3925.7
3015.26888	3924.7
3017.68865	3908.2
3020.10694	3919.7
3022.52376	3893
3024.9391	3872.7
3027.35298	3882.9
3029.76539	3866.8
3032.17632	3868.6
3034.5858	3852.9
3036.9938	3831.1
3039.40034	3823.6
3041.80542	3806.2
3044.20903	3794.5
3046.61118	3802
3049.01187	3785.3
3051.4111	3785.6
3053.80888	3784.2
3056.20519	3770.9
3058.60005	3773.2
3060.99345	3754.8
3063.3854	3751.6
3065.7759	3741.9
3068.16494	3755.7
3070.55254	3719.1
3072.93868	3725.5
3075.32338	3701.2
3077.70662	3703.6
3080.08842	3701.2
3082.46878	3687.4
3084.84769	3691.3
3087.22515	3697.1
3089.60118	3687.9
3091.97576	3685.2
3094.3489	3678.6
3096.72061	3677.2
3099.09087	3686.6
3101.4597	3683.5
3103.82709	3690.7
3106.19305	3661.2
3108.55757	3674.7
3110.92066	3674
3113.28232	3674
3115.64255	3650.2
3118.00134	3643.9
3120.35871	3646.6
3122.71466	3644.3
3125.06917	3640
3127.42226	3644
3129.77393	3644
3132.12417	3659.9
3134.47299	3646.5
3136.82039	3652.4
3139.16636	3659.1
3141.51092	3659.1
3143.85406	3661.6
3146.19579	3669.2
3148.53609	3666.6
3150.87499	3679.7
3153.21246	3692.3
3155.54853	3680.3
3157.88318	3678.1
3160.21642	3680
3162.54826	3693
3164.87868	3692.4
3167.2077	3683.8
3169.5353	3687.2
3171.86151	3679.1
3174.18631	3686.8
3176.5097	3681.9
3178.83169	3680.8
3181.15228	3675.7
3183.47147	3678.4
3185.78926	3671.7
3188.10565	3679.7
3190.42065	3691.7
3192.73424	3694.2
3195.04645	3692.5
3197.35725	3693.6
3199.66667	3712.2
3201.97469	3719.6
3204.28132	3715.4
3206.58656	3746.8
3208.8904	3747.3
3211.19287	3753.7
3213.49394	3763.4
3215.79363	3760.7
3218.09193	3767.3
3220.38884	3768.9
3222.68438	3783.3
3224.97853	3762.6
3227.2713	3752.8
3229.56269	3759.2
3231.8527	3764.4
3234.14133	3750.7
3236.42858	3761.8
3238.71446	3766
3240.99896	3747.6
3243.28209	3762.5
3245.56384	3762.1
3247.84423	3767.9
3250.12324	3764
3252.40088	3770.3
3254.67715	3750.8
3256.95205	3765.8
3259.22558	3761.8
3261.49775	3760.2
3263.76855	3755.1
3266.03799	3749
3268.30606	3747.3
3270.57277	3749.7
3272.83812	3868.6
3275.10211	3803
3277.36474	3755.6
3279.62601	3748.1
3281.88593	3735.7
3284.14448	3767
3286.40168	3760.1
3288.65753	3752.3
3290.91202	3753.6
3293.16516	3761.8
3295.41695	3761.7
3297.66738	3731.7
3299.91647	3729.7
3302.16421	3710.8
3304.4106	3697.1
3306.65564	3675.2
3308.89933	3647
3311.14169	3616.2
3313.38269	3593.3
3315.62236	3573.2
3317.86068	3541.8
3320.09766	3490.8
3322.3333	3462.3
3324.5676	3461.3
3326.80056	3400.2
3329.03219	3395.2
3331.26248	0.1
3333.49143	-1.4
3335.71905	1.1
