Data from AgNP_FTO_APTES_UA_100uM_CRN_0uM_R6G_10uM_NaF_0.1M_Addition_RamanShift__0__10-45-10-092.txt Node

Date: Thu Mar 24 10:45:10 GMT 2022
User: TCL
Spectrometer: QEP01345
Trigger mode: 4
Integration Time (sec): 7.000000E0
Scans to average: 10
Electric dark correction enabled: true
Nonlinearity correction enabled: false
Boxcar width: 0
XAxis mode: Raman Shifts
Number of Pixels in Spectrum: 1044
>>>>>Begin Spectral Data<<<<<
46.04893	-1.7375
50.45542	-1.3375
54.85868	1.3625
59.25871	0.2625
63.6555	37.3625
68.04907	41.8625
72.43941	42.2625
76.82654	42.2625
81.21044	46.7625
85.59113	48.3625
89.96862	54.0625
94.34289	48.8625
98.71396	53.6625
103.08183	52.7625
107.4465	54.8625
111.80798	56.6625
116.16626	56.1625
120.52136	57.1625
124.87327	59.9625
129.222	64.7625
133.56755	69.8625
137.90993	73.0625
142.24913	82.0625
146.58517	90.9625
150.91804	108.9625
155.24774	129.3625
159.57429	166.5625
163.89768	209.2625
168.21792	282.7625
172.53501	385.6625
176.84895	541.5625
181.15975	767.7625
185.46741	1070.7625
189.77193	1482.5625
194.07331	1997.1625
198.37157	2564.8625
202.6667	3179.1625
206.9587	3792.7625
211.24758	4417.6625
215.53334	5069.9625
219.81599	5831.1625
224.09553	6687.0625
228.37195	7637.7625
232.64527	8638.8625
236.91549	9643.3625
241.18261	10516.5625
245.44663	11120.0625
249.70755	11466.3625
253.96539	11733.0625
258.22014	11909.8625
262.4718	12137.4625
266.72039	12300.4625
270.96589	12337.0625
275.20832	12226.8625
279.44768	11964.5625
283.68397	11708.2625
287.91719	11526.2625
292.14735	11554.2625
296.37445	11891.2625
300.59849	12553.2625
304.81948	13436.1625
309.03742	14295.3625
313.25231	14740.8625
317.46415	14433.5625
321.67296	13488.9625
325.87872	12515.4625
330.08145	11916.4625
334.28114	11761.8625
338.47781	11925.0625
342.67145	12261.4625
346.86207	12733.7625
351.04966	13477.2625
355.23424	14293.8625
359.4158	14841.0625
363.59435	14996.3625
367.76989	14914.4625
371.94243	14680.0625
376.11196	14420.3625
380.27849	14250.2625
384.44203	14010.4625
388.60257	13772.9625
392.76012	13679.9625
396.91468	13760.8625
401.06626	14102.7625
405.21485	14381.7625
409.36047	14057.1625
413.50311	13124.6625
417.64277	12241.1625
421.77947	11798.8625
425.9132	11576.5625
430.04396	11560.4625
434.17176	11627.0625
438.2966	11880.3625
442.41849	12403.0625
446.53742	13202.9625
450.6534	14014.6625
454.76644	14279.9625
458.87653	13906.8625
462.98368	13151.2625
467.08789	12448.2625
471.18916	11879.6625
475.2875	11294.3625
479.38291	10819.5625
483.4754	10517.9625
487.56496	10367.3625
491.6516	10285.5625
495.73531	10320.7625
499.81612	10410.0625
503.89401	10620.4625
507.96899	10812.8625
512.04106	10948.6625
516.11023	11128.1625
520.1765	11289.7625
524.23987	11452.8625
528.30034	11522.0625
532.35792	11426.2625
536.41261	11092.0625
540.46441	10566.3625
544.51333	10200.8625
548.55936	10157.7625
552.60252	10514.0625
556.64279	11133.0625
560.6802	11583.9625
564.71473	11708.9625
568.7464	12071.1625
572.7752	12450.7625
576.80114	12102.3625
580.82422	11791.8625
584.84444	12272.4625
588.86181	13525.0625
592.87633	15211.0625
596.888	16127.0625
600.89682	15049.0625
604.9028	14783.8625
608.90594	18784.2625
612.90624	25300.1625
616.90371	25110.6625
620.89834	16362.0625
624.89015	11442.3625
628.87913	10449.2625
632.86528	10615.4625
636.84862	10902.9625
640.82913	10641.0625
644.80683	9895.6625
648.78172	9371.2625
652.75379	9363.0625
656.72306	9898.2625
660.68952	10649.2625
664.65319	10547.9625
668.61405	9728.0625
672.57211	9296.2625
676.52738	9306.1625
680.47986	9323.5625
684.42955	9129.5625
688.37646	8876.7625
692.32058	8852.2625
696.26192	9008.5625
700.20048	9251.1625
704.13626	9432.7625
708.06928	9437.1625
711.99952	9347.8625
715.927	9354.1625
719.85171	9488.6625
723.77365	9540.2625
727.69284	9355.8625
731.60928	9177.6625
735.52295	9169.3625
739.43388	9289.0625
743.34206	9362.4625
747.24749	9404.6625
751.15017	9461.6625
755.05012	9661.6625
758.94733	10328.0625
762.8418	12100.9625
766.73354	15329.1625
770.62254	18644.0625
774.50882	20030.2625
778.39237	18887.7625
782.27321	16033.4625
786.15132	12880.4625
790.02671	10805.0625
793.89938	9791.6625
797.76935	9376.3625
801.6366	9201.2625
805.50115	9075.3625
809.36299	8953.3625
813.22213	8814.7625
817.07857	8741.4625
820.93231	8684.9625
824.78336	8709.7625
828.63172	8782.0625
832.47738	8799.6625
836.32036	8746.0625
840.16066	8681.6625
843.99827	8657.5625
847.8332	8621.3625
851.66546	8630.4625
855.49504	8668.2625
859.32195	8650.0625
863.1462	8599.2625
866.96777	8597.4625
870.78668	8554.1625
874.60293	8587.1625
878.41652	8585.3625
882.22745	8693.4625
886.03573	8800.0625
889.84136	8782.6625
893.64433	8729.7625
897.44466	8717.5625
901.24235	8714.4625
905.0374	8611.1625
908.8298	8501.6625
912.61957	8443.2625
916.40671	8441.7625
920.19121	8570.8625
923.97308	8796.7625
927.75233	9073.5625
931.52895	9289.4625
935.30295	9111.9625
939.07433	8613.1625
942.84309	8167.9625
946.60924	7927.6625
950.37278	7803.8625
954.13371	7748.0625
957.89203	7677.4625
961.64774	7631.0625
965.40086	7550.1625
969.15137	7510.9625
972.89929	7485.6625
976.64461	7437.0625
980.38733	7450.4625
984.12747	7441.2625
987.86502	7462.6625
991.59999	7565.0625
995.33237	7738.4625
999.06217	8055.6625
1002.78939	8415.7625
1006.51404	8698.7625
1010.23611	8948.4625
1013.95561	9166.7625
1017.67255	9214.9625
1021.38692	8970.2625
1025.09872	8588.1625
1028.80796	8221.4625
1032.51465	8123.6625
1036.21877	8203.1625
1039.92035	8257.0625
1043.61937	8289.8625
1047.31584	8362.4625
1051.00976	8411.0625
1054.70114	8378.5625
1058.38998	8361.9625
1062.07627	8320.8625
1065.76003	8330.1625
1069.44126	8384.0625
1073.11995	8629.8625
1076.79611	8967.6625
1080.46974	9313.9625
1084.14085	9790.0625
1087.80943	10323.6625
1091.47549	10512.5625
1095.13903	10188.8625
1098.80005	9591.9625
1102.45857	9053.6625
1106.11456	8826.5625
1109.76805	8893.1625
1113.41903	9158.5625
1117.06751	9595.4625
1120.71348	10252.6625
1124.35696	11079.4625
1127.99793	11890.4625
1131.63641	11920.3625
1135.2724	11106.3625
1138.90589	10289.4625
1142.5369	9770.5625
1146.16542	9520.8625
1149.79145	9375.7625
1153.415	9349.8625
1157.03607	9373.2625
1160.65467	9584.4625
1164.27079	10182.1625
1167.88443	11266.2625
1171.49561	12948.9625
1175.10432	15560.6625
1178.71056	19121.5625
1182.31434	21921.1625
1185.91565	22452.2625
1189.51451	21056.6625
1193.11091	18899.1625
1196.70485	16816.9625
1200.29634	15186.8625
1203.88538	13793.5625
1207.47197	12356.0625
1211.05612	11226.7625
1214.63782	10713.2625
1218.21708	10725.9625
1221.79391	11122.4625
1225.36829	11582.0625
1228.94024	11477.4625
1232.50976	10919.5625
1236.07685	10352.1625
1239.6415	10031.9625
1243.20374	9962.1625
1246.76355	10000.4625
1250.32093	10147.5625
1253.8759	10458.1625
1257.42845	10989.4625
1260.97859	11662.8625
1264.52631	12424.4625
1268.07163	13176.8625
1271.61453	13769.8625
1275.15503	14230.6625
1278.69312	14597.1625
1282.22882	15022.2625
1285.76211	15918.5625
1289.29301	17160.2625
1292.82151	18450.4625
1296.34761	19828.2625
1299.87133	21459.5625
1303.39266	23909.4625
1306.9116	27486.0625
1310.42815	31949.7625
1313.94233	35031.9625
1317.45412	34288.5625
1320.96354	30532.5625
1324.47058	26103.1625
1327.97525	22445.3625
1331.47754	20071.5625
1334.97747	18917.3625
1338.47502	18390.9625
1341.97022	18295.8625
1345.46305	18896.4625
1348.95352	20706.0625
1352.44163	23771.5625
1355.92738	28103.8625
1359.41078	34105.2625
1362.89183	40081.5625
1366.37053	40261.2625
1369.84688	33186.5625
1373.32088	24749.6625
1376.79254	19438.9625
1380.26186	17144.0625
1383.72883	16033.4625
1387.19347	15063.4625
1390.65578	14078.3625
1394.11575	13475.4625
1397.57339	13472.6625
1401.0287	13730.8625
1404.48168	13953.8625
1407.93234	13930.7625
1411.38068	13658.3625
1414.82669	13360.2625
1418.27039	13042.5625
1421.71177	12702.3625
1425.15083	12290.7625
1428.58758	12129.3625
1432.02203	12396.4625
1435.45416	12904.7625
1438.88399	13131.4625
1442.31151	13159.8625
1445.73673	13161.5625
1449.15965	13230.0625
1452.58027	13086.8625
1455.9986	12780.6625
1459.41463	12581.1625
1462.82837	12796.7625
1466.23982	13290.0625
1469.64898	13887.4625
1473.05586	14292.3625
1476.46045	14545.6625
1479.86276	14768.1625
1483.26279	15047.9625
1486.66054	15452.7625
1490.05602	16165.8625
1493.44922	17214.4625
1496.84016	18725.5625
1500.22882	21192.3625
1503.61521	24698.5625
1506.99934	29021.8625
1510.38121	33381.3625
1513.76081	35746.5625
1517.13816	33676.3625
1520.51324	28287.4625
1523.88607	22920.2625
1527.25665	19465.0625
1530.62498	17661.2625
1533.99105	16577.9625
1537.35488	15710.3625
1540.71647	14870.9625
1544.07581	14191.0625
1547.4329	13661.1625
1550.78776	13234.1625
1554.14038	13041.4625
1557.49077	13071.9625
1560.83892	13416.4625
1564.18484	14120.8625
1567.52853	15117.1625
1570.86999	16028.9625
1574.20922	16602.0625
1577.54624	16570.1625
1580.88103	15440.2625
1584.2136	13687.5625
1587.54395	12661.6625
1590.87208	12904.3625
1594.19801	14407.1625
1597.52172	16637.7625
1600.84321	18145.9625
1604.16251	17525.5625
1607.47959	15475.4625
1610.79447	13132.4625
1614.10715	11155.3625
1617.41763	9806.0625
1620.7259	9032.0625
1624.03199	8721.1625
1627.33587	8773.5625
1630.63757	9162.6625
1633.93707	10068.6625
1637.23439	11752.9625
1640.52951	14658.1625
1643.82246	19078.7625
1647.11321	24038.8625
1650.40179	27039.1625
1653.68819	25709.5625
1656.97241	20673.5625
1660.25446	15168.8625
1663.53433	11329.5625
1666.81203	9148.9625
1670.08756	7966.2625
1673.36092	7312.4625
1676.63211	6895.2625
1679.90115	6624.0625
1683.16801	6451.6625
1686.43272	6316.6625
1689.69527	6228.3625
1692.95567	6171.0625
1696.2139	6131.5625
1699.46999	6115.8625
1702.72392	6082.4625
1705.97571	6062.7625
1709.22535	6054.0625
1712.47284	6030.9625
1715.71819	6016.8625
1718.96139	6003.0625
1722.20246	5977.8625
1725.44139	5918.8625
1728.67818	5825.5625
1731.91284	5758.1625
1735.14537	5675.6625
1738.37576	5635.9625
1741.60403	5592.2625
1744.83017	5556.7625
1748.05418	5511.6625
1751.27607	5483.0625
1754.49584	5458.1625
1757.71349	5456.2625
1760.92903	5414.6625
1764.14244	5421.1625
1767.35375	5401.8625
1770.56294	5361.6625
1773.77002	5330.2625
1776.97499	5279.0625
1780.17785	5252.1625
1783.37861	5241.4625
1786.57727	5213.9625
1789.77382	5177.6625
1792.96828	5152.0625
1796.16064	5139.8625
1799.3509	5127.0625
1802.53907	5110.8625
1805.72514	5089.4625
1808.90913	5057.8625
1812.09102	5047.4625
1815.27083	5003.4625
1818.44856	4992.2625
1821.6242	4977.8625
1824.79776	4947.0625
1827.96924	4924.2625
1831.13864	4932.7625
1834.30597	4912.4625
1837.47122	4897.2625
1840.6344	4881.7625
1843.7955	4874.5625
1846.95454	4853.9625
1850.11151	4860.1625
1853.26642	4844.5625
1856.41926	4833.9625
1859.57004	4817.6625
1862.71876	4826.0625
1865.86542	4812.4625
1869.01003	4802.3625
1872.15258	4822.5625
1875.29308	4795.9625
1878.43152	4792.5625
1881.56792	4801.8625
1884.70227	4792.4625
1887.83457	4797.1625
1890.96482	4775.2625
1894.09304	4776.9625
1897.21921	4775.3625
1900.34335	4772.7625
1903.46544	4794.4625
1906.58551	4781.4625
1909.70353	4761.4625
1912.81953	4751.3625
1915.93349	4757.8625
1919.04543	4726.5625
1922.15534	4712.8625
1925.26322	4675.4625
1928.36908	4657.3625
1931.47292	4626.3625
1934.57473	4611.0625
1937.67453	4585.3625
1940.77232	4532.3625
1943.86808	4553.7625
1946.96184	4530.4625
1950.05358	4507.7625
1953.14331	4478.9625
1956.23103	4477.0625
1959.31675	4467.3625
1962.40046	4450.3625
1965.48217	4452.1625
1968.56188	4446.1625
1971.63959	4433.1625
1974.7153	4412.7625
1977.78901	4410.2625
1980.86073	4374.4625
1983.93046	4365.0625
1986.99819	4326.5625
1990.06394	4297.8625
1993.1277	4288.2625
1996.18947	4259.7625
1999.24925	4242.9625
2002.30706	4226.1625
2005.36288	4222.1625
2008.41672	4197.4625
2011.46859	4183.0625
2014.51848	4166.8625
2017.56639	4151.8625
2020.61233	4144.9625
2023.6563	4128.0625
2026.6983	4112.5625
2029.73833	4097.8625
2032.7764	4092.7625
2035.8125	4092.3625
2038.84664	4084.1625
2041.87881	4046.5625
2044.90903	4062.9625
2047.93729	4052.9625
2050.96359	4048.8625
2053.98794	4020.5625
2057.01034	4019.9625
2060.03078	4025.5625
2063.04927	4015.6625
2066.06582	4007.5625
2069.08042	4016.5625
2072.09307	3994.2625
2075.10378	3987.9625
2078.11255	3989.7625
2081.11938	3997.9625
2084.12426	4001.0625
2087.12722	4024.9625
2090.12824	4020.1625
2093.12732	4018.7625
2096.12447	4026.7625
2099.11969	4023.0625
2102.11299	4029.4625
2105.10435	4030.9625
2108.09379	4036.5625
2111.08131	4028.2625
2114.0669	4029.2625
2117.05057	4011.3625
2120.03233	4012.3625
2123.01216	3989.9625
2125.99008	3985.5625
2128.96609	3967.1625
2131.94018	3963.7625
2134.91236	3956.8625
2137.88263	3968.2625
2140.851	3929.4625
2143.81746	3926.3625
2146.78201	3928.7625
2149.74466	3909.6625
2152.7054	3898.6625
2155.66425	3877.8625
2158.6212	3880.7625
2161.57625	3873.1625
2164.52941	3877.1625
2167.48067	3847.5625
2170.43004	3851.4625
2173.37752	3845.0625
2176.32311	3837.2625
2179.26681	3852.5625
2182.20863	3845.8625
2185.14856	3855.6625
2188.08661	3834.4625
2191.02278	3835.3625
2193.95707	3851.6625
2196.88948	3824.0625
2199.82001	3825.7625
2202.74867	3819.4625
2205.67545	3811.4625
2208.60037	3799.9625
2211.52341	3781.8625
2214.44458	3781.1625
2217.36388	3767.1625
2220.28132	3752.8625
2223.1969	3740.0625
2226.11061	3735.1625
2229.02246	3724.6625
2231.93245	3728.2625
2234.84058	3716.1625
2237.74686	3702.4625
2240.65128	3700.1625
2243.55385	3703.8625
2246.45456	3680.1625
2249.35343	3672.9625
2252.25044	3672.0625
2255.14561	3678.1625
2258.03893	3683.9625
2260.93041	3678.8625
2263.82004	3666.4625
2266.70783	3679.1625
2269.59378	3673.1625
2272.4779	3659.9625
2275.36017	3638.5625
2278.24061	3633.4625
2281.11922	3609.8625
2283.996	3611.7625
2286.87094	3602.4625
2289.74405	3596.4625
2292.61534	3565.6625
2295.4848	3546.6625
2298.35243	3536.7625
2301.21824	3541.1625
2304.08223	3525.4625
2306.94439	3529.6625
2309.80474	3527.9625
2312.66327	3533.0625
2315.51999	3521.1625
2318.37489	3535.9625
2321.22797	3518.4625
2324.07925	3532.0625
2326.92871	3520.8625
2329.77637	3510.6625
2332.62222	3506.7625
2335.46626	3502.7625
2338.3085	3514.0625
2341.14893	3503.4625
2343.98756	3504.9625
2346.8244	3522.4625
2349.65943	3531.4625
2352.49267	3530.5625
2355.32411	3541.1625
2358.15376	3557.4625
2360.98161	3567.4625
2363.80768	3581.0625
2366.63195	3584.3625
2369.45444	3602.7625
2372.27514	3595.4625
2375.09405	3589.9625
2377.91118	3597.4625
2380.72652	3576.5625
2383.54009	3526.0625
2386.35187	3505.9625
2389.16188	3468.2625
2391.97011	3463.7625
2394.77657	3465.9625
2397.58125	3423.7625
2400.38416	3417.8625
2403.18529	3400.0625
2405.98466	3385.7625
2408.78226	3392.2625
2411.57809	3368.4625
2414.37216	3369.3625
2417.16446	3355.1625
2419.955	3349.3625
2422.74378	3359.8625
2425.5308	3352.4625
2428.31606	3346.8625
2431.09956	3364.2625
2433.88131	3359.1625
2436.6613	3352.0625
2439.43954	3361.8625
2442.21603	3356.2625
2444.99077	3355.8625
2447.76377	3361.9625
2450.53501	3372.6625
2453.30451	3386.8625
2456.07226	3400.3625
2458.83827	3390.5625
2461.60254	3398.3625
2464.36507	3389.4625
2467.12586	3398.2625
2469.88492	3398.7625
2472.64224	3379.6625
2475.39782	3401.3625
2478.15167	3408.9625
2480.90379	3412.6625
2483.65417	3428.8625
2486.40283	3445.5625
2489.14976	3465.2625
2491.89497	3481.9625
2494.63845	3470.9625
2497.3802	3464.7625
2500.12024	3472.7625
2502.85855	3435.0625
2505.59514	3431.5625
2508.33002	3399.5625
2511.06318	3368.5625
2513.79462	3337.5625
2516.52435	3324.0625
2519.25237	3283.1625
2521.97867	3268.5625
2524.70327	3260.5625
2527.42616	3259.8625
2530.14734	3247.7625
2532.86681	3233.4625
2535.58458	3233.2625
2538.30065	3219.2625
2541.01501	3240.2625
2543.72768	3251.3625
2546.43864	3239.5625
2549.14791	3237.2625
2551.85548	3230.2625
2554.56136	3244.1625
2557.26554	3248.5625
2559.96803	3242.2625
2562.66883	3233.8625
2565.36794	3247.1625
2568.06536	3235.5625
2570.7611	3229.0625
2573.45514	3230.5625
2576.14751	3215.4625
2578.83819	3215.1625
2581.52719	3213.8625
2584.21451	3190.2625
2586.90015	3190.5625
2589.58411	3180.5625
2592.2664	3177.2625
2594.94701	3180.2625
2597.62594	3177.4625
2600.30321	3160.4625
2602.9788	3176.6625
2605.65273	3158.8625
2608.32498	3154.6625
2610.99557	3157.3625
2613.66449	3156.2625
2616.33175	3152.4625
2618.99734	3170.4625
2621.66128	3171.8625
2624.32355	3169.7625
2626.98416	3166.2625
2629.64311	3143.5625
2632.30041	3124.4625
2634.95605	3130.1625
2637.61004	3115.4625
2640.26238	3105.1625
2642.91306	3104.8625
2645.56209	3095.1625
2648.20948	3085.0625
2650.85521	3087.5625
2653.4993	3101.8625
2656.14175	3094.2625
2658.78255	3112.8625
2661.42171	3102.6625
2664.05923	3113.0625
2666.6951	3140.9625
2669.32934	3142.5625
2671.96194	3134.0625
2674.59291	3137.0625
2677.22224	3134.4625
2679.84993	3145.6625
2682.476	3122.1625
2685.10043	3133.2625
2687.72324	3110.6625
2690.34441	3105.4625
2692.96396	3109.9625
2695.58188	3110.0625
2698.19818	3094.0625
2700.81285	3105.8625
2703.4259	3101.7625
2706.03733	3105.1625
2708.64714	3108.7625
2711.25533	3113.4625
2713.86191	3100.3625
2716.46687	3113.9625
2719.07021	3121.6625
2721.67194	3119.1625
2724.27206	3131.4625
2726.87057	3134.8625
2729.46747	3119.1625
2732.06276	3110.7625
2734.65644	3094.7625
2737.24852	3087.8625
2739.83899	3084.8625
2742.42786	3094.7625
2745.01513	3063.5625
2747.60079	3068.3625
2750.18486	3056.3625
2752.76733	3062.9625
2755.3482	3057.1625
2757.92747	3060.7625
2760.50515	3058.9625
2763.08123	3045.4625
2765.65573	3034.5625
2768.22863	3036.6625
2770.79994	3042.3625
2773.36967	3035.5625
2775.9378	3047.1625
2778.50435	3041.1625
2781.06932	3035.1625
2783.6327	3037.6625
2786.1945	3032.6625
2788.75471	3043.2625
2791.31335	3031.2625
2793.87041	3038.4625
2796.42589	3040.6625
2798.97979	3038.5625
2801.53212	3044.3625
2804.08288	3040.3625
2806.63206	3046.6625
2809.17967	3052.7625
2811.72571	3045.4625
2814.27018	3059.3625
2816.81308	3068.9625
2819.35442	3080.1625
2821.89419	3095.8625
2824.43239	3100.5625
2826.96904	3100.9625
2829.50412	3108.7625
2832.03763	3106.2625
2834.56959	3120.8625
2837.1	3117.6625
2839.62884	3117.1625
2842.15613	3144.8625
2844.68186	3171.8625
2847.20604	3214.9625
2849.72867	3258.1625
2852.24974	3267.9625
2854.76927	3277.2625
2857.28724	3278.3625
2859.80367	3297.4625
2862.31855	3309.8625
2864.83189	3320.8625
2867.34368	3323.7625
2869.85393	3341.2625
2872.36264	3368.0625
2874.8698	3355.1625
2877.37543	3370.9625
2879.87952	3356.5625
2882.38207	3362.1625
2884.88308	3351.6625
2887.38256	3350.8625
2889.88051	3346.7625
2892.37692	3335.9625
2894.8718	3340.8625
2897.36515	3353.8625
2899.85698	3356.9625
2902.34727	3351.1625
2904.83604	3355.3625
2907.32328	3367.6625
2909.809	3363.9625
2912.29319	3374.0625
2914.77587	3382.0625
2917.25702	3380.0625
2919.73665	3363.9625
2922.21476	3357.9625
2924.69136	3354.2625
2927.16644	3347.0625
2929.64	3334.8625
2932.11205	3308.6625
2934.58258	3285.0625
2937.05161	3282.5625
2939.51912	3253.7625
2941.98513	3221.5625
2944.44962	3195.7625
2946.91261	3160.6625
2949.37409	3139.5625
2951.83407	3117.0625
2954.29254	3122.4625
2956.74951	3112.1625
2959.20498	3088.0625
2961.65895	3075.4625
2964.11142	3061.1625
2966.56239	3041.2625
2969.01186	3023.4625
2971.45984	2992.2625
2973.90632	2978.1625
2976.35131	2969.5625
2978.7948	2945.2625
2981.23681	2917.8625
2983.67732	2918.7625
2986.11635	2896.7625
2988.55388	2883.8625
2990.98993	2871.8625
2993.4245	2870.9625
2995.85758	2868.7625
2998.28917	2870.1625
3000.71928	2848.8625
3003.14791	2855.5625
3005.57506	2850.9625
3008.00073	2849.9625
3010.42493	2849.3625
3012.84764	2856.8625
3015.26888	2841.7625
3017.68865	2829.1625
3020.10694	2821.6625
3022.52376	2805.8625
3024.9391	2797.1625
3027.35298	2782.5625
3029.76539	2780.2625
3032.17632	2775.2625
3034.5858	2766.2625
3036.9938	2758.1625
3039.40034	2749.0625
3041.80542	2737.1625
3044.20903	2734.6625
3046.61118	2725.7625
3049.01187	2710.1625
3051.4111	2707.8625
3053.80888	2715.3625
3056.20519	2710.3625
3058.60005	2707.8625
3060.99345	2702.5625
3063.3854	2700.6625
3065.7759	2685.2625
3068.16494	2683.3625
3070.55254	2678.2625
3072.93868	2671.7625
3075.32338	2662.8625
3077.70662	2663.0625
3080.08842	2649.2625
3082.46878	2647.1625
3084.84769	2633.1625
3087.22515	2636.8625
3089.60118	2639.7625
3091.97576	2634.5625
3094.3489	2631.0625
3096.72061	2622.3625
3099.09087	2623.1625
3101.4597	2626.6625
3103.82709	2609.9625
3106.19305	2616.7625
3108.55757	2608.9625
3110.92066	2603.0625
3113.28232	2606.4625
3115.64255	2603.6625
3118.00134	2599.1625
3120.35871	2587.7625
3122.71466	2592.5625
3125.06917	2589.4625
3127.42226	2593.8625
3129.77393	2595.2625
3132.12417	2601.4625
3134.47299	2604.3625
3136.82039	2605.5625
3139.16636	2610.5625
3141.51092	2617.7625
3143.85406	2622.4625
3146.19579	2612.8625
3148.53609	2616.1625
3150.87499	2624.4625
3153.21246	2629.9625
3155.54853	2632.8625
3157.88318	2626.3625
3160.21642	2626.7625
3162.54826	2629.7625
3164.87868	2638.5625
3167.2077	2637.6625
3169.5353	2641.3625
3171.86151	2629.3625
3174.18631	2631.5625
3176.5097	2630.8625
3178.83169	2630.4625
3181.15228	2638.2625
3183.47147	2636.9625
3185.78926	2634.2625
3188.10565	2646.3625
3190.42065	2639.1625
3192.73424	2648.0625
3195.04645	2647.2625
3197.35725	2655.7625
3199.66667	2656.2625
3201.97469	2647.6625
3204.28132	2653.9625
3206.58656	2669.6625
3208.8904	2661.0625
3211.19287	2670.3625
3213.49394	2680.8625
3215.79363	2669.7625
3218.09193	2682.8625
3220.38884	2682.7625
3222.68438	2685.8625
3224.97853	2694.0625
3227.2713	2675.7625
3229.56269	2693.9625
3231.8527	2703.3625
3234.14133	2682.6625
3236.42858	2690.4625
3238.71446	2688.8625
3240.99896	2671.5625
3243.28209	2697.3625
3245.56384	2680.8625
3247.84423	2686.0625
3250.12324	2688.9625
3252.40088	2672.6625
3254.67715	2689.8625
3256.95205	2657.3625
3259.22558	2680.4625
3261.49775	2675.1625
3263.76855	2668.7625
3266.03799	2659.7625
3268.30606	2658.6625
3270.57277	2650.8625
3272.83812	2655.8625
3275.10211	2660.2625
3277.36474	2655.7625
3279.62601	2651.9625
3281.88593	2663.9625
3284.14448	2667.1625
3286.40168	2676.0625
3288.65753	2667.4625
3290.91202	2676.2625
3293.16516	2667.3625
3295.41695	2675.3625
3297.66738	2651.2625
3299.91647	2653.9625
3302.16421	2629.4625
3304.4106	2615.9625
3306.65564	2615.9625
3308.89933	2594.2625
3311.14169	2575.9625
3313.38269	2563.0625
3315.62236	2545.0625
3317.86068	2519.1625
3320.09766	2484.3625
3322.3333	2463.8625
3324.5676	2478.5625
3326.80056	2430.5625
3329.03219	2422.2625
3331.26248	0.7625
3333.49143	-0.5375
3335.71905	0.2625
