Data from AgNP_FTO_APTES_UA_100uM_CRN_100uM_R6G_10uM_NaF_0.1M_Addition_RamanShift__22__18-13-10-592.txt Node

Date: Thu Mar 24 18:13:10 GMT 2022
User: TCL
Spectrometer: QEP01345
Trigger mode: 4
Integration Time (sec): 7.000000E0
Scans to average: 10
Electric dark correction enabled: true
Nonlinearity correction enabled: false
Boxcar width: 0
XAxis mode: Raman Shifts
Number of Pixels in Spectrum: 1044
>>>>>Begin Spectral Data<<<<<
46.04893	-0.9375
50.45542	-0.3375
54.85868	-0.4375
59.25871	-0.9375
63.6555	30.5625
68.04907	31.6625
72.43941	31.6625
76.82654	34.8625
81.21044	36.8625
85.59113	39.8625
89.96862	42.4625
94.34289	39.8625
98.71396	45.5625
103.08183	40.8625
107.4465	45.3625
111.80798	44.5625
116.16626	45.2625
120.52136	45.2625
124.87327	45.7625
129.222	50.3625
133.56755	52.4625
137.90993	55.0625
142.24913	60.9625
146.58517	63.6625
150.91804	72.7625
155.24774	90.0625
159.57429	105.1625
163.89768	134.5625
168.21792	173.6625
172.53501	236.1625
176.84895	332.6625
181.15975	465.6625
185.46741	653.5625
189.77193	898.5625
194.07331	1205.8625
198.37157	1561.2625
202.6667	1931.8625
206.9587	2297.4625
211.24758	2679.2625
215.53334	3068.2625
219.81599	3453.3625
224.09553	3931.4625
228.37195	4424.4625
232.64527	4986.8625
236.91549	5576.9625
241.18261	6113.5625
245.44663	6586.7625
249.70755	7008.7625
253.96539	7303.2625
258.22014	7598.1625
262.4718	7845.1625
266.72039	7995.6625
270.96589	8085.9625
275.20832	8076.8625
279.44768	8002.0625
283.68397	7912.1625
287.91719	7808.5625
292.14735	7809.6625
296.37445	7862.5625
300.59849	8025.0625
304.81948	8208.2625
309.03742	8316.8625
313.25231	8309.6625
317.46415	8107.1625
321.67296	7768.3625
325.87872	7444.7625
330.08145	7306.0625
334.28114	7244.7625
338.47781	7329.0625
342.67145	7442.5625
346.86207	7613.3625
351.04966	7847.4625
355.23424	8091.2625
359.4158	8302.1625
363.59435	8371.5625
367.76989	8411.5625
371.94243	8431.2625
376.11196	8438.0625
380.27849	8400.0625
384.44203	8383.6625
388.60257	8375.1625
392.76012	8408.2625
396.91468	8491.2625
401.06626	8646.3625
405.21485	8732.5625
409.36047	8632.9625
413.50311	8361.9625
417.64277	8094.5625
421.77947	7955.8625
425.9132	7909.9625
430.04396	7924.9625
434.17176	7944.8625
438.2966	8035.7625
442.41849	8159.8625
446.53742	8320.6625
450.6534	8499.8625
454.76644	8619.2625
458.87653	8631.2625
462.98368	8565.9625
467.08789	8527.8625
471.18916	8432.9625
475.2875	8311.4625
479.38291	8212.7625
483.4754	8105.8625
487.56496	8031.1625
491.6516	7945.5625
495.73531	7940.6625
499.81612	7924.8625
503.89401	7953.8625
507.96899	7995.4625
512.04106	8018.1625
516.11023	8057.2625
520.1765	8033.9625
524.23987	8016.5625
528.30034	7985.9625
532.35792	7932.1625
536.41261	7827.1625
540.46441	7721.4625
544.51333	7702.2625
548.55936	7759.5625
552.60252	7902.1625
556.64279	8060.8625
560.6802	8154.4625
564.71473	8212.1625
568.7464	8364.0625
572.7752	8551.5625
576.80114	8631.0625
580.82422	8733.9625
584.84444	8856.8625
588.86181	8969.2625
592.87633	9102.1625
596.888	9166.1625
600.89682	9193.9625
604.9028	9600.2625
608.90594	11115.1625
612.90624	13024.0625
616.90371	12370.1625
620.89834	9504.4625
624.89015	8126.4625
628.87913	7899.4625
632.86528	8071.0625
636.84862	8238.5625
640.82913	8156.8625
644.80683	7831.3625
648.78172	7578.8625
652.75379	7486.9625
656.72306	7627.2625
660.68952	7881.5625
664.65319	7811.9625
668.61405	7512.0625
672.57211	7397.5625
676.52738	7409.9625
680.47986	7424.9625
684.42955	7348.2625
688.37646	7298.6625
692.32058	7297.8625
696.26192	7353.3625
700.20048	7440.1625
704.13626	7526.3625
708.06928	7524.4625
711.99952	7462.9625
715.927	7474.5625
719.85171	7488.9625
723.77365	7504.6625
727.69284	7467.8625
731.60928	7409.3625
735.52295	7388.9625
739.43388	7403.7625
743.34206	7410.7625
747.24749	7434.3625
751.15017	7474.4625
755.05012	7554.5625
758.94733	7855.5625
762.8418	8488.7625
766.73354	9643.5625
770.62254	10796.2625
774.50882	11159.6625
778.39237	10563.5625
782.27321	9411.3625
786.15132	8369.4625
790.02671	7723.9625
793.89938	7419.6625
797.76935	7268.1625
801.6366	7185.7625
805.50115	7172.6625
809.36299	7141.2625
813.22213	7109.1625
817.07857	7096.0625
820.93231	7059.9625
824.78336	7039.2625
828.63172	7033.1625
832.47738	7019.0625
836.32036	6981.2625
840.16066	6958.3625
843.99827	6984.1625
847.8332	6941.5625
851.66546	6926.8625
855.49504	6955.5625
859.32195	6935.3625
863.1462	6934.2625
866.96777	6912.9625
870.78668	6905.2625
874.60293	6928.6625
878.41652	6931.9625
882.22745	6984.3625
886.03573	7016.5625
889.84136	7020.4625
893.64433	7004.5625
897.44466	6972.0625
901.24235	6942.5625
905.0374	6876.3625
908.8298	6848.1625
912.61957	6820.2625
916.40671	6853.6625
920.19121	6894.7625
923.97308	6964.5625
927.75233	7007.0625
931.52895	6995.6625
935.30295	6906.7625
939.07433	6750.0625
942.84309	6598.6625
946.60924	6517.8625
950.37278	6452.7625
954.13371	6463.4625
957.89203	6435.2625
961.64774	6456.0625
965.40086	6424.1625
969.15137	6409.1625
972.89929	6391.6625
976.64461	6378.9625
980.38733	6365.0625
984.12747	6351.8625
987.86502	6376.2625
991.59999	6394.6625
995.33237	6458.5625
999.06217	6549.1625
1002.78939	6666.7625
1006.51404	6822.8625
1010.23611	6951.1625
1013.95561	7017.6625
1017.67255	7003.1625
1021.38692	6927.7625
1025.09872	6814.5625
1028.80796	6692.3625
1032.51465	6653.8625
1036.21877	6652.8625
1039.92035	6704.9625
1043.61937	6736.7625
1047.31584	6783.0625
1051.00976	6808.0625
1054.70114	6805.3625
1058.38998	6853.4625
1062.07627	6900.4625
1065.76003	6962.3625
1069.44126	7025.2625
1073.11995	7142.6625
1076.79611	7270.9625
1080.46974	7357.1625
1084.14085	7464.6625
1087.80943	7613.8625
1091.47549	7660.4625
1095.13903	7593.9625
1098.80005	7429.2625
1102.45857	7221.8625
1106.11456	7093.3625
1109.76805	7076.7625
1113.41903	7164.4625
1117.06751	7332.5625
1120.71348	7577.1625
1124.35696	7813.1625
1127.99793	8032.3625
1131.63641	8062.1625
1135.2724	7870.0625
1138.90589	7646.1625
1142.5369	7494.9625
1146.16542	7389.7625
1149.79145	7330.4625
1153.415	7302.8625
1157.03607	7359.3625
1160.65467	7502.8625
1164.27079	7782.5625
1167.88443	8180.3625
1171.49561	8823.6625
1175.10432	9738.1625
1178.71056	10876.8625
1182.31434	11846.6625
1185.91565	12168.0625
1189.51451	11946.1625
1193.11091	11392.9625
1196.70485	10688.3625
1200.29634	10090.9625
1203.88538	9589.6625
1207.47197	9078.5625
1211.05612	8620.5625
1214.63782	8311.0625
1218.21708	8177.3625
1221.79391	8104.0625
1225.36829	8073.4625
1228.94024	8033.1625
1232.50976	7957.4625
1236.07685	7869.5625
1239.6415	7803.6625
1243.20374	7793.1625
1246.76355	7826.0625
1250.32093	7898.7625
1253.8759	8017.4625
1257.42845	8213.2625
1260.97859	8473.2625
1264.52631	8762.6625
1268.07163	9040.4625
1271.61453	9308.3625
1275.15503	9520.4625
1278.69312	9692.2625
1282.22882	9875.3625
1285.76211	10146.5625
1289.29301	10543.4625
1292.82151	10936.8625
1296.34761	11387.3625
1299.87133	12073.7625
1303.39266	12957.7625
1306.9116	14114.6625
1310.42815	15274.3625
1313.94233	15826.2625
1317.45412	15448.4625
1320.96354	14670.3625
1324.47058	13842.4625
1327.97525	13105.6625
1331.47754	12593.4625
1334.97747	12304.6625
1338.47502	12236.1625
1341.97022	12390.0625
1345.46305	12723.0625
1348.95352	13235.1625
1352.44163	13918.3625
1355.92738	14941.4625
1359.41078	16485.5625
1362.89183	17988.5625
1366.37053	17748.2625
1369.84688	15471.8625
1373.32088	13066.2625
1376.79254	11472.9625
1380.26186	10656.4625
1383.72883	10205.4625
1387.19347	9898.1625
1390.65578	9601.2625
1394.11575	9366.3625
1397.57339	9261.7625
1401.0287	9226.7625
1404.48168	9225.7625
1407.93234	9155.6625
1411.38068	9083.5625
1414.82669	8957.8625
1418.27039	8772.4625
1421.71177	8524.1625
1425.15083	8307.7625
1428.58758	8162.1625
1432.02203	8188.0625
1435.45416	8280.0625
1438.88399	8404.6625
1442.31151	8490.9625
1445.73673	8601.6625
1449.15965	8673.6625
1452.58027	8728.0625
1455.9986	8729.0625
1459.41463	8786.3625
1462.82837	8958.0625
1466.23982	9198.9625
1469.64898	9474.6625
1473.05586	9701.9625
1476.46045	9885.8625
1479.86276	10003.7625
1483.26279	10164.6625
1486.66054	10365.6625
1490.05602	10666.7625
1493.44922	11173.3625
1496.84016	11903.3625
1500.22882	12978.4625
1503.61521	14448.2625
1506.99934	15952.5625
1510.38121	16909.7625
1513.76081	16811.0625
1517.13816	15576.9625
1520.51324	13835.1625
1523.88607	12379.3625
1527.25665	11443.8625
1530.62498	10913.8625
1533.99105	10594.9625
1537.35488	10304.3625
1540.71647	10025.5625
1544.07581	9754.4625
1547.4329	9526.8625
1550.78776	9355.9625
1554.14038	9275.0625
1557.49077	9313.4625
1560.83892	9439.6625
1564.18484	9697.4625
1567.52853	10014.0625
1570.86999	10298.7625
1574.20922	10495.6625
1577.54624	10475.1625
1580.88103	10045.1625
1584.2136	9437.3625
1587.54395	9181.2625
1590.87208	9255.7625
1594.19801	9699.9625
1597.52172	10271.0625
1600.84321	10501.9625
1604.16251	10148.8625
1607.47959	9538.0625
1610.79447	8897.1625
1614.10715	8325.2625
1617.41763	7774.2625
1620.7259	7383.4625
1624.03199	7152.3625
1627.33587	7121.7625
1630.63757	7250.7625
1633.93707	7641.5625
1637.23439	8319.8625
1640.52951	9440.9625
1643.82246	10992.2625
1647.11321	12624.4625
1650.40179	13534.5625
1653.68819	13012.9625
1656.97241	11359.1625
1660.25446	9452.3625
1663.53433	8007.9625
1666.81203	7113.6625
1670.08756	6576.4625
1673.36092	6237.8625
1676.63211	6041.9625
1679.90115	5890.2625
1683.16801	5795.3625
1686.43272	5680.5625
1689.69527	5609.7625
1692.95567	5562.1625
1696.2139	5520.8625
1699.46999	5494.2625
1702.72392	5451.9625
1705.97571	5436.5625
1709.22535	5404.1625
1712.47284	5387.8625
1715.71819	5375.8625
1718.96139	5322.1625
1722.20246	5293.5625
1725.44139	5279.7625
1728.67818	5221.5625
1731.91284	5175.1625
1735.14537	5143.1625
1738.37576	5118.3625
1741.60403	5102.7625
1744.83017	5060.0625
1748.05418	5050.0625
1751.27607	5022.5625
1754.49584	5009.5625
1757.71349	5028.9625
1760.92903	4993.0625
1764.14244	4990.0625
1767.35375	4980.2625
1770.56294	4954.3625
1773.77002	4936.1625
1776.97499	4895.5625
1780.17785	4895.3625
1783.37861	4880.3625
1786.57727	4860.4625
1789.77382	4862.9625
1792.96828	4844.6625
1796.16064	4826.9625
1799.3509	4817.6625
1802.53907	4827.0625
1805.72514	4787.3625
1808.90913	4761.8625
1812.09102	4755.1625
1815.27083	4752.9625
1818.44856	4727.0625
1821.6242	4712.9625
1824.79776	4710.3625
1827.96924	4689.7625
1831.13864	4682.6625
1834.30597	4681.1625
1837.47122	4667.4625
1840.6344	4660.2625
1843.7955	4652.5625
1846.95454	4641.3625
1850.11151	4644.2625
1853.26642	4632.1625
1856.41926	4624.1625
1859.57004	4623.4625
1862.71876	4610.3625
1865.86542	4602.7625
1869.01003	4610.2625
1872.15258	4601.4625
1875.29308	4602.6625
1878.43152	4584.0625
1881.56792	4581.0625
1884.70227	4568.1625
1887.83457	4561.2625
1890.96482	4564.0625
1894.09304	4541.0625
1897.21921	4537.8625
1900.34335	4522.5625
1903.46544	4526.3625
1906.58551	4519.5625
1909.70353	4502.1625
1912.81953	4491.8625
1915.93349	4490.3625
1919.04543	4479.1625
1922.15534	4460.6625
1925.26322	4435.1625
1928.36908	4439.8625
1931.47292	4427.0625
1934.57473	4405.3625
1937.67453	4402.6625
1940.77232	4393.0625
1943.86808	4386.1625
1946.96184	4363.1625
1950.05358	4342.3625
1953.14331	4315.0625
1956.23103	4309.7625
1959.31675	4291.2625
1962.40046	4281.6625
1965.48217	4280.7625
1968.56188	4274.0625
1971.63959	4249.0625
1974.7153	4240.9625
1977.78901	4233.6625
1980.86073	4222.8625
1983.93046	4199.7625
1986.99819	4161.3625
1990.06394	4143.5625
1993.1277	4141.8625
1996.18947	4126.9625
1999.24925	4117.3625
2002.30706	4082.3625
2005.36288	4085.5625
2008.41672	4060.3625
2011.46859	4045.4625
2014.51848	4023.4625
2017.56639	4016.9625
2020.61233	4019.2625
2023.6563	4006.4625
2026.6983	3990.2625
2029.73833	3985.1625
2032.7764	3958.8625
2035.8125	3938.3625
2038.84664	3936.5625
2041.87881	3927.3625
2044.90903	3916.0625
2047.93729	3915.6625
2050.96359	3907.0625
2053.98794	3899.3625
2057.01034	3883.2625
2060.03078	3874.7625
2063.04927	3869.9625
2066.06582	3873.1625
2069.08042	3860.0625
2072.09307	3859.5625
2075.10378	3841.9625
2078.11255	3850.8625
2081.11938	3853.8625
2084.12426	3857.1625
2087.12722	3844.4625
2090.12824	3854.9625
2093.12732	3839.0625
2096.12447	3850.7625
2099.11969	3835.0625
2102.11299	3835.0625
2105.10435	3843.5625
2108.09379	3848.0625
2111.08131	3835.2625
2114.0669	3834.6625
2117.05057	3829.5625
2120.03233	3851.4625
2123.01216	3845.4625
2125.99008	3845.8625
2128.96609	3846.0625
2131.94018	3837.0625
2134.91236	3838.3625
2137.88263	3839.5625
2140.851	3849.3625
2143.81746	3830.3625
2146.78201	3849.8625
2149.74466	3837.5625
2152.7054	3827.6625
2155.66425	3825.8625
2158.6212	3816.6625
2161.57625	3812.3625
2164.52941	3804.0625
2167.48067	3824.0625
2170.43004	3808.8625
2173.37752	3811.7625
2176.32311	3789.5625
2179.26681	3793.3625
2182.20863	3794.8625
2185.14856	3812.5625
2188.08661	3777.8625
2191.02278	3795.9625
2193.95707	3773.9625
2196.88948	3775.9625
2199.82001	3771.1625
2202.74867	3780.4625
2205.67545	3760.8625
2208.60037	3747.0625
2211.52341	3743.3625
2214.44458	3720.1625
2217.36388	3712.9625
2220.28132	3712.6625
2223.1969	3709.6625
2226.11061	3699.1625
2229.02246	3693.6625
2231.93245	3674.3625
2234.84058	3672.4625
2237.74686	3688.2625
2240.65128	3673.3625
2243.55385	3660.8625
2246.45456	3643.8625
2249.35343	3653.6625
2252.25044	3643.9625
2255.14561	3636.9625
2258.03893	3646.0625
2260.93041	3629.5625
2263.82004	3617.7625
2266.70783	3611.7625
2269.59378	3600.0625
2272.4779	3597.4625
2275.36017	3574.4625
2278.24061	3571.2625
2281.11922	3572.0625
2283.996	3559.4625
2286.87094	3560.3625
2289.74405	3538.0625
2292.61534	3546.4625
2295.4848	3529.7625
2298.35243	3531.3625
2301.21824	3500.7625
2304.08223	3523.1625
2306.94439	3512.2625
2309.80474	3512.3625
2312.66327	3505.2625
2315.51999	3499.3625
2318.37489	3484.4625
2321.22797	3499.7625
2324.07925	3489.5625
2326.92871	3477.7625
2329.77637	3481.3625
2332.62222	3462.6625
2335.46626	3450.2625
2338.3085	3454.8625
2341.14893	3452.0625
2343.98756	3465.2625
2346.8244	3447.5625
2349.65943	3458.2625
2352.49267	3452.1625
2355.32411	3453.6625
2358.15376	3467.9625
2360.98161	3471.1625
2363.80768	3469.4625
2366.63195	3465.2625
2369.45444	3471.2625
2372.27514	3465.7625
2375.09405	3460.9625
2377.91118	3446.7625
2380.72652	3435.9625
2383.54009	3429.8625
2386.35187	3427.3625
2389.16188	3400.5625
2391.97011	3392.5625
2394.77657	3380.4625
2397.58125	3363.5625
2400.38416	3368.3625
2403.18529	3358.0625
2405.98466	3347.0625
2408.78226	3332.9625
2411.57809	3334.4625
2414.37216	3309.9625
2417.16446	3320.2625
2419.955	3308.8625
2422.74378	3309.4625
2425.5308	3304.5625
2428.31606	3309.9625
2431.09956	3296.6625
2433.88131	3308.0625
2436.6613	3288.8625
2439.43954	3307.2625
2442.21603	3288.3625
2444.99077	3287.4625
2447.76377	3288.2625
2450.53501	3291.9625
2453.30451	3298.0625
2456.07226	3281.7625
2458.83827	3281.2625
2461.60254	3288.9625
2464.36507	3292.4625
2467.12586	3283.6625
2469.88492	3274.2625
2472.64224	3288.4625
2475.39782	3281.3625
2478.15167	3290.7625
2480.90379	3289.3625
2483.65417	3291.9625
2486.40283	3296.2625
2489.14976	3302.1625
2491.89497	3304.9625
2494.63845	3291.5625
2497.3802	3290.6625
2500.12024	3287.0625
2502.85855	3281.4625
2505.59514	3280.4625
2508.33002	3252.5625
2511.06318	3253.4625
2513.79462	3230.1625
2516.52435	3220.7625
2519.25237	3216.2625
2521.97867	3208.8625
2524.70327	3208.9625
2527.42616	3201.4625
2530.14734	3204.5625
2532.86681	3191.5625
2535.58458	3198.4625
2538.30065	3182.4625
2541.01501	3185.6625
2543.72768	3193.8625
2546.43864	3173.5625
2549.14791	3163.0625
2551.85548	3183.8625
2554.56136	3172.5625
2557.26554	3163.1625
2559.96803	3155.7625
2562.66883	3144.2625
2565.36794	3159.7625
2568.06536	3150.0625
2570.7611	3130.6625
2573.45514	3126.2625
2576.14751	3129.1625
2578.83819	3116.3625
2581.52719	3128.9625
2584.21451	3110.4625
2586.90015	3118.4625
2589.58411	3095.0625
2592.2664	3098.6625
2594.94701	3101.2625
2597.62594	3093.9625
2600.30321	3089.4625
2602.9788	3083.0625
2605.65273	3089.1625
2608.32498	3082.9625
2610.99557	3069.2625
2613.66449	3068.4625
2616.33175	3065.8625
2618.99734	3080.2625
2621.66128	3074.7625
2624.32355	3064.7625
2626.98416	3044.2625
2629.64311	3050.8625
2632.30041	3053.4625
2634.95605	3036.1625
2637.61004	3039.0625
2640.26238	3031.5625
2642.91306	3023.6625
2645.56209	3030.1625
2648.20948	3034.8625
2650.85521	3034.8625
2653.4993	3027.1625
2656.14175	3031.0625
2658.78255	3038.6625
2661.42171	3026.6625
2664.05923	3036.5625
2666.6951	3042.1625
2669.32934	3054.9625
2671.96194	3046.0625
2674.59291	3043.0625
2677.22224	3044.5625
2679.84993	3037.2625
2682.476	3016.2625
2685.10043	3026.3625
2687.72324	3021.0625
2690.34441	3023.6625
2692.96396	3026.0625
2695.58188	3020.3625
2698.19818	3027.0625
2700.81285	3019.4625
2703.4259	3012.7625
2706.03733	3007.8625
2708.64714	2999.1625
2711.25533	3026.2625
2713.86191	3028.9625
2716.46687	3024.4625
2719.07021	3019.4625
2721.67194	3043.8625
2724.27206	3033.2625
2726.87057	3029.6625
2729.46747	3030.2625
2732.06276	3029.6625
2734.65644	3017.4625
2737.24852	3028.1625
2739.83899	3005.8625
2742.42786	3011.2625
2745.01513	3004.1625
2747.60079	3001.3625
2750.18486	2996.9625
2752.76733	2988.4625
2755.3482	2992.2625
2757.92747	2985.0625
2760.50515	2967.2625
2763.08123	2981.0625
2765.65573	2965.5625
2768.22863	2973.9625
2770.79994	2978.6625
2773.36967	2982.4625
2775.9378	2970.2625
2778.50435	2964.2625
2781.06932	2961.6625
2783.6327	2965.0625
2786.1945	2963.7625
2788.75471	2956.4625
2791.31335	2957.1625
2793.87041	2953.9625
2796.42589	2940.0625
2798.97979	2939.7625
2801.53212	2934.3625
2804.08288	2922.5625
2806.63206	2930.7625
2809.17967	2932.7625
2811.72571	2925.5625
2814.27018	2924.2625
2816.81308	2930.0625
2819.35442	2921.2625
2821.89419	2915.1625
2824.43239	2919.4625
2826.96904	2912.2625
2829.50412	2898.8625
2832.03763	2903.5625
2834.56959	2899.9625
2837.1	2906.1625
2839.62884	2917.4625
2842.15613	2915.8625
2844.68186	2909.7625
2847.20604	2898.4625
2849.72867	2926.8625
2852.24974	2924.3625
2854.76927	2923.8625
2857.28724	2905.7625
2859.80367	2909.3625
2862.31855	2924.8625
2864.83189	2907.2625
2867.34368	2906.5625
2869.85393	2920.1625
2872.36264	2917.3625
2874.8698	2920.9625
2877.37543	2907.2625
2879.87952	2886.2625
2882.38207	2906.9625
2884.88308	2897.0625
2887.38256	2900.9625
2889.88051	2913.8625
2892.37692	2901.5625
2894.8718	2905.8625
2897.36515	2912.6625
2899.85698	2900.8625
2902.34727	2903.1625
2904.83604	2903.9625
2907.32328	2905.3625
2909.809	2907.5625
2912.29319	2929.6625
2914.77587	2919.8625
2917.25702	2909.9625
2919.73665	2908.4625
2922.21476	2907.7625
2924.69136	2911.6625
2927.16644	2909.6625
2929.64	2903.4625
2932.11205	2887.2625
2934.58258	2887.8625
2937.05161	2879.8625
2939.51912	2880.7625
2941.98513	2878.4625
2944.44962	2863.4625
2946.91261	2849.8625
2949.37409	2840.8625
2951.83407	2858.9625
2954.29254	2855.6625
2956.74951	2851.5625
2959.20498	2842.9625
2961.65895	2840.5625
2964.11142	2834.0625
2966.56239	2832.1625
2969.01186	2830.0625
2971.45984	2827.5625
2973.90632	2818.3625
2976.35131	2806.0625
2978.7948	2795.8625
2981.23681	2792.4625
2983.67732	2788.1625
2986.11635	2787.5625
2988.55388	2775.6625
2990.98993	2793.8625
2993.4245	2771.8625
2995.85758	2774.0625
2998.28917	2761.3625
3000.71928	2749.0625
3003.14791	2751.7625
3005.57506	2759.9625
3008.00073	2753.4625
3010.42493	2745.9625
3012.84764	2743.5625
3015.26888	2747.7625
3017.68865	2722.2625
3020.10694	2731.2625
3022.52376	2724.1625
3024.9391	2714.2625
3027.35298	2727.2625
3029.76539	2715.7625
3032.17632	2710.9625
3034.5858	2708.2625
3036.9938	2710.3625
3039.40034	2710.6625
3041.80542	2678.9625
3044.20903	2686.9625
3046.61118	2690.3625
3049.01187	2696.2625
3051.4111	2692.9625
3053.80888	2687.8625
3056.20519	2680.7625
3058.60005	2671.4625
3060.99345	2681.9625
3063.3854	2670.8625
3065.7759	2645.7625
3068.16494	2668.8625
3070.55254	2654.4625
3072.93868	2650.8625
3075.32338	2641.6625
3077.70662	2641.0625
3080.08842	2635.9625
3082.46878	2646.7625
3084.84769	2627.7625
3087.22515	2640.6625
3089.60118	2639.9625
3091.97576	2650.4625
3094.3489	2636.6625
3096.72061	2629.6625
3099.09087	2649.8625
3101.4597	2652.3625
3103.82709	2656.4625
3106.19305	2647.7625
3108.55757	2650.7625
3110.92066	2647.8625
3113.28232	2642.6625
3115.64255	2645.7625
3118.00134	2642.2625
3120.35871	2645.3625
3122.71466	2641.1625
3125.06917	2625.1625
3127.42226	2626.8625
3129.77393	2634.1625
3132.12417	2635.7625
3134.47299	2640.9625
3136.82039	2638.8625
3139.16636	2632.3625
3141.51092	2651.2625
3143.85406	2645.4625
3146.19579	2635.5625
3148.53609	2639.3625
3150.87499	2657.3625
3153.21246	2672.6625
3155.54853	2665.9625
3157.88318	2675.1625
3160.21642	2683.7625
3162.54826	2684.0625
3164.87868	2686.5625
3167.2077	2677.2625
3169.5353	2689.4625
3171.86151	2692.1625
3174.18631	2687.7625
3176.5097	2689.3625
3178.83169	2691.6625
3181.15228	2679.9625
3183.47147	2696.2625
3185.78926	2684.1625
3188.10565	2693.5625
3190.42065	2694.2625
3192.73424	2699.0625
3195.04645	2683.4625
3197.35725	2696.8625
3199.66667	2695.2625
3201.97469	2714.5625
3204.28132	2707.1625
3206.58656	2719.7625
3208.8904	2697.3625
3211.19287	2714.8625
3213.49394	2717.9625
3215.79363	2731.2625
3218.09193	2736.6625
3220.38884	2738.8625
3222.68438	2734.5625
3224.97853	2742.3625
3227.2713	2729.9625
3229.56269	2729.7625
3231.8527	2727.0625
3234.14133	2716.9625
3236.42858	2717.6625
3238.71446	2705.4625
3240.99896	2717.7625
3243.28209	2720.1625
3245.56384	2721.2625
3247.84423	2707.1625
3250.12324	2717.5625
3252.40088	2705.7625
3254.67715	2700.8625
3256.95205	2706.9625
3259.22558	2695.9625
3261.49775	2701.3625
3263.76855	2694.7625
3266.03799	2677.3625
3268.30606	2682.9625
3270.57277	2678.3625
3272.83812	2680.8625
3275.10211	2668.1625
3277.36474	2661.3625
3279.62601	2662.6625
3281.88593	2664.1625
3284.14448	2675.1625
3286.40168	2674.2625
3288.65753	2683.7625
3290.91202	2674.6625
3293.16516	2663.8625
3295.41695	2657.2625
3297.66738	2643.9625
3299.91647	2631.2625
3302.16421	2617.4625
3304.4106	2622.4625
3306.65564	2616.5625
3308.89933	2592.9625
3311.14169	2568.5625
3313.38269	2546.0625
3315.62236	2532.7625
3317.86068	2525.6625
3320.09766	2503.8625
3322.3333	2492.4625
3324.5676	2478.5625
3326.80056	2426.8625
3329.03219	2426.1625
3331.26248	0.7625
3333.49143	0.2625
3335.71905	1.3625
