Data from AgNP_FTO_APTES_UA_100uM_CRN_5uM_R6G_10uM_NaF_0.1M_Addition_RamanShift__30__15-13-30-391.txt Node

Date: Thu Mar 24 15:13:30 GMT 2022
User: TCL
Spectrometer: QEP01345
Trigger mode: 4
Integration Time (sec): 7.000000E0
Scans to average: 10
Electric dark correction enabled: true
Nonlinearity correction enabled: false
Boxcar width: 0
XAxis mode: Raman Shifts
Number of Pixels in Spectrum: 1044
>>>>>Begin Spectral Data<<<<<
46.04893	-0.4375
50.45542	0.6625
54.85868	-0.5375
59.25871	0.2625
63.6555	33.0625
68.04907	34.7625
72.43941	35.6625
76.82654	36.3625
81.21044	36.8625
85.59113	39.4625
89.96862	44.4625
94.34289	40.8625
98.71396	48.1625
103.08183	44.1625
107.4465	46.4625
111.80798	49.8625
116.16626	46.8625
120.52136	51.8625
124.87327	50.8625
129.222	55.3625
133.56755	60.6625
137.90993	61.2625
142.24913	70.7625
146.58517	80.5625
150.91804	94.5625
155.24774	114.1625
159.57429	142.5625
163.89768	184.0625
168.21792	250.8625
172.53501	341.7625
176.84895	482.9625
181.15975	674.0625
185.46741	954.6625
189.77193	1325.9625
194.07331	1798.8625
198.37157	2341.1625
202.6667	2933.9625
206.9587	3556.6625
211.24758	4196.2625
215.53334	4934.0625
219.81599	5784.8625
224.09553	6770.7625
228.37195	7888.5625
232.64527	9039.8625
236.91549	10093.4625
241.18261	10884.0625
245.44663	11364.8625
249.70755	11669.0625
253.96539	11928.9625
258.22014	12197.3625
262.4718	12385.2625
266.72039	12401.3625
270.96589	12201.8625
275.20832	11774.0625
279.44768	11266.1625
283.68397	10837.8625
287.91719	10676.2625
292.14735	10878.8625
296.37445	11596.7625
300.59849	12834.3625
304.81948	14386.1625
309.03742	15735.6625
313.25231	16192.8625
317.46415	15198.8625
321.67296	13167.8625
325.87872	11295.2625
330.08145	10363.9625
334.28114	10269.0625
338.47781	10611.6625
342.67145	11225.2625
346.86207	12189.7625
351.04966	13668.9625
355.23424	15426.0625
359.4158	16637.2625
363.59435	16933.0625
367.76989	16668.6625
371.94243	16082.5625
376.11196	15413.0625
380.27849	14869.8625
384.44203	14275.6625
388.60257	13646.6625
392.76012	13314.3625
396.91468	13399.9625
401.06626	13943.0625
405.21485	14299.4625
409.36047	13685.7625
413.50311	12152.1625
417.64277	10619.9625
421.77947	9703.4625
425.9132	9291.4625
430.04396	9144.9625
434.17176	9148.3625
438.2966	9379.0625
442.41849	9794.9625
446.53742	10312.3625
450.6534	10706.4625
454.76644	10836.0625
458.87653	10618.3625
462.98368	10286.4625
467.08789	9917.9625
471.18916	9457.2625
475.2875	8972.4625
479.38291	8565.5625
483.4754	8305.3625
487.56496	8103.4625
491.6516	8015.4625
495.73531	8002.9625
499.81612	8114.3625
503.89401	8338.6625
507.96899	8671.0625
512.04106	9072.7625
516.11023	9538.5625
520.1765	9894.9625
524.23987	9921.2625
528.30034	9761.6625
532.35792	9511.3625
536.41261	9201.1625
540.46441	8679.7625
544.51333	8349.6625
548.55936	8381.7625
552.60252	8813.0625
556.64279	9330.2625
560.6802	9664.7625
564.71473	10278.0625
568.7464	11539.3625
572.7752	11997.8625
576.80114	10621.7625
580.82422	9151.1625
584.84444	8543.5625
588.86181	8362.2625
592.87633	8387.1625
596.888	8606.0625
600.89682	9446.2625
604.9028	12546.2625
608.90594	21029.0625
612.90624	32427.2625
616.90371	31325.7625
620.89834	17160.1625
624.89015	10199.3625
628.87913	8993.5625
632.86528	9430.3625
636.84862	9899.8625
640.82913	9393.4625
644.80683	8192.1625
648.78172	7445.4625
652.75379	7535.0625
656.72306	8538.5625
660.68952	9700.8625
664.65319	9341.2625
668.61405	7971.8625
672.57211	7301.4625
676.52738	7245.1625
680.47986	7191.7625
684.42955	6954.6625
688.37646	6832.7625
692.32058	6872.1625
696.26192	7016.6625
700.20048	7266.7625
704.13626	7444.6625
708.06928	7396.3625
711.99952	7260.1625
715.927	7273.2625
719.85171	7428.3625
723.77365	7567.6625
727.69284	7436.9625
731.60928	7281.2625
735.52295	7275.4625
739.43388	7304.8625
743.34206	7347.8625
747.24749	7339.1625
751.15017	7375.6625
755.05012	7725.7625
758.94733	8972.4625
762.8418	12136.8625
766.73354	16979.8625
770.62254	21198.6625
774.50882	23122.4625
778.39237	21901.3625
782.27321	17281.4625
786.15132	12225.4625
790.02671	9255.1625
793.89938	8008.8625
797.76935	7479.5625
801.6366	7270.0625
805.50115	7154.1625
809.36299	7099.5625
813.22213	7023.7625
817.07857	6995.2625
820.93231	7025.6625
824.78336	7136.4625
828.63172	7293.6625
832.47738	7370.3625
836.32036	7239.8625
840.16066	7021.8625
843.99827	6875.8625
847.8332	6803.3625
851.66546	6791.9625
855.49504	6794.2625
859.32195	6771.8625
863.1462	6703.6625
866.96777	6638.9625
870.78668	6645.2625
874.60293	6722.4625
878.41652	6827.1625
882.22745	6973.4625
886.03573	7078.0625
889.84136	7035.3625
893.64433	6941.8625
897.44466	6991.8625
901.24235	7031.3625
905.0374	6945.4625
908.8298	6782.3625
912.61957	6633.2625
916.40671	6568.1625
920.19121	6687.6625
923.97308	6892.7625
927.75233	7298.8625
931.52895	7750.1625
935.30295	7568.5625
939.07433	6895.7625
942.84309	6386.2625
946.60924	6138.0625
950.37278	6021.1625
954.13371	5939.2625
957.89203	5904.1625
961.64774	5890.5625
965.40086	5868.5625
969.15137	5841.2625
972.89929	5832.8625
976.64461	5808.2625
980.38733	5801.6625
984.12747	5813.5625
987.86502	5871.7625
991.59999	5925.0625
995.33237	6048.5625
999.06217	6251.7625
1002.78939	6535.1625
1006.51404	6902.9625
1010.23611	7177.5625
1013.95561	7240.5625
1017.67255	7128.2625
1021.38692	6939.2625
1025.09872	6686.1625
1028.80796	6567.7625
1032.51465	6618.7625
1036.21877	6784.7625
1039.92035	6932.4625
1043.61937	6993.7625
1047.31584	7021.8625
1051.00976	6997.9625
1054.70114	6894.7625
1058.38998	6798.0625
1062.07627	6788.7625
1065.76003	6827.4625
1069.44126	6882.6625
1073.11995	7065.2625
1076.79611	7445.2625
1080.46974	8048.2625
1084.14085	8904.9625
1087.80943	9601.3625
1091.47549	9714.3625
1095.13903	9150.3625
1098.80005	8289.6625
1102.45857	7746.2625
1106.11456	7665.8625
1109.76805	7970.4625
1113.41903	8687.7625
1117.06751	9875.9625
1120.71348	11508.0625
1124.35696	13367.3625
1127.99793	14263.7625
1131.63641	13108.0625
1135.2724	11101.8625
1138.90589	9591.6625
1142.5369	8740.3625
1146.16542	8175.8625
1149.79145	7864.9625
1153.415	7767.3625
1157.03607	7909.5625
1160.65467	8265.4625
1164.27079	8977.2625
1167.88443	10086.4625
1171.49561	11931.0625
1175.10432	15058.8625
1178.71056	19056.8625
1182.31434	21859.8625
1185.91565	22251.8625
1189.51451	20933.2625
1193.11091	18566.4625
1196.70485	15997.1625
1200.29634	14221.8625
1203.88538	12804.5625
1207.47197	11054.2625
1211.05612	9549.5625
1214.63782	8689.0625
1218.21708	8292.4625
1221.79391	8185.2625
1225.36829	8187.3625
1228.94024	8181.4625
1232.50976	8104.8625
1236.07685	8118.0625
1239.6415	8189.5625
1243.20374	8358.0625
1246.76355	8536.4625
1250.32093	8740.0625
1253.8759	9127.1625
1257.42845	9767.6625
1260.97859	10609.1625
1264.52631	11466.8625
1268.07163	12230.6625
1271.61453	12653.8625
1275.15503	12763.4625
1278.69312	12719.4625
1282.22882	12936.7625
1285.76211	13786.3625
1289.29301	14826.4625
1292.82151	15624.3625
1296.34761	16536.7625
1299.87133	18261.3625
1303.39266	21801.8625
1306.9116	27641.7625
1310.42815	34001.1625
1313.94233	36300.4625
1317.45412	32801.6625
1320.96354	26885.7625
1324.47058	21373.6625
1327.97525	17132.0625
1331.47754	14738.8625
1334.97747	13908.9625
1338.47502	14295.8625
1341.97022	15829.8625
1345.46305	18676.6625
1348.95352	22411.0625
1352.44163	26833.5625
1355.92738	33437.6625
1359.41078	43711.0625
1362.89183	51306.9625
1366.37053	45971.4625
1369.84688	33392.0625
1373.32088	23810.3625
1376.79254	18542.3625
1380.26186	15676.7625
1383.72883	13782.9625
1387.19347	12339.4625
1390.65578	11041.7625
1394.11575	10058.9625
1397.57339	9536.2625
1401.0287	9315.9625
1404.48168	9187.5625
1407.93234	9154.7625
1411.38068	9342.7625
1414.82669	9709.5625
1418.27039	9992.0625
1421.71177	9973.6625
1425.15083	9824.9625
1428.58758	9994.7625
1432.02203	10471.6625
1435.45416	10644.4625
1438.88399	10489.2625
1442.31151	10260.0625
1445.73673	10340.6625
1449.15965	10444.2625
1452.58027	10292.1625
1455.9986	9962.4625
1459.41463	9821.5625
1462.82837	10062.0625
1466.23982	10564.6625
1469.64898	11069.1625
1473.05586	11224.3625
1476.46045	11321.0625
1479.86276	11604.3625
1483.26279	12246.8625
1486.66054	13274.6625
1490.05602	14785.4625
1493.44922	17046.6625
1496.84016	20666.5625
1500.22882	26361.0625
1503.61521	34404.9625
1506.99934	43742.2625
1510.38121	51357.9625
1513.76081	52577.0625
1517.13816	45726.6625
1520.51324	34716.1625
1523.88607	25425.8625
1527.25665	19702.0625
1530.62498	16573.0625
1533.99105	14664.8625
1537.35488	13459.8625
1540.71647	12782.0625
1544.07581	12540.6625
1547.4329	12656.5625
1550.78776	12875.9625
1554.14038	13236.7625
1557.49077	13813.5625
1560.83892	14688.3625
1564.18484	16087.1625
1567.52853	17621.1625
1570.86999	18607.6625
1574.20922	19077.8625
1577.54624	18634.5625
1580.88103	16407.4625
1584.2136	13460.1625
1587.54395	11649.3625
1590.87208	11311.9625
1594.19801	12271.9625
1597.52172	13975.9625
1600.84321	14796.3625
1604.16251	14120.8625
1607.47959	12959.1625
1610.79447	11743.3625
1614.10715	10390.3625
1617.41763	9232.0625
1620.7259	8524.6625
1624.03199	8267.8625
1627.33587	8393.0625
1630.63757	8910.6625
1633.93707	9918.4625
1637.23439	11692.8625
1640.52951	14785.1625
1643.82246	19938.9625
1647.11321	26499.4625
1650.40179	30924.2625
1653.68819	29173.2625
1656.97241	22425.9625
1660.25446	15662.0625
1663.53433	11340.1625
1666.81203	9009.9625
1670.08756	7754.4625
1673.36092	7015.4625
1676.63211	6579.1625
1679.90115	6312.0625
1683.16801	6098.2625
1686.43272	5938.3625
1689.69527	5848.0625
1692.95567	5757.3625
1696.2139	5744.5625
1699.46999	5719.1625
1702.72392	5688.1625
1705.97571	5677.4625
1709.22535	5656.7625
1712.47284	5676.2625
1715.71819	5721.5625
1718.96139	5688.3625
1722.20246	5691.5625
1725.44139	5576.0625
1728.67818	5454.8625
1731.91284	5353.7625
1735.14537	5275.2625
1738.37576	5209.4625
1741.60403	5180.4625
1744.83017	5141.8625
1748.05418	5110.2625
1751.27607	5071.4625
1754.49584	5034.9625
1757.71349	5020.0625
1760.92903	5007.2625
1764.14244	4967.6625
1767.35375	4924.0625
1770.56294	4872.7625
1773.77002	4805.1625
1776.97499	4752.4625
1780.17785	4706.9625
1783.37861	4665.0625
1786.57727	4625.8625
1789.77382	4622.3625
1792.96828	4608.5625
1796.16064	4585.5625
1799.3509	4591.9625
1802.53907	4545.3625
1805.72514	4537.4625
1808.90913	4494.0625
1812.09102	4489.8625
1815.27083	4448.5625
1818.44856	4425.1625
1821.6242	4408.9625
1824.79776	4390.9625
1827.96924	4376.5625
1831.13864	4359.5625
1834.30597	4342.1625
1837.47122	4331.4625
1840.6344	4332.6625
1843.7955	4293.3625
1846.95454	4281.7625
1850.11151	4260.5625
1853.26642	4282.9625
1856.41926	4270.6625
1859.57004	4257.8625
1862.71876	4274.0625
1865.86542	4281.6625
1869.01003	4286.2625
1872.15258	4276.0625
1875.29308	4274.5625
1878.43152	4280.7625
1881.56792	4275.1625
1884.70227	4278.4625
1887.83457	4266.9625
1890.96482	4253.9625
1894.09304	4253.0625
1897.21921	4252.3625
1900.34335	4243.4625
1903.46544	4245.0625
1906.58551	4238.0625
1909.70353	4241.2625
1912.81953	4235.3625
1915.93349	4219.9625
1919.04543	4224.2625
1922.15534	4191.7625
1925.26322	4175.2625
1928.36908	4140.5625
1931.47292	4119.6625
1934.57473	4096.2625
1937.67453	4054.0625
1940.77232	4023.9625
1943.86808	4001.2625
1946.96184	4003.8625
1950.05358	3972.5625
1953.14331	3975.5625
1956.23103	3963.1625
1959.31675	3974.1625
1962.40046	3967.9625
1965.48217	3972.3625
1968.56188	3981.5625
1971.63959	3991.2625
1974.7153	3985.3625
1977.78901	3951.9625
1980.86073	3917.5625
1983.93046	3887.1625
1986.99819	3846.7625
1990.06394	3810.4625
1993.1277	3762.6625
1996.18947	3765.9625
1999.24925	3740.1625
2002.30706	3717.0625
2005.36288	3704.6625
2008.41672	3699.3625
2011.46859	3680.2625
2014.51848	3668.1625
2017.56639	3647.9625
2020.61233	3647.9625
2023.6563	3621.4625
2026.6983	3607.7625
2029.73833	3599.4625
2032.7764	3602.7625
2035.8125	3581.1625
2038.84664	3583.0625
2041.87881	3587.6625
2044.90903	3577.9625
2047.93729	3557.7625
2050.96359	3557.2625
2053.98794	3540.3625
2057.01034	3521.8625
2060.03078	3503.3625
2063.04927	3498.0625
2066.06582	3491.0625
2069.08042	3486.1625
2072.09307	3464.6625
2075.10378	3462.4625
2078.11255	3468.0625
2081.11938	3469.4625
2084.12426	3448.8625
2087.12722	3465.5625
2090.12824	3478.0625
2093.12732	3466.1625
2096.12447	3475.9625
2099.11969	3470.5625
2102.11299	3485.8625
2105.10435	3475.6625
2108.09379	3474.7625
2111.08131	3484.1625
2114.0669	3489.7625
2117.05057	3514.0625
2120.03233	3514.7625
2123.01216	3528.2625
2125.99008	3543.5625
2128.96609	3561.9625
2131.94018	3534.0625
2134.91236	3532.4625
2137.88263	3514.7625
2140.851	3489.9625
2143.81746	3487.6625
2146.78201	3480.0625
2149.74466	3454.8625
2152.7054	3448.5625
2155.66425	3426.8625
2158.6212	3426.4625
2161.57625	3415.7625
2164.52941	3410.7625
2167.48067	3406.5625
2170.43004	3407.4625
2173.37752	3425.7625
2176.32311	3412.2625
2179.26681	3428.2625
2182.20863	3420.2625
2185.14856	3416.6625
2188.08661	3411.5625
2191.02278	3410.6625
2193.95707	3389.9625
2196.88948	3384.4625
2199.82001	3367.9625
2202.74867	3366.9625
2205.67545	3366.4625
2208.60037	3385.4625
2211.52341	3376.9625
2214.44458	3358.1625
2217.36388	3351.4625
2220.28132	3343.9625
2223.1969	3317.8625
2226.11061	3316.0625
2229.02246	3309.9625
2231.93245	3294.8625
2234.84058	3277.7625
2237.74686	3283.4625
2240.65128	3286.1625
2243.55385	3288.0625
2246.45456	3277.9625
2249.35343	3298.3625
2252.25044	3311.7625
2255.14561	3339.2625
2258.03893	3362.8625
2260.93041	3388.4625
2263.82004	3376.0625
2266.70783	3380.9625
2269.59378	3358.3625
2272.4779	3341.2625
2275.36017	3320.4625
2278.24061	3307.2625
2281.11922	3315.6625
2283.996	3296.7625
2286.87094	3269.8625
2289.74405	3256.5625
2292.61534	3250.2625
2295.4848	3230.8625
2298.35243	3197.7625
2301.21824	3193.1625
2304.08223	3200.4625
2306.94439	3208.5625
2309.80474	3207.4625
2312.66327	3201.8625
2315.51999	3198.6625
2318.37489	3204.6625
2321.22797	3181.7625
2324.07925	3198.7625
2326.92871	3196.9625
2329.77637	3189.5625
2332.62222	3193.1625
2335.46626	3190.4625
2338.3085	3193.7625
2341.14893	3205.9625
2343.98756	3215.6625
2346.8244	3228.4625
2349.65943	3251.0625
2352.49267	3248.9625
2355.32411	3281.3625
2358.15376	3300.5625
2360.98161	3323.3625
2363.80768	3363.1625
2366.63195	3375.0625
2369.45444	3383.9625
2372.27514	3380.3625
2375.09405	3355.1625
2377.91118	3346.9625
2380.72652	3313.8625
2383.54009	3285.0625
2386.35187	3240.7625
2389.16188	3199.3625
2391.97011	3192.0625
2394.77657	3173.0625
2397.58125	3154.4625
2400.38416	3129.7625
2403.18529	3110.7625
2405.98466	3098.7625
2408.78226	3082.9625
2411.57809	3071.6625
2414.37216	3073.3625
2417.16446	3076.2625
2419.955	3069.9625
2422.74378	3077.9625
2425.5308	3085.5625
2428.31606	3087.9625
2431.09956	3099.9625
2433.88131	3109.3625
2436.6613	3095.7625
2439.43954	3118.7625
2442.21603	3142.7625
2444.99077	3142.2625
2447.76377	3151.9625
2450.53501	3169.8625
2453.30451	3164.8625
2456.07226	3164.7625
2458.83827	3162.5625
2461.60254	3155.3625
2464.36507	3148.6625
2467.12586	3151.4625
2469.88492	3168.3625
2472.64224	3165.8625
2475.39782	3176.4625
2478.15167	3196.4625
2480.90379	3224.3625
2483.65417	3257.4625
2486.40283	3293.4625
2489.14976	3296.9625
2491.89497	3318.7625
2494.63845	3324.8625
2497.3802	3294.2625
2500.12024	3288.1625
2502.85855	3259.7625
2505.59514	3229.8625
2508.33002	3195.3625
2511.06318	3142.1625
2513.79462	3091.4625
2516.52435	3068.3625
2519.25237	3045.1625
2521.97867	3018.0625
2524.70327	3006.2625
2527.42616	2988.3625
2530.14734	2988.4625
2532.86681	2973.9625
2535.58458	2986.6625
2538.30065	2989.8625
2541.01501	2998.2625
2543.72768	3001.6625
2546.43864	3013.5625
2549.14791	3012.6625
2551.85548	3041.5625
2554.56136	3031.6625
2557.26554	3025.6625
2559.96803	3027.5625
2562.66883	3028.8625
2565.36794	3037.2625
2568.06536	3017.2625
2570.7611	3010.7625
2573.45514	2994.0625
2576.14751	2985.8625
2578.83819	2983.8625
2581.52719	2959.6625
2584.21451	2957.6625
2586.90015	2946.3625
2589.58411	2932.5625
2592.2664	2937.2625
2594.94701	2929.4625
2597.62594	2928.0625
2600.30321	2920.4625
2602.9788	2922.4625
2605.65273	2938.6625
2608.32498	2946.5625
2610.99557	2936.2625
2613.66449	2945.9625
2616.33175	2949.2625
2618.99734	2949.3625
2621.66128	2940.0625
2624.32355	2942.6625
2626.98416	2950.7625
2629.64311	2930.0625
2632.30041	2923.0625
2634.95605	2910.6625
2637.61004	2885.8625
2640.26238	2877.1625
2642.91306	2879.5625
2645.56209	2869.1625
2648.20948	2862.7625
2650.85521	2863.7625
2653.4993	2855.0625
2656.14175	2872.3625
2658.78255	2890.9625
2661.42171	2892.3625
2664.05923	2905.7625
2666.6951	2916.7625
2669.32934	2925.8625
2671.96194	2910.8625
2674.59291	2938.6625
2677.22224	2930.9625
2679.84993	2943.7625
2682.476	2920.2625
2685.10043	2931.4625
2687.72324	2916.2625
2690.34441	2916.3625
2692.96396	2909.8625
2695.58188	2909.2625
2698.19818	2899.5625
2700.81285	2895.5625
2703.4259	2918.5625
2706.03733	2932.9625
2708.64714	2913.2625
2711.25533	2927.8625
2713.86191	2915.7625
2716.46687	2944.0625
2719.07021	2940.7625
2721.67194	2942.0625
2724.27206	2935.7625
2726.87057	2919.4625
2729.46747	2910.1625
2732.06276	2901.4625
2734.65644	2883.5625
2737.24852	2878.2625
2739.83899	2849.3625
2742.42786	2863.6625
2745.01513	2830.9625
2747.60079	2835.2625
2750.18486	2824.2625
2752.76733	2813.1625
2755.3482	2804.1625
2757.92747	2802.0625
2760.50515	2778.7625
2763.08123	2781.8625
2765.65573	2784.9625
2768.22863	2778.2625
2770.79994	2770.2625
2773.36967	2773.9625
2775.9378	2777.0625
2778.50435	2789.0625
2781.06932	2767.8625
2783.6327	2781.4625
2786.1945	2790.1625
2788.75471	2792.3625
2791.31335	2782.1625
2793.87041	2795.1625
2796.42589	2790.5625
2798.97979	2805.5625
2801.53212	2820.6625
2804.08288	2832.5625
2806.63206	2843.5625
2809.17967	2861.4625
2811.72571	2874.8625
2814.27018	2895.7625
2816.81308	2919.9625
2819.35442	2928.6625
2821.89419	2942.8625
2824.43239	2951.7625
2826.96904	2958.3625
2829.50412	2971.8625
2832.03763	2957.2625
2834.56959	2961.4625
2837.1	2943.6625
2839.62884	2944.4625
2842.15613	2946.1625
2844.68186	2953.7625
2847.20604	2969.2625
2849.72867	2993.9625
2852.24974	3001.0625
2854.76927	3027.6625
2857.28724	3045.5625
2859.80367	3059.4625
2862.31855	3078.0625
2864.83189	3097.6625
2867.34368	3108.5625
2869.85393	3132.3625
2872.36264	3138.5625
2874.8698	3133.3625
2877.37543	3142.3625
2879.87952	3123.8625
2882.38207	3114.3625
2884.88308	3102.8625
2887.38256	3074.6625
2889.88051	3059.6625
2892.37692	3055.2625
2894.8718	3044.3625
2897.36515	3041.8625
2899.85698	3043.8625
2902.34727	3029.3625
2904.83604	3027.5625
2907.32328	3016.6625
2909.809	3016.1625
2912.29319	2988.7625
2914.77587	2988.1625
2917.25702	2975.7625
2919.73665	2961.8625
2922.21476	2943.5625
2924.69136	2931.9625
2927.16644	2912.7625
2929.64	2907.3625
2932.11205	2907.9625
2934.58258	2895.2625
2937.05161	2884.4625
2939.51912	2889.5625
2941.98513	2879.2625
2944.44962	2872.5625
2946.91261	2858.3625
2949.37409	2871.5625
2951.83407	2858.7625
2954.29254	2860.0625
2956.74951	2856.8625
2959.20498	2870.9625
2961.65895	2841.1625
2964.11142	2839.7625
2966.56239	2833.6625
2969.01186	2827.7625
2971.45984	2798.0625
2973.90632	2797.8625
2976.35131	2798.7625
2978.7948	2759.0625
2981.23681	2754.5625
2983.67732	2762.2625
2986.11635	2744.9625
2988.55388	2736.7625
2990.98993	2738.0625
2993.4245	2749.2625
2995.85758	2756.2625
2998.28917	2756.9625
3000.71928	2754.1625
3003.14791	2762.3625
3005.57506	2772.9625
3008.00073	2764.4625
3010.42493	2780.8625
3012.84764	2783.2625
3015.26888	2774.0625
3017.68865	2778.9625
3020.10694	2780.7625
3022.52376	2750.8625
3024.9391	2747.8625
3027.35298	2741.2625
3029.76539	2725.0625
3032.17632	2691.7625
3034.5858	2674.1625
3036.9938	2667.0625
3039.40034	2634.8625
3041.80542	2624.5625
3044.20903	2622.5625
3046.61118	2610.5625
3049.01187	2602.2625
3051.4111	2599.8625
3053.80888	2587.1625
3056.20519	2573.7625
3058.60005	2580.5625
3060.99345	2566.5625
3063.3854	2565.3625
3065.7759	2548.0625
3068.16494	2545.8625
3070.55254	2554.6625
3072.93868	2533.1625
3075.32338	2531.1625
3077.70662	2516.0625
3080.08842	2517.9625
3082.46878	2507.8625
3084.84769	2499.1625
3087.22515	2500.1625
3089.60118	2490.4625
3091.97576	2499.9625
3094.3489	2491.9625
3096.72061	2485.4625
3099.09087	2489.0625
3101.4597	2489.0625
3103.82709	2493.2625
3106.19305	2485.2625
3108.55757	2485.0625
3110.92066	2477.7625
3113.28232	2486.2625
3115.64255	2479.9625
3118.00134	2470.5625
3120.35871	2478.7625
3122.71466	2481.6625
3125.06917	2484.3625
3127.42226	2495.5625
3129.77393	2491.2625
3132.12417	2500.3625
3134.47299	2499.0625
3136.82039	2504.1625
3139.16636	2511.6625
3141.51092	2508.9625
3143.85406	2525.3625
3146.19579	2527.8625
3148.53609	2545.3625
3150.87499	2544.8625
3153.21246	2563.2625
3155.54853	2576.8625
3157.88318	2569.2625
3160.21642	2581.8625
3162.54826	2583.0625
3164.87868	2587.5625
3167.2077	2588.9625
3169.5353	2590.3625
3171.86151	2588.0625
3174.18631	2596.7625
3176.5097	2577.1625
3178.83169	2576.0625
3181.15228	2584.4625
3183.47147	2590.3625
3185.78926	2593.8625
3188.10565	2595.4625
3190.42065	2604.5625
3192.73424	2624.5625
3195.04645	2609.6625
3197.35725	2638.8625
3199.66667	2645.1625
3201.97469	2665.1625
3204.28132	2667.2625
3206.58656	2674.4625
3208.8904	2687.6625
3211.19287	2709.5625
3213.49394	2703.1625
3215.79363	2713.6625
3218.09193	2719.1625
3220.38884	2725.8625
3222.68438	2737.0625
3224.97853	2734.6625
3227.2713	2720.4625
3229.56269	2716.7625
3231.8527	2725.4625
3234.14133	2716.2625
3236.42858	2718.3625
3238.71446	2711.6625
3240.99896	2717.4625
3243.28209	2706.2625
3245.56384	2716.7625
3247.84423	2715.7625
3250.12324	2712.5625
3252.40088	2690.6625
3254.67715	2699.8625
3256.95205	2690.2625
3259.22558	2691.0625
3261.49775	2692.4625
3263.76855	2690.0625
3266.03799	2678.8625
3268.30606	2695.6625
3270.57277	2665.6625
3272.83812	2672.4625
3275.10211	2666.0625
3277.36474	2663.7625
3279.62601	2675.9625
3281.88593	2672.3625
3284.14448	2678.0625
3286.40168	2677.7625
3288.65753	2681.5625
3290.91202	2678.8625
3293.16516	2681.0625
3295.41695	2676.3625
3297.66738	2654.8625
3299.91647	2653.3625
3302.16421	2632.6625
3304.4106	2612.8625
3306.65564	2592.0625
3308.89933	2566.6625
3311.14169	2548.6625
3313.38269	2511.1625
3315.62236	2493.0625
3317.86068	2469.3625
3320.09766	2431.5625
3322.3333	2400.5625
3324.5676	2403.5625
3326.80056	2360.4625
3329.03219	2343.1625
3331.26248	1.0625
3333.49143	-0.8375
3335.71905	-0.3375
