Data from AgNP_FTO_APTES_UA_100uM_CRN_10uM_R6G_10uM_NaF_0.1M_Addition_RamanShift__48__16-13-00-459.txt Node

Date: Thu Mar 24 16:13:00 GMT 2022
User: TCL
Spectrometer: QEP01345
Trigger mode: 4
Integration Time (sec): 7.000000E0
Scans to average: 10
Electric dark correction enabled: true
Nonlinearity correction enabled: false
Boxcar width: 0
XAxis mode: Raman Shifts
Number of Pixels in Spectrum: 1044
>>>>>Begin Spectral Data<<<<<
46.04893	-1.5
50.45542	-0.2
54.85868	-1.3
59.25871	0.8
63.6555	33.1
68.04907	35
72.43941	32.9
76.82654	37
81.21044	38.6
85.59113	38.4
89.96862	41.8
94.34289	41.3
98.71396	44.2
103.08183	42.9
107.4465	43.5
111.80798	45.4
116.16626	49.6
120.52136	50.9
124.87327	49.7
129.222	51.5
133.56755	56.8
137.90993	57.5
142.24913	70.4
146.58517	74.8
150.91804	88.6
155.24774	108.6
159.57429	133.7
163.89768	172
168.21792	232.7
172.53501	321.5
176.84895	448.7
181.15975	630.5
185.46741	888
189.77193	1229.9
194.07331	1656.5
198.37157	2160.3
202.6667	2686
206.9587	3230.5
211.24758	3825.4
215.53334	4461.8
219.81599	5205.9
224.09553	6039.4
228.37195	6983.2
232.64527	7971.8
236.91549	8887.5
241.18261	9650
245.44663	10154.3
249.70755	10489.8
253.96539	10749.3
258.22014	11083.2
262.4718	11349.5
266.72039	11497.3
270.96589	11451.1
275.20832	11188.9
279.44768	10796.2
283.68397	10445.7
287.91719	10283.8
292.14735	10368.1
296.37445	10873.7
300.59849	11738.3
304.81948	12805.9
309.03742	13655.9
313.25231	13832
317.46415	13082.4
321.67296	11652.5
325.87872	10353.1
330.08145	9698.4
334.28114	9635.2
338.47781	9885.2
342.67145	10277
346.86207	10925.8
351.04966	11941.3
355.23424	13079.9
359.4158	13940.8
363.59435	14189.9
367.76989	14125.1
371.94243	13850.1
376.11196	13540.5
380.27849	13231.7
384.44203	12857.1
388.60257	12489.5
392.76012	12273.4
396.91468	12335.1
401.06626	12746.8
405.21485	13030.7
409.36047	12535.4
413.50311	11345.4
417.64277	10253.9
421.77947	9628
425.9132	9359.7
430.04396	9285.8
434.17176	9343.1
438.2966	9487.5
442.41849	9846.2
446.53742	10280.4
450.6534	10661.6
454.76644	10789.4
458.87653	10661
462.98368	10393.1
467.08789	10116.7
471.18916	9766.6
475.2875	9368.3
479.38291	9076.9
483.4754	8789.4
487.56496	8611.7
491.6516	8510.4
495.73531	8485.7
499.81612	8538.6
503.89401	8705.8
507.96899	8939
512.04106	9202.9
516.11023	9520.7
520.1765	9753.1
524.23987	9760.1
528.30034	9626.9
532.35792	9450.3
536.41261	9222
540.46441	8835.3
544.51333	8625.8
548.55936	8679.3
552.60252	9033.7
556.64279	9488.8
560.6802	9702.8
564.71473	10051
568.7464	10840.3
572.7752	11184.5
576.80114	10369.6
580.82422	9557.7
584.84444	9278
588.86181	9338.5
592.87633	9590.5
596.888	9809.3
600.89682	10230.3
604.9028	12323.2
608.90594	18568.8
612.90624	26942.9
616.90371	25405.9
620.89834	14903.9
624.89015	9962.9
628.87913	9113.3
632.86528	9419.7
636.84862	9773.4
640.82913	9437
644.80683	8555.2
648.78172	7934
652.75379	7976.1
656.72306	8684.6
660.68952	9549.3
664.65319	9259.9
668.61405	8277
672.57211	7807.2
676.52738	7785.6
680.47986	7739.5
684.42955	7568.8
688.37646	7422.8
692.32058	7449.2
696.26192	7569.8
700.20048	7776.1
704.13626	7904.8
708.06928	7876.2
711.99952	7792.4
715.927	7773.2
719.85171	7905
723.77365	7963.2
727.69284	7903.9
731.60928	7779.4
735.52295	7774.1
739.43388	7801.5
743.34206	7859.3
747.24749	7871.2
751.15017	7903.6
755.05012	8140.4
758.94733	9032.2
762.8418	11328.4
766.73354	15080.8
770.62254	18515.5
774.50882	19909.6
778.39237	18609.9
782.27321	14964.1
786.15132	11306.4
790.02671	9178.1
793.89938	8248.8
797.76935	7859.1
801.6366	7687.8
805.50115	7588.1
809.36299	7551.1
813.22213	7521.3
817.07857	7475.1
820.93231	7468.3
824.78336	7523.5
828.63172	7615.3
832.47738	7644.8
836.32036	7573.7
840.16066	7437.8
843.99827	7337.5
847.8332	7304.3
851.66546	7290.5
855.49504	7277.7
859.32195	7292.7
863.1462	7227.4
866.96777	7181.2
870.78668	7183.3
874.60293	7238.1
878.41652	7303.4
882.22745	7431.9
886.03573	7501.1
889.84136	7493
893.64433	7404.5
897.44466	7399.5
901.24235	7421
905.0374	7343.4
908.8298	7214.2
912.61957	7111
916.40671	7103.3
920.19121	7212.8
923.97308	7379.2
927.75233	7641.5
931.52895	7909.4
935.30295	7770.7
939.07433	7349.6
942.84309	6982.4
946.60924	6798
950.37278	6690.6
954.13371	6607.2
957.89203	6569.1
961.64774	6539.6
965.40086	6506.8
969.15137	6485.5
972.89929	6445.7
976.64461	6447.8
980.38733	6445.4
984.12747	6464.6
987.86502	6496.8
991.59999	6555.6
995.33237	6703.2
999.06217	6932.2
1002.78939	7255.2
1006.51404	7575
1010.23611	7822.9
1013.95561	7903.2
1017.67255	7826.3
1021.38692	7650.5
1025.09872	7399.8
1028.80796	7312.2
1032.51465	7379.7
1036.21877	7528.3
1039.92035	7630.3
1043.61937	7664.1
1047.31584	7658.2
1051.00976	7583
1054.70114	7485.5
1058.38998	7430.7
1062.07627	7395.3
1065.76003	7431.4
1069.44126	7474.4
1073.11995	7639.5
1076.79611	7906
1080.46974	8328.5
1084.14085	8941.7
1087.80943	9460.2
1091.47549	9570.9
1095.13903	9229.3
1098.80005	8596
1102.45857	8146.6
1106.11456	8102.6
1109.76805	8334.9
1113.41903	8873.3
1117.06751	9704.8
1120.71348	10782.3
1124.35696	11952.2
1127.99793	12608
1131.63641	11984
1135.2724	10670.9
1138.90589	9635.2
1142.5369	9011.3
1146.16542	8608.1
1149.79145	8383
1153.415	8324.9
1157.03607	8450.9
1160.65467	8812.5
1164.27079	9421.5
1167.88443	10375.6
1171.49561	11893.2
1175.10432	14388.8
1178.71056	17640.5
1182.31434	20137.1
1185.91565	20596.5
1189.51451	19519.7
1193.11091	17513.3
1196.70485	15428.3
1200.29634	13934.5
1203.88538	12790.3
1207.47197	11407.1
1211.05612	10220.3
1214.63782	9533.4
1218.21708	9281.2
1221.79391	9239.9
1225.36829	9267.4
1228.94024	9230.6
1232.50976	9083.7
1236.07685	8950.6
1239.6415	8979
1243.20374	9059
1246.76355	9161.2
1250.32093	9350.3
1253.8759	9675.1
1257.42845	10149.5
1260.97859	10825.7
1264.52631	11529.2
1268.07163	12185.8
1271.61453	12719.4
1275.15503	12948.7
1278.69312	13054.8
1282.22882	13341.8
1285.76211	13989.5
1289.29301	14837.2
1292.82151	15631.8
1296.34761	16548.2
1299.87133	18164.9
1303.39266	21024
1306.9116	25523.1
1310.42815	30277
1313.94233	31981.5
1317.45412	29415.7
1320.96354	25137.5
1324.47058	21139.4
1327.97525	18013.2
1331.47754	16133.4
1334.97747	15435.4
1338.47502	15609.4
1341.97022	16604.3
1345.46305	18543.8
1348.95352	21271.9
1352.44163	24630.3
1355.92738	29501
1359.41078	37007.7
1362.89183	43043.2
1366.37053	39402.2
1369.84688	29564.3
1373.32088	21718.9
1376.79254	17521.8
1380.26186	15368
1383.72883	13964.7
1387.19347	12966.9
1390.65578	12045.1
1394.11575	11375.8
1397.57339	11076.1
1401.0287	11000.4
1404.48168	11012.5
1407.93234	10987.1
1411.38068	11087.9
1414.82669	11211.1
1418.27039	11257.7
1421.71177	11054.9
1425.15083	10741.9
1428.58758	10711.1
1432.02203	11079.4
1435.45416	11368.9
1438.88399	11363.5
1442.31151	11265.1
1445.73673	11348.5
1449.15965	11472.7
1452.58027	11369.7
1455.9986	11121.3
1459.41463	11074.7
1462.82837	11315.5
1466.23982	11827.2
1469.64898	12295.4
1473.05586	12537.3
1476.46045	12683.7
1479.86276	12868.9
1483.26279	13326.2
1486.66054	14048.4
1490.05602	15150.8
1493.44922	16856.1
1496.84016	19476.9
1500.22882	23743.4
1503.61521	29750.4
1506.99934	36645.2
1510.38121	41872.2
1513.76081	42040
1517.13816	36455.5
1520.51324	28471.8
1523.88607	21961.5
1527.25665	18079.2
1530.62498	15971.2
1533.99105	14750.9
1537.35488	13890.3
1540.71647	13351.2
1544.07581	13051.6
1547.4329	13013.5
1550.78776	13081.2
1554.14038	13310.4
1557.49077	13750.4
1560.83892	14349.8
1564.18484	15349.1
1567.52853	16447.1
1570.86999	17170.3
1574.20922	17615.2
1577.54624	17297.3
1580.88103	15626.3
1584.2136	13494.9
1587.54395	12222.9
1590.87208	12209.2
1594.19801	13192.6
1597.52172	14699.7
1600.84321	15352.6
1604.16251	14714.8
1607.47959	13573.7
1610.79447	12347.5
1614.10715	11061
1617.41763	9986
1620.7259	9295.7
1624.03199	8984.7
1627.33587	9046.6
1630.63757	9509.7
1633.93707	10411.1
1637.23439	12002.7
1640.52951	14649.9
1643.82246	18840.3
1647.11321	23883.9
1650.40179	27091
1653.68819	25421.3
1656.97241	19936.7
1660.25446	14583.7
1663.53433	11113.4
1666.81203	9211.2
1670.08756	8187.1
1673.36092	7540.4
1676.63211	7154.6
1679.90115	6904.2
1683.16801	6739
1686.43272	6582.9
1689.69527	6492.9
1692.95567	6442.2
1696.2139	6402.4
1699.46999	6363.4
1702.72392	6332.2
1705.97571	6311.6
1709.22535	6284.4
1712.47284	6304.2
1715.71819	6307.4
1718.96139	6262.7
1722.20246	6221
1725.44139	6152.2
1728.67818	6072.3
1731.91284	5971.3
1735.14537	5912.9
1738.37576	5868.1
1741.60403	5819.9
1744.83017	5785.4
1748.05418	5755
1751.27607	5737.5
1754.49584	5707.4
1757.71349	5701.1
1760.92903	5695.8
1764.14244	5652.1
1767.35375	5645.3
1770.56294	5606.1
1773.77002	5559.2
1776.97499	5504.1
1780.17785	5467.4
1783.37861	5428.8
1786.57727	5411.3
1789.77382	5389.3
1792.96828	5386
1796.16064	5350.7
1799.3509	5348.9
1802.53907	5353.9
1805.72514	5306.2
1808.90913	5285.8
1812.09102	5256.3
1815.27083	5218.6
1818.44856	5208.5
1821.6242	5179
1824.79776	5182.9
1827.96924	5171.3
1831.13864	5175.1
1834.30597	5156
1837.47122	5110.8
1840.6344	5109.4
1843.7955	5105.7
1846.95454	5100.6
1850.11151	5088.5
1853.26642	5075.9
1856.41926	5071.7
1859.57004	5070.9
1862.71876	5079
1865.86542	5076.2
1869.01003	5092.1
1872.15258	5085
1875.29308	5094.9
1878.43152	5088.4
1881.56792	5084.8
1884.70227	5081.2
1887.83457	5056.9
1890.96482	5061.2
1894.09304	5043.5
1897.21921	5048.5
1900.34335	5048.4
1903.46544	5050.1
1906.58551	5052.7
1909.70353	5023.5
1912.81953	5029.3
1915.93349	5013.7
1919.04543	5001.7
1922.15534	5008.9
1925.26322	4984.7
1928.36908	4958.4
1931.47292	4919.5
1934.57473	4897.8
1937.67453	4882.3
1940.77232	4856.6
1943.86808	4841.4
1946.96184	4838.2
1950.05358	4824.6
1953.14331	4797.6
1956.23103	4784.2
1959.31675	4786.3
1962.40046	4767
1965.48217	4757.9
1968.56188	4758
1971.63959	4772
1974.7153	4766.6
1977.78901	4752.2
1980.86073	4707.5
1983.93046	4669
1986.99819	4654.9
1990.06394	4617.2
1993.1277	4589.1
1996.18947	4579.8
1999.24925	4557.3
2002.30706	4538.3
2005.36288	4513.8
2008.41672	4484.3
2011.46859	4484.3
2014.51848	4477.8
2017.56639	4429.8
2020.61233	4450
2023.6563	4436.1
2026.6983	4418
2029.73833	4415.6
2032.7764	4398
2035.8125	4379.7
2038.84664	4381.8
2041.87881	4375.7
2044.90903	4387.1
2047.93729	4387
2050.96359	4370.3
2053.98794	4351.1
2057.01034	4330.1
2060.03078	4331.3
2063.04927	4326
2066.06582	4299.4
2069.08042	4305.1
2072.09307	4298.9
2075.10378	4286.2
2078.11255	4294.1
2081.11938	4284.7
2084.12426	4298
2087.12722	4282.1
2090.12824	4283.3
2093.12732	4274.6
2096.12447	4291.7
2099.11969	4278.6
2102.11299	4298.3
2105.10435	4290.8
2108.09379	4302.8
2111.08131	4298.7
2114.0669	4301.9
2117.05057	4333
2120.03233	4329.6
2123.01216	4341.1
2125.99008	4344.6
2128.96609	4357.1
2131.94018	4344.8
2134.91236	4345.7
2137.88263	4329.2
2140.851	4325
2143.81746	4318.6
2146.78201	4304.3
2149.74466	4296.9
2152.7054	4289.8
2155.66425	4277.2
2158.6212	4275.3
2161.57625	4270.4
2164.52941	4271.2
2167.48067	4262.8
2170.43004	4259.4
2173.37752	4263.3
2176.32311	4257.9
2179.26681	4275.6
2182.20863	4273.1
2185.14856	4272
2188.08661	4263.8
2191.02278	4255.5
2193.95707	4243.2
2196.88948	4225.4
2199.82001	4243.3
2202.74867	4233.1
2205.67545	4225.5
2208.60037	4224.7
2211.52341	4213.9
2214.44458	4211.5
2217.36388	4201.1
2220.28132	4203.2
2223.1969	4175.7
2226.11061	4170.7
2229.02246	4147.7
2231.93245	4153.6
2234.84058	4135.2
2237.74686	4137.4
2240.65128	4132.4
2243.55385	4132.5
2246.45456	4130.1
2249.35343	4142.6
2252.25044	4157.1
2255.14561	4160.6
2258.03893	4183.1
2260.93041	4199.4
2263.82004	4196.3
2266.70783	4180.7
2269.59378	4149
2272.4779	4161.5
2275.36017	4142.3
2278.24061	4140.9
2281.11922	4127.3
2283.996	4111.2
2286.87094	4076
2289.74405	4065.8
2292.61534	4047.1
2295.4848	4049.9
2298.35243	4027.1
2301.21824	4018.3
2304.08223	4033.2
2306.94439	4024.4
2309.80474	4040.1
2312.66327	4047.9
2315.51999	4025.8
2318.37489	4034.6
2321.22797	4048.5
2324.07925	4045.1
2326.92871	4023.3
2329.77637	4033.4
2332.62222	4032
2335.46626	4038.7
2338.3085	4019.6
2341.14893	4035.9
2343.98756	4055.7
2346.8244	4060.8
2349.65943	4076.9
2352.49267	4065.9
2355.32411	4102
2358.15376	4114.7
2360.98161	4118.9
2363.80768	4134.8
2366.63195	4163.7
2369.45444	4168.1
2372.27514	4157.1
2375.09405	4137.7
2377.91118	4116.4
2380.72652	4108.3
2383.54009	4071.1
2386.35187	4045.6
2389.16188	4006.2
2391.97011	3988.6
2394.77657	3990.7
2397.58125	3957.5
2400.38416	3937.2
2403.18529	3912.4
2405.98466	3918.5
2408.78226	3910.7
2411.57809	3898.9
2414.37216	3899.4
2417.16446	3908.2
2419.955	3893
2422.74378	3889.6
2425.5308	3884
2428.31606	3910.6
2431.09956	3899.9
2433.88131	3898.5
2436.6613	3907.7
2439.43954	3926.7
2442.21603	3931.9
2444.99077	3951.2
2447.76377	3942
2450.53501	3940.5
2453.30451	3955.5
2456.07226	3956
2458.83827	3956.2
2461.60254	3949.4
2464.36507	3949.6
2467.12586	3946.9
2469.88492	3947.3
2472.64224	3962.5
2475.39782	3975.4
2478.15167	3994.9
2480.90379	4005.7
2483.65417	4051.3
2486.40283	4057.8
2489.14976	4079.4
2491.89497	4077
2494.63845	4088.9
2497.3802	4079
2500.12024	4079
2502.85855	4027.3
2505.59514	4006.2
2508.33002	3982.1
2511.06318	3946
2513.79462	3924.5
2516.52435	3893.6
2519.25237	3880.1
2521.97867	3843.4
2524.70327	3828.2
2527.42616	3830.3
2530.14734	3809.6
2532.86681	3827.5
2535.58458	3818.5
2538.30065	3816.8
2541.01501	3829.5
2543.72768	3840.2
2546.43864	3842.5
2549.14791	3844.7
2551.85548	3848
2554.56136	3836.9
2557.26554	3841
2559.96803	3841.2
2562.66883	3844.9
2565.36794	3833.1
2568.06536	3843.4
2570.7611	3825.8
2573.45514	3806.1
2576.14751	3807.2
2578.83819	3788.1
2581.52719	3796
2584.21451	3779.8
2586.90015	3791.9
2589.58411	3782.4
2592.2664	3788.1
2594.94701	3775.2
2597.62594	3776.6
2600.30321	3773.7
2602.9788	3767.9
2605.65273	3774.5
2608.32498	3769.2
2610.99557	3763.5
2613.66449	3775.9
2616.33175	3790.4
2618.99734	3779.7
2621.66128	3788.8
2624.32355	3789.8
2626.98416	3786.8
2629.64311	3765.9
2632.30041	3749.9
2634.95605	3747.8
2637.61004	3735.3
2640.26238	3734.7
2642.91306	3736.1
2645.56209	3725.8
2648.20948	3713.2
2650.85521	3723.7
2653.4993	3714.1
2656.14175	3721.4
2658.78255	3741.7
2661.42171	3748
2664.05923	3755.1
2666.6951	3771.4
2669.32934	3783.8
2671.96194	3796.7
2674.59291	3793
2677.22224	3778.6
2679.84993	3781
2682.476	3766.3
2685.10043	3773.7
2687.72324	3774.6
2690.34441	3776.3
2692.96396	3762.3
2695.58188	3767.7
2698.19818	3742.9
2700.81285	3751.1
2703.4259	3767.1
2706.03733	3777.2
2708.64714	3764.5
2711.25533	3784.7
2713.86191	3766.6
2716.46687	3790.8
2719.07021	3789.4
2721.67194	3782.7
2724.27206	3777.7
2726.87057	3773.4
2729.46747	3790.5
2732.06276	3779.6
2734.65644	3760.4
2737.24852	3761.9
2739.83899	3734.4
2742.42786	3724.3
2745.01513	3712.8
2747.60079	3713.1
2750.18486	3693.6
2752.76733	3685.1
2755.3482	3696.4
2757.92747	3672.7
2760.50515	3676.4
2763.08123	3672
2765.65573	3670.1
2768.22863	3664
2770.79994	3665.6
2773.36967	3657.5
2775.9378	3667
2778.50435	3672.4
2781.06932	3684.3
2783.6327	3677.5
2786.1945	3674.3
2788.75471	3688.1
2791.31335	3680.9
2793.87041	3678.4
2796.42589	3686.9
2798.97979	3685
2801.53212	3671.4
2804.08288	3698.4
2806.63206	3692
2809.17967	3696.3
2811.72571	3715.5
2814.27018	3730.6
2816.81308	3739.2
2819.35442	3761.2
2821.89419	3756.6
2824.43239	3766.4
2826.96904	3756.8
2829.50412	3770.9
2832.03763	3773.2
2834.56959	3770.8
2837.1	3749.5
2839.62884	3761.7
2842.15613	3750.5
2844.68186	3747.8
2847.20604	3753.7
2849.72867	3773.9
2852.24974	3780.2
2854.76927	3793.1
2857.28724	3812.4
2859.80367	3812.4
2862.31855	3818.8
2864.83189	3838
2867.34368	3845.6
2869.85393	3861.1
2872.36264	3857.6
2874.8698	3859.3
2877.37543	3867.6
2879.87952	3850.7
2882.38207	3842.8
2884.88308	3832.5
2887.38256	3828
2889.88051	3823.2
2892.37692	3817.9
2894.8718	3813.9
2897.36515	3812.8
2899.85698	3802.3
2902.34727	3798.3
2904.83604	3805.3
2907.32328	3796.2
2909.809	3811.5
2912.29319	3799.7
2914.77587	3795.5
2917.25702	3769.2
2919.73665	3770.7
2922.21476	3751.6
2924.69136	3734.2
2927.16644	3736.7
2929.64	3718.6
2932.11205	3715.2
2934.58258	3695.9
2937.05161	3702.1
2939.51912	3695.9
2941.98513	3696.4
2944.44962	3684.3
2946.91261	3675.4
2949.37409	3684.9
2951.83407	3680.7
2954.29254	3683.4
2956.74951	3697.4
2959.20498	3689.1
2961.65895	3675.9
2964.11142	3686.9
2966.56239	3659.4
2969.01186	3665.5
2971.45984	3644.2
2973.90632	3643.7
2976.35131	3615.8
2978.7948	3616.6
2981.23681	3590.3
2983.67732	3589.9
2986.11635	3565.3
2988.55388	3589
2990.98993	3569.5
2993.4245	3567.1
2995.85758	3589.5
2998.28917	3565.6
3000.71928	3572
3003.14791	3575.8
3005.57506	3583.9
3008.00073	3570.8
3010.42493	3576.9
3012.84764	3564.3
3015.26888	3590.8
3017.68865	3574.7
3020.10694	3576.7
3022.52376	3555
3024.9391	3537.4
3027.35298	3531.4
3029.76539	3513.9
3032.17632	3501.4
3034.5858	3483.1
3036.9938	3481.9
3039.40034	3469.9
3041.80542	3446.9
3044.20903	3448.7
3046.61118	3446.8
3049.01187	3425.1
3051.4111	3424.4
3053.80888	3412.2
3056.20519	3409.3
3058.60005	3421
3060.99345	3411.2
3063.3854	3394.1
3065.7759	3383.9
3068.16494	3386.9
3070.55254	3369.4
3072.93868	3359.9
3075.32338	3341
3077.70662	3334.6
3080.08842	3324.9
3082.46878	3319.6
3084.84769	3325.3
3087.22515	3319.3
3089.60118	3326.4
3091.97576	3333.4
3094.3489	3321.6
3096.72061	3326.9
3099.09087	3336.3
3101.4597	3327.8
3103.82709	3328.2
3106.19305	3324.7
3108.55757	3324.5
3110.92066	3314.7
3113.28232	3321.5
3115.64255	3304.9
3118.00134	3315.3
3120.35871	3292.3
3122.71466	3304.6
3125.06917	3273.7
3127.42226	3297
3129.77393	3306.7
3132.12417	3302.6
3134.47299	3311.1
3136.82039	3312.8
3139.16636	3302.7
3141.51092	3293.2
3143.85406	3313.4
3146.19579	3326.5
3148.53609	3332.3
3150.87499	3338.2
3153.21246	3349.6
3155.54853	3363.7
3157.88318	3370.8
3160.21642	3357.2
3162.54826	3379.3
3164.87868	3352.7
3167.2077	3361
3169.5353	3358.9
3171.86151	3359.2
3174.18631	3350.7
3176.5097	3360.6
3178.83169	3355
3181.15228	3344
3183.47147	3345.3
3185.78926	3360.6
3188.10565	3362.2
3190.42065	3368.2
3192.73424	3381.8
3195.04645	3369.8
3197.35725	3388
3199.66667	3385.9
3201.97469	3403.9
3204.28132	3404.7
3206.58656	3417.9
3208.8904	3427
3211.19287	3434.2
3213.49394	3437.7
3215.79363	3454.4
3218.09193	3470.3
3220.38884	3468.6
3222.68438	3475.3
3224.97853	3476.6
3227.2713	3471.5
3229.56269	3471.8
3231.8527	3469.6
3234.14133	3473.8
3236.42858	3487
3238.71446	3462.1
3240.99896	3460.7
3243.28209	3467
3245.56384	3468.6
3247.84423	3483.9
3250.12324	3475.1
3252.40088	3468
3254.67715	3463.7
3256.95205	3458.1
3259.22558	3476.3
3261.49775	3465
3263.76855	3469.2
3266.03799	3445.3
3268.30606	3476.9
3270.57277	3451.9
3272.83812	3449.5
3275.10211	3453
3277.36474	3457.8
3279.62601	3455.8
3281.88593	3455.9
3284.14448	3464
3286.40168	3465.1
3288.65753	3470.8
3290.91202	3471.3
3293.16516	3459.2
3295.41695	3466.3
3297.66738	3449.4
3299.91647	3435.4
3302.16421	3407
3304.4106	3405.3
3306.65564	3367.9
3308.89933	3329.5
3311.14169	3308.7
3313.38269	3270.6
3315.62236	3251.4
3317.86068	3239.6
3320.09766	3203.5
3322.3333	3162.3
3324.5676	3176.6
3326.80056	3115.3
3329.03219	3088.1
3331.26248	1.9
3333.49143	-0.3
3335.71905	0.5
