Data from AuAgCoreShell_UA_100uM_CRN_0uM_R6G_10uM_Scan_RamanShift__33__14-47-49-808.txt Node

Date: Thu Jun 23 14:47:49 BST 2022
User: TCL
Spectrometer: QEP01345
Trigger mode: 4
Integration Time (sec): 7.000000E0
Scans to average: 10
Electric dark correction enabled: true
Nonlinearity correction enabled: false
Boxcar width: 0
XAxis mode: Raman Shifts
Number of Pixels in Spectrum: 1044
>>>>>Begin Spectral Data<<<<<
46.04893	-0.1375
50.45542	-0.6375
54.85868	-0.5375
59.25871	-1.6375
63.6555	23.7625
68.04907	27.1625
72.43941	28.6625
76.82654	29.5625
81.21044	34.0625
85.59113	36.7625
89.96862	38.1625
94.34289	40.4625
98.71396	38.9625
103.08183	37.1625
107.4465	42.9625
111.80798	39.1625
116.16626	42.1625
120.52136	41.8625
124.87327	44.2625
129.222	43.3625
133.56755	38.2625
137.90993	38.9625
142.24913	39.0625
146.58517	36.3625
150.91804	42.6625
155.24774	40.5625
159.57429	42.4625
163.89768	45.5625
168.21792	51.4625
172.53501	59.2625
176.84895	73.8625
181.15975	88.1625
185.46741	117.7625
189.77193	147.3625
194.07331	195.3625
198.37157	243.6625
202.6667	300.3625
206.9587	344.5625
211.24758	399.7625
215.53334	445.5625
219.81599	493.1625
224.09553	551.0625
228.37195	604.1625
232.64527	678.8625
236.91549	739.7625
241.18261	811.0625
245.44663	882.8625
249.70755	958.5625
253.96539	1008.4625
258.22014	1056.5625
262.4718	1108.4625
266.72039	1121.1625
270.96589	1137.5625
275.20832	1137.2625
279.44768	1122.1625
283.68397	1112.5625
287.91719	1102.4625
292.14735	1089.0625
296.37445	1081.3625
300.59849	1074.7625
304.81948	1076.8625
309.03742	1071.5625
313.25231	1070.6625
317.46415	1070.3625
321.67296	1054.7625
325.87872	1055.4625
330.08145	1054.2625
334.28114	1061.8625
338.47781	1065.8625
342.67145	1079.5625
346.86207	1099.9625
351.04966	1127.5625
355.23424	1147.8625
359.4158	1169.6625
363.59435	1185.1625
367.76989	1200.2625
371.94243	1211.8625
376.11196	1222.6625
380.27849	1239.9625
384.44203	1249.9625
388.60257	1268.1625
392.76012	1284.1625
396.91468	1290.1625
401.06626	1312.6625
405.21485	1316.0625
409.36047	1319.9625
413.50311	1325.9625
417.64277	1324.8625
421.77947	1337.5625
425.9132	1339.3625
430.04396	1350.6625
434.17176	1364.1625
438.2966	1369.3625
442.41849	1375.1625
446.53742	1395.4625
450.6534	1389.1625
454.76644	1401.2625
458.87653	1413.4625
462.98368	1426.1625
467.08789	1426.0625
471.18916	1425.6625
475.2875	1433.7625
479.38291	1443.6625
483.4754	1456.8625
487.56496	1473.3625
491.6516	1485.4625
495.73531	1500.2625
499.81612	1498.0625
503.89401	1486.9625
507.96899	1478.5625
512.04106	1478.7625
516.11023	1485.3625
520.1765	1485.5625
524.23987	1493.9625
528.30034	1502.6625
532.35792	1514.9625
536.41261	1515.2625
540.46441	1508.5625
544.51333	1508.6625
548.55936	1505.1625
552.60252	1509.1625
556.64279	1506.4625
560.6802	1503.2625
564.71473	1524.2625
568.7464	1535.1625
572.7752	1524.0625
576.80114	1532.0625
580.82422	1535.4625
584.84444	1541.1625
588.86181	1551.1625
592.87633	1561.6625
596.888	1559.6625
600.89682	1577.3625
604.9028	1592.4625
608.90594	1654.5625
612.90624	1733.2625
616.90371	1736.1625
620.89834	1685.0625
624.89015	1692.0625
628.87913	1734.2625
632.86528	1786.4625
636.84862	1812.0625
640.82913	1797.4625
644.80683	1762.0625
648.78172	1707.4625
652.75379	1669.7625
656.72306	1645.7625
660.68952	1648.0625
664.65319	1644.6625
668.61405	1618.1625
672.57211	1626.3625
676.52738	1622.3625
680.47986	1634.0625
684.42955	1637.3625
688.37646	1640.1625
692.32058	1641.9625
696.26192	1646.8625
700.20048	1647.4625
704.13626	1649.0625
708.06928	1642.2625
711.99952	1647.4625
715.927	1657.5625
719.85171	1661.8625
723.77365	1668.2625
727.69284	1679.2625
731.60928	1676.2625
735.52295	1668.8625
739.43388	1666.9625
743.34206	1672.5625
747.24749	1672.6625
751.15017	1674.3625
755.05012	1678.2625
758.94733	1696.9625
762.8418	1716.5625
766.73354	1754.4625
770.62254	1772.1625
774.50882	1793.3625
778.39237	1783.0625
782.27321	1763.2625
786.15132	1738.4625
790.02671	1719.0625
793.89938	1726.5625
797.76935	1729.4625
801.6366	1740.0625
805.50115	1773.5625
809.36299	1808.8625
813.22213	1814.6625
817.07857	1818.0625
820.93231	1791.4625
824.78336	1772.2625
828.63172	1742.0625
832.47738	1745.2625
836.32036	1737.3625
840.16066	1743.6625
843.99827	1731.4625
847.8332	1735.3625
851.66546	1743.1625
855.49504	1743.8625
859.32195	1749.8625
863.1462	1751.0625
866.96777	1769.9625
870.78668	1783.0625
874.60293	1800.2625
878.41652	1814.8625
882.22745	1855.6625
886.03573	1880.4625
889.84136	1871.6625
893.64433	1868.6625
897.44466	1857.1625
901.24235	1822.3625
905.0374	1804.5625
908.8298	1792.0625
912.61957	1785.4625
916.40671	1792.1625
920.19121	1787.4625
923.97308	1787.8625
927.75233	1794.0625
931.52895	1788.4625
935.30295	1794.7625
939.07433	1796.9625
942.84309	1801.0625
946.60924	1802.2625
950.37278	1804.7625
954.13371	1794.4625
957.89203	1788.5625
961.64774	1787.4625
965.40086	1783.1625
969.15137	1780.8625
972.89929	1778.7625
976.64461	1793.6625
980.38733	1796.5625
984.12747	1785.9625
987.86502	1791.5625
991.59999	1808.7625
995.33237	1807.2625
999.06217	1822.4625
1002.78939	1847.6625
1006.51404	1857.3625
1010.23611	1865.7625
1013.95561	1893.1625
1017.67255	1901.1625
1021.38692	1891.2625
1025.09872	1901.0625
1028.80796	1886.0625
1032.51465	1885.9625
1036.21877	1887.5625
1039.92035	1880.0625
1043.61937	1878.3625
1047.31584	1877.3625
1051.00976	1893.4625
1054.70114	1892.9625
1058.38998	1909.0625
1062.07627	1918.9625
1065.76003	1932.0625
1069.44126	1950.0625
1073.11995	1962.4625
1076.79611	1966.1625
1080.46974	1974.3625
1084.14085	1968.6625
1087.80943	1973.0625
1091.47549	1973.0625
1095.13903	1974.4625
1098.80005	1961.7625
1102.45857	1964.4625
1106.11456	1961.5625
1109.76805	1962.3625
1113.41903	1973.4625
1117.06751	1986.0625
1120.71348	2030.8625
1124.35696	2070.8625
1127.99793	2117.1625
1131.63641	2169.9625
1135.2724	2185.2625
1138.90589	2194.3625
1142.5369	2174.3625
1146.16542	2129.8625
1149.79145	2083.5625
1153.415	2036.7625
1157.03607	2019.8625
1160.65467	2007.7625
1164.27079	1991.1625
1167.88443	1988.4625
1171.49561	2001.0625
1175.10432	2037.1625
1178.71056	2060.6625
1182.31434	2090.6625
1185.91565	2112.6625
1189.51451	2116.3625
1193.11091	2134.1625
1196.70485	2150.3625
1200.29634	2176.0625
1203.88538	2188.0625
1207.47197	2189.6625
1211.05612	2160.7625
1214.63782	2130.5625
1218.21708	2111.0625
1221.79391	2087.6625
1225.36829	2069.4625
1228.94024	2068.3625
1232.50976	2069.8625
1236.07685	2068.7625
1239.6415	2071.2625
1243.20374	2082.4625
1246.76355	2083.2625
1250.32093	2105.1625
1253.8759	2103.4625
1257.42845	2113.4625
1260.97859	2122.8625
1264.52631	2124.7625
1268.07163	2139.0625
1271.61453	2139.3625
1275.15503	2133.3625
1278.69312	2126.7625
1282.22882	2113.7625
1285.76211	2124.3625
1289.29301	2127.7625
1292.82151	2139.2625
1296.34761	2156.6625
1299.87133	2162.5625
1303.39266	2200.0625
1306.9116	2229.6625
1310.42815	2269.6625
1313.94233	2283.7625
1317.45412	2284.5625
1320.96354	2253.0625
1324.47058	2223.2625
1327.97525	2206.4625
1331.47754	2202.8625
1334.97747	2208.6625
1338.47502	2205.9625
1341.97022	2227.6625
1345.46305	2253.5625
1348.95352	2288.8625
1352.44163	2330.7625
1355.92738	2379.4625
1359.41078	2447.0625
1362.89183	2493.8625
1366.37053	2471.6625
1369.84688	2391.8625
1373.32088	2313.7625
1376.79254	2267.9625
1380.26186	2244.0625
1383.72883	2214.0625
1387.19347	2202.1625
1390.65578	2172.3625
1394.11575	2169.7625
1397.57339	2128.3625
1401.0287	2135.1625
1404.48168	2121.6625
1407.93234	2108.7625
1411.38068	2093.4625
1414.82669	2088.3625
1418.27039	2091.6625
1421.71177	2079.4625
1425.15083	2071.3625
1428.58758	2050.6625
1432.02203	2071.6625
1435.45416	2067.0625
1438.88399	2061.5625
1442.31151	2050.1625
1445.73673	2060.9625
1449.15965	2069.5625
1452.58027	2055.8625
1455.9986	2073.7625
1459.41463	2062.4625
1462.82837	2076.6625
1466.23982	2073.8625
1469.64898	2072.3625
1473.05586	2071.1625
1476.46045	2094.3625
1479.86276	2093.3625
1483.26279	2101.4625
1486.66054	2108.2625
1490.05602	2123.1625
1493.44922	2155.1625
1496.84016	2181.8625
1500.22882	2221.0625
1503.61521	2272.7625
1506.99934	2319.3625
1510.38121	2363.7625
1513.76081	2366.1625
1517.13816	2339.9625
1520.51324	2288.5625
1523.88607	2253.9625
1527.25665	2230.4625
1530.62498	2211.1625
1533.99105	2214.0625
1537.35488	2239.9625
1540.71647	2250.3625
1544.07581	2252.8625
1547.4329	2285.5625
1550.78776	2289.4625
1554.14038	2302.8625
1557.49077	2305.4625
1560.83892	2318.2625
1564.18484	2331.0625
1567.52853	2336.6625
1570.86999	2352.4625
1574.20922	2359.0625
1577.54624	2362.3625
1580.88103	2353.1625
1584.2136	2340.1625
1587.54395	2325.3625
1590.87208	2318.0625
1594.19801	2323.0625
1597.52172	2342.6625
1600.84321	2338.3625
1604.16251	2341.0625
1607.47959	2339.8625
1610.79447	2345.6625
1614.10715	2341.5625
1617.41763	2333.4625
1620.7259	2338.4625
1624.03199	2345.6625
1627.33587	2346.7625
1630.63757	2331.7625
1633.93707	2350.4625
1637.23439	2358.3625
1640.52951	2389.8625
1643.82246	2417.5625
1647.11321	2464.1625
1650.40179	2500.6625
1653.68819	2499.9625
1656.97241	2472.6625
1660.25446	2437.2625
1663.53433	2387.4625
1666.81203	2358.3625
1670.08756	2341.2625
1673.36092	2311.1625
1676.63211	2303.5625
1679.90115	2281.6625
1683.16801	2268.1625
1686.43272	2264.7625
1689.69527	2275.9625
1692.95567	2264.6625
1696.2139	2265.0625
1699.46999	2274.8625
1702.72392	2273.4625
1705.97571	2253.9625
1709.22535	2234.2625
1712.47284	2213.6625
1715.71819	2204.5625
1718.96139	2203.0625
1722.20246	2205.4625
1725.44139	2187.5625
1728.67818	2188.9625
1731.91284	2180.1625
1735.14537	2181.9625
1738.37576	2177.3625
1741.60403	2179.4625
1744.83017	2177.7625
1748.05418	2179.9625
1751.27607	2172.0625
1754.49584	2175.3625
1757.71349	2197.9625
1760.92903	2203.4625
1764.14244	2214.2625
1767.35375	2216.8625
1770.56294	2206.7625
1773.77002	2209.7625
1776.97499	2186.1625
1780.17785	2193.2625
1783.37861	2189.2625
1786.57727	2192.1625
1789.77382	2185.6625
1792.96828	2187.7625
1796.16064	2196.8625
1799.3509	2194.1625
1802.53907	2193.7625
1805.72514	2191.7625
1808.90913	2196.4625
1812.09102	2190.9625
1815.27083	2199.5625
1818.44856	2193.4625
1821.6242	2195.3625
1824.79776	2187.2625
1827.96924	2185.9625
1831.13864	2206.6625
1834.30597	2197.4625
1837.47122	2202.5625
1840.6344	2183.8625
1843.7955	2205.6625
1846.95454	2201.1625
1850.11151	2192.8625
1853.26642	2195.0625
1856.41926	2196.1625
1859.57004	2209.7625
1862.71876	2203.3625
1865.86542	2208.5625
1869.01003	2207.7625
1872.15258	2205.0625
1875.29308	2210.3625
1878.43152	2209.7625
1881.56792	2213.4625
1884.70227	2213.4625
1887.83457	2208.2625
1890.96482	2207.6625
1894.09304	2205.1625
1897.21921	2201.1625
1900.34335	2205.6625
1903.46544	2211.8625
1906.58551	2224.5625
1909.70353	2225.0625
1912.81953	2221.2625
1915.93349	2217.4625
1919.04543	2227.9625
1922.15534	2220.7625
1925.26322	2219.8625
1928.36908	2230.0625
1931.47292	2234.4625
1934.57473	2237.1625
1937.67453	2227.8625
1940.77232	2229.5625
1943.86808	2226.8625
1946.96184	2215.0625
1950.05358	2217.5625
1953.14331	2221.0625
1956.23103	2213.3625
1959.31675	2216.0625
1962.40046	2210.2625
1965.48217	2205.4625
1968.56188	2199.4625
1971.63959	2212.5625
1974.7153	2193.7625
1977.78901	2195.5625
1980.86073	2190.8625
1983.93046	2190.6625
1986.99819	2193.2625
1990.06394	2183.4625
1993.1277	2182.1625
1996.18947	2167.1625
1999.24925	2171.8625
2002.30706	2184.3625
2005.36288	2173.4625
2008.41672	2178.8625
2011.46859	2167.0625
2014.51848	2155.2625
2017.56639	2162.0625
2020.61233	2154.2625
2023.6563	2162.7625
2026.6983	2158.1625
2029.73833	2157.5625
2032.7764	2156.5625
2035.8125	2155.9625
2038.84664	2160.2625
2041.87881	2154.3625
2044.90903	2156.2625
2047.93729	2157.7625
2050.96359	2144.1625
2053.98794	2141.0625
2057.01034	2154.0625
2060.03078	2161.0625
2063.04927	2166.2625
2066.06582	2172.5625
2069.08042	2172.2625
2072.09307	2168.2625
2075.10378	2180.4625
2078.11255	2176.0625
2081.11938	2188.5625
2084.12426	2173.3625
2087.12722	2189.7625
2090.12824	2189.0625
2093.12732	2177.6625
2096.12447	2193.1625
2099.11969	2190.7625
2102.11299	2190.7625
2105.10435	2204.4625
2108.09379	2214.1625
2111.08131	2209.8625
2114.0669	2209.6625
2117.05057	2229.5625
2120.03233	2219.5625
2123.01216	2224.4625
2125.99008	2231.1625
2128.96609	2233.9625
2131.94018	2246.8625
2134.91236	2243.0625
2137.88263	2239.9625
2140.851	2262.5625
2143.81746	2261.9625
2146.78201	2268.3625
2149.74466	2277.3625
2152.7054	2280.5625
2155.66425	2287.5625
2158.6212	2280.8625
2161.57625	2285.2625
2164.52941	2302.0625
2167.48067	2296.1625
2170.43004	2301.7625
2173.37752	2302.6625
2176.32311	2313.9625
2179.26681	2309.6625
2182.20863	2306.0625
2185.14856	2314.1625
2188.08661	2318.5625
2191.02278	2340.5625
2193.95707	2337.9625
2196.88948	2332.0625
2199.82001	2336.7625
2202.74867	2323.7625
2205.67545	2332.9625
2208.60037	2326.1625
2211.52341	2329.6625
2214.44458	2328.9625
2217.36388	2318.0625
2220.28132	2335.0625
2223.1969	2324.8625
2226.11061	2340.0625
2229.02246	2322.4625
2231.93245	2330.2625
2234.84058	2323.6625
2237.74686	2338.8625
2240.65128	2347.4625
2243.55385	2331.5625
2246.45456	2336.1625
2249.35343	2330.6625
2252.25044	2337.6625
2255.14561	2336.8625
2258.03893	2329.3625
2260.93041	2323.4625
2263.82004	2329.9625
2266.70783	2329.5625
2269.59378	2329.0625
2272.4779	2327.2625
2275.36017	2311.4625
2278.24061	2312.9625
2281.11922	2330.0625
2283.996	2319.1625
2286.87094	2325.9625
2289.74405	2324.1625
2292.61534	2342.4625
2295.4848	2337.7625
2298.35243	2331.3625
2301.21824	2323.6625
2304.08223	2338.0625
2306.94439	2339.9625
2309.80474	2331.4625
2312.66327	2326.9625
2315.51999	2335.6625
2318.37489	2336.2625
2321.22797	2341.6625
2324.07925	2340.2625
2326.92871	2350.4625
2329.77637	2350.8625
2332.62222	2329.0625
2335.46626	2325.6625
2338.3085	2328.7625
2341.14893	2336.4625
2343.98756	2336.4625
2346.8244	2348.1625
2349.65943	2346.6625
2352.49267	2345.7625
2355.32411	2349.0625
2358.15376	2346.8625
2360.98161	2351.9625
2363.80768	2358.4625
2366.63195	2362.0625
2369.45444	2337.6625
2372.27514	2354.7625
2375.09405	2364.0625
2377.91118	2358.5625
2380.72652	2349.8625
2383.54009	2355.6625
2386.35187	2362.4625
2389.16188	2351.1625
2391.97011	2336.2625
2394.77657	2353.8625
2397.58125	2355.2625
2400.38416	2349.8625
2403.18529	2355.1625
2405.98466	2340.9625
2408.78226	2347.0625
2411.57809	2354.8625
2414.37216	2360.6625
2417.16446	2357.2625
2419.955	2354.1625
2422.74378	2352.4625
2425.5308	2350.3625
2428.31606	2365.6625
2431.09956	2364.7625
2433.88131	2355.1625
2436.6613	2366.4625
2439.43954	2355.9625
2442.21603	2361.9625
2444.99077	2362.7625
2447.76377	2364.2625
2450.53501	2359.2625
2453.30451	2361.3625
2456.07226	2344.2625
2458.83827	2351.5625
2461.60254	2356.1625
2464.36507	2353.6625
2467.12586	2355.4625
2469.88492	2348.0625
2472.64224	2346.7625
2475.39782	2357.9625
2478.15167	2375.4625
2480.90379	2373.2625
2483.65417	2380.5625
2486.40283	2380.2625
2489.14976	2380.3625
2491.89497	2379.3625
2494.63845	2381.8625
2497.3802	2380.3625
2500.12024	2379.4625
2502.85855	2377.7625
2505.59514	2377.3625
2508.33002	2373.8625
2511.06318	2366.3625
2513.79462	2353.4625
2516.52435	2364.3625
2519.25237	2371.1625
2521.97867	2376.4625
2524.70327	2382.8625
2527.42616	2369.9625
2530.14734	2382.5625
2532.86681	2389.4625
2535.58458	2388.3625
2538.30065	2381.3625
2541.01501	2398.3625
2543.72768	2400.5625
2546.43864	2396.2625
2549.14791	2398.1625
2551.85548	2406.3625
2554.56136	2389.3625
2557.26554	2391.0625
2559.96803	2386.7625
2562.66883	2389.9625
2565.36794	2391.0625
2568.06536	2387.2625
2570.7611	2371.0625
2573.45514	2371.5625
2576.14751	2371.2625
2578.83819	2373.5625
2581.52719	2382.9625
2584.21451	2379.4625
2586.90015	2380.1625
2589.58411	2379.4625
2592.2664	2368.2625
2594.94701	2373.6625
2597.62594	2364.2625
2600.30321	2362.3625
2602.9788	2359.6625
2605.65273	2366.5625
2608.32498	2370.3625
2610.99557	2366.6625
2613.66449	2369.8625
2616.33175	2372.2625
2618.99734	2355.7625
2621.66128	2351.2625
2624.32355	2347.3625
2626.98416	2370.7625
2629.64311	2355.3625
2632.30041	2359.7625
2634.95605	2361.0625
2637.61004	2352.3625
2640.26238	2352.9625
2642.91306	2353.0625
2645.56209	2349.8625
2648.20948	2360.1625
2650.85521	2349.2625
2653.4993	2347.5625
2656.14175	2360.4625
2658.78255	2359.0625
2661.42171	2367.5625
2664.05923	2376.0625
2666.6951	2375.2625
2669.32934	2372.2625
2671.96194	2389.0625
2674.59291	2383.1625
2677.22224	2394.4625
2679.84993	2393.1625
2682.476	2378.8625
2685.10043	2386.7625
2687.72324	2376.6625
2690.34441	2380.8625
2692.96396	2394.2625
2695.58188	2399.7625
2698.19818	2400.6625
2700.81285	2407.2625
2703.4259	2398.5625
2706.03733	2407.2625
2708.64714	2406.8625
2711.25533	2405.0625
2713.86191	2412.4625
2716.46687	2409.1625
2719.07021	2422.2625
2721.67194	2426.4625
2724.27206	2439.8625
2726.87057	2445.0625
2729.46747	2444.3625
2732.06276	2449.4625
2734.65644	2456.3625
2737.24852	2446.3625
2739.83899	2455.2625
2742.42786	2436.0625
2745.01513	2429.8625
2747.60079	2448.9625
2750.18486	2445.2625
2752.76733	2459.5625
2755.3482	2450.4625
2757.92747	2449.5625
2760.50515	2434.2625
2763.08123	2443.3625
2765.65573	2430.1625
2768.22863	2417.0625
2770.79994	2427.3625
2773.36967	2437.9625
2775.9378	2431.3625
2778.50435	2434.5625
2781.06932	2437.0625
2783.6327	2435.7625
2786.1945	2433.4625
2788.75471	2434.5625
2791.31335	2436.9625
2793.87041	2449.2625
2796.42589	2432.5625
2798.97979	2432.7625
2801.53212	2418.7625
2804.08288	2442.1625
2806.63206	2432.2625
2809.17967	2423.9625
2811.72571	2427.3625
2814.27018	2423.0625
2816.81308	2428.8625
2819.35442	2420.1625
2821.89419	2412.3625
2824.43239	2399.4625
2826.96904	2389.7625
2829.50412	2397.9625
2832.03763	2388.1625
2834.56959	2403.2625
2837.1	2395.4625
2839.62884	2397.0625
2842.15613	2407.3625
2844.68186	2422.3625
2847.20604	2409.2625
2849.72867	2415.5625
2852.24974	2415.8625
2854.76927	2406.5625
2857.28724	2396.1625
2859.80367	2403.0625
2862.31855	2396.5625
2864.83189	2393.8625
2867.34368	2395.3625
2869.85393	2396.2625
2872.36264	2387.8625
2874.8698	2389.1625
2877.37543	2398.0625
2879.87952	2396.6625
2882.38207	2406.4625
2884.88308	2390.1625
2887.38256	2399.3625
2889.88051	2396.6625
2892.37692	2408.1625
2894.8718	2410.6625
2897.36515	2405.9625
2899.85698	2418.1625
2902.34727	2415.3625
2904.83604	2425.0625
2907.32328	2431.9625
2909.809	2443.7625
2912.29319	2446.2625
2914.77587	2442.9625
2917.25702	2439.6625
2919.73665	2440.2625
2922.21476	2452.6625
2924.69136	2447.2625
2927.16644	2445.8625
2929.64	2438.1625
2932.11205	2454.9625
2934.58258	2433.2625
2937.05161	2458.6625
2939.51912	2458.1625
2941.98513	2456.3625
2944.44962	2468.4625
2946.91261	2462.3625
2949.37409	2461.2625
2951.83407	2468.3625
2954.29254	2455.6625
2956.74951	2464.5625
2959.20498	2468.3625
2961.65895	2482.0625
2964.11142	2481.1625
2966.56239	2486.9625
2969.01186	2474.1625
2971.45984	2470.5625
2973.90632	2467.5625
2976.35131	2484.6625
2978.7948	2476.5625
2981.23681	2487.6625
2983.67732	2487.8625
2986.11635	2481.5625
2988.55388	2463.2625
2990.98993	2479.9625
2993.4245	2483.4625
2995.85758	2492.9625
2998.28917	2486.5625
3000.71928	2473.4625
3003.14791	2490.6625
3005.57506	2477.1625
3008.00073	2478.4625
3010.42493	2482.7625
3012.84764	2471.9625
3015.26888	2475.3625
3017.68865	2474.0625
3020.10694	2484.4625
3022.52376	2470.5625
3024.9391	2473.0625
3027.35298	2470.2625
3029.76539	2475.1625
3032.17632	2476.5625
3034.5858	2486.5625
3036.9938	2472.4625
3039.40034	2489.8625
3041.80542	2476.5625
3044.20903	2490.8625
3046.61118	2499.1625
3049.01187	2496.5625
3051.4111	2496.3625
3053.80888	2487.3625
3056.20519	2495.4625
3058.60005	2471.6625
3060.99345	2481.4625
3063.3854	2480.3625
3065.7759	2472.6625
3068.16494	2490.2625
3070.55254	2482.8625
3072.93868	2483.4625
3075.32338	2479.3625
3077.70662	2489.4625
3080.08842	2472.3625
3082.46878	2473.5625
3084.84769	2475.9625
3087.22515	2480.4625
3089.60118	2505.2625
3091.97576	2506.8625
3094.3489	2499.9625
3096.72061	2503.9625
3099.09087	2512.2625
3101.4597	2517.1625
3103.82709	2529.5625
3106.19305	2531.3625
3108.55757	2525.6625
3110.92066	2532.6625
3113.28232	2553.3625
3115.64255	2549.5625
3118.00134	2558.1625
3120.35871	2553.4625
3122.71466	2536.0625
3125.06917	2558.2625
3127.42226	2564.1625
3129.77393	2574.1625
3132.12417	2570.2625
3134.47299	2548.6625
3136.82039	2568.9625
3139.16636	2572.2625
3141.51092	2573.4625
3143.85406	2584.0625
3146.19579	2591.8625
3148.53609	2586.7625
3150.87499	2602.8625
3153.21246	2624.7625
3155.54853	2624.8625
3157.88318	2629.0625
3160.21642	2638.9625
3162.54826	2650.0625
3164.87868	2641.5625
3167.2077	2654.7625
3169.5353	2679.7625
3171.86151	2668.5625
3174.18631	2683.6625
3176.5097	2691.6625
3178.83169	2701.8625
3181.15228	2706.9625
3183.47147	2705.8625
3185.78926	2707.7625
3188.10565	2712.6625
3190.42065	2701.7625
3192.73424	2692.9625
3195.04645	2693.4625
3197.35725	2703.2625
3199.66667	2706.6625
3201.97469	2710.6625
3204.28132	2706.5625
3206.58656	2724.3625
3208.8904	2727.7625
3211.19287	2741.1625
3213.49394	2730.1625
3215.79363	2739.9625
3218.09193	2743.3625
3220.38884	2750.1625
3222.68438	2771.3625
3224.97853	2761.2625
3227.2713	2759.9625
3229.56269	2780.0625
3231.8527	2779.0625
3234.14133	2772.4625
3236.42858	2754.6625
3238.71446	2754.1625
3240.99896	2740.5625
3243.28209	2743.1625
3245.56384	2719.2625
3247.84423	2729.8625
3250.12324	2721.2625
3252.40088	2719.2625
3254.67715	2732.1625
3256.95205	2729.9625
3259.22558	2746.2625
3261.49775	2757.6625
3263.76855	2748.2625
3266.03799	2749.9625
3268.30606	2746.8625
3270.57277	2741.2625
3272.83812	2736.4625
3275.10211	2725.5625
3277.36474	2721.1625
3279.62601	2740.5625
3281.88593	2720.3625
3284.14448	2731.1625
3286.40168	2729.1625
3288.65753	2737.2625
3290.91202	2741.2625
3293.16516	2741.3625
3295.41695	2724.8625
3297.66738	2717.8625
3299.91647	2711.3625
3302.16421	2666.5625
3304.4106	2653.0625
3306.65564	2630.7625
3308.89933	2611.5625
3311.14169	2596.8625
3313.38269	2570.7625
3315.62236	2551.7625
3317.86068	2536.6625
3320.09766	2509.1625
3322.3333	2485.6625
3324.5676	2463.2625
3326.80056	2437.9625
3329.03219	2424.0625
3331.26248	0.3625
3333.49143	1.3625
3335.71905	0.2625
