#Wave		#Intensity
2001.242188	30802.669922
2000.272461	31028.255859
1999.302734	30995.273438
1998.333008	30962.300781
1997.363281	30871.718750
1996.392578	30292.734375
1995.422852	30768.279297
1994.452148	31000.777344
1993.481445	30354.476563
1992.510742	30524.388672
1991.540039	30861.912109
1990.568359	30463.685547
1989.596680	30851.134766
1988.625977	30378.007813
1987.654297	30582.771484
1986.681641	30277.380859
1985.709961	30669.587891
1984.738281	30374.283203
1983.765625	30688.861328
1982.792969	30443.628906
1981.820313	30690.630859
1980.847656	30697.757813
1979.874023	30490.107422
1978.901367	30594.644531
1977.927734	30571.822266
1976.954102	30531.535156
1975.980469	31000.363281
1975.006836	30558.291016
1974.032227	30892.234375
1973.058594	30692.279297
1972.083984	30539.777344
1971.109375	30626.695313
1970.134766	30352.097656
1969.160156	30596.046875
1968.184570	30829.939453
1967.209961	30677.541016
1966.234375	30350.806641
1965.258789	30522.345703
1964.283203	30397.470703
1963.306641	30334.886719
1962.331055	30605.916016
1961.354492	30804.666016
1960.377930	30520.552734
1959.401367	30666.994141
1958.424805	30616.849609
1957.447266	30293.115234
1956.470703	30486.767578
1955.493164	30665.431641
1954.515625	30660.066406
1953.538086	30060.648438
1952.560547	30460.466797
1951.582031	30479.984375
1950.604492	30330.562500
1949.625977	30558.736328
1948.647461	30436.667969
1947.668945	30751.644531
1946.689453	30296.921875
1945.710938	30279.208984
1944.731445	30286.316406
1943.751953	30586.207031
1942.772461	30632.949219
1941.792969	30682.154297
1940.813477	30763.580078
1939.833008	30473.050781
1938.852539	30618.939453
1937.873047	30613.576172
1936.891602	30479.349609
1935.911133	30466.910156
1934.930664	30454.470703
1933.949219	30442.019531
1932.967773	30429.568359
1931.986328	30417.115234
1931.004883	30404.664063
1930.023438	30392.212891
1929.041016	30379.748047
1928.059570	30206.173828
1927.077148	30242.937500
1926.094727	30437.986328
1925.112305	30707.156250
1924.128906	30447.101563
1923.146484	30493.679688
1922.163086	30839.316406
1921.179688	30586.785156
1920.196289	30378.816406
1919.212891	30319.144531
1918.228516	30454.617188
1917.245117	30385.072266
1916.260742	30708.134766
1915.276367	30497.851563
1914.291992	30228.404297
1913.307617	30334.156250
1912.322266	30634.791016
1911.336914	30730.562500
1910.352539	30278.738281
1909.367188	30611.279297
1908.380859	30625.636719
1907.395508	30649.847656
1906.409180	30365.953125
1905.423828	30636.632813
1904.437500	30498.207031
1903.451172	30699.789063
1902.463867	30512.138672
1901.477539	30526.488281
1900.490234	30572.837891
1899.503906	30429.615234
1898.516602	30667.947266
1897.528320	30372.181641
1896.541016	30676.869141
1895.553711	30696.085938
1894.565430	30380.791016
1893.577148	30532.845703
1892.588867	30603.707031
1891.600586	30573.751953
1890.611328	30647.037109
1889.623047	30368.882813
1888.633789	30144.878906
1887.644531	30321.373047
1886.655273	30234.996094
1885.666016	30092.169922
1884.675781	30838.197266
1883.686523	30562.750000
1882.696289	30471.480469
1881.706055	30596.189453
1880.715820	30372.451172
1879.724609	30224.835938
1878.734375	30582.525391
1877.743164	30496.228516
1876.751953	30272.660156
1875.760742	30541.898438
1874.769531	30931.136719
1873.778320	30651.244141
1872.786133	30447.400391
1871.793945	30402.855469
1870.801758	30429.353516
1869.809570	30757.044922
1868.817383	30433.351563
1867.824219	30638.527344
1866.832031	30635.589844
1865.838867	30321.873047
1864.845703	30522.062500
1863.851563	30729.519531
1862.858398	30386.597656
1861.865234	30701.599609
1860.871094	30573.955078
1859.876953	30681.027344
1858.882813	30093.943359
1857.887695	30604.261719
1856.893555	30378.990234
1855.898438	30613.041016
1854.904297	30524.619141
1853.909180	30167.613281
1852.913086	30301.472656
1851.917969	30694.037109
1850.922852	30764.298828
1849.926758	30427.019531
1848.930664	30524.136719
1847.934570	30682.205078
1846.938477	30808.509766
1845.941406	30620.201172
1844.945313	30751.345703
1843.948242	30394.916016
1842.951172	30513.865234
1841.954102	30627.898438
1840.956055	30676.107422
1839.958984	30612.246094
1838.960938	30879.634766
1837.962891	30713.486328
1836.964844	30778.683594
1835.966797	30783.003906
1834.968750	31025.830078
1833.969727	30550.732422
1832.970703	30949.218750
1831.971680	30634.841797
1830.972656	31208.281250
1829.973633	30952.326172
1828.973633	30995.501953
1827.974609	30907.396484
1826.974609	31050.205078
1825.974609	31083.615234
1824.974609	30988.250000
1823.973633	30807.898438
1822.973633	31280.914063
1821.972656	31030.154297
1820.971680	31116.945313
1819.970703	31050.779297
1818.968750	31176.363281
1817.967773	31049.544922
1816.965820	30939.753906
1815.964844	30771.783203
1814.961914	31028.285156
1813.959961	31066.462891
1812.958008	31191.904297
1811.955078	31094.296875
1810.953125	30873.125000
1809.950195	30913.720703
1808.947266	31140.847656
1807.943359	31278.269531
1806.940430	31505.250000
1805.936523	31378.626953
1804.932617	30988.164063
1803.928711	31261.060547
1802.924805	31274.908203
1801.920898	31583.951172
1800.916016	31704.181641
1799.911133	31299.486328
1798.907227	31127.097656
1797.901367	31206.236328
1796.896484	31459.410156
1795.891602	31250.822266
1794.885742	31291.228516
1793.879883	31421.017578
1792.874023	31328.505859
1791.868164	31383.363281
1790.862305	31636.228516
1789.855469	31748.960938
1788.848633	31352.269531
1787.842773	31356.392578
1786.834961	31543.921875
1785.828125	31560.070313
1784.821289	31663.058594
1783.813477	31671.943359
1782.805664	31280.501953
1781.797852	31489.572266
1780.790039	31903.478516
1779.782227	31324.197266
1778.773438	31810.281250
1777.764648	31852.853516
1776.755859	31837.593750
1775.747070	31846.423828
1774.738281	31392.880859
1773.729492	32145.775391
1772.719727	31718.818359
1771.709961	31730.066406
1770.700195	31972.328125
1769.690430	32058.111328
1768.680664	32110.183594
1767.669922	32008.302734
1766.659180	32281.601563
1765.648438	32011.421875
1764.637695	31753.355469
1763.626953	31872.726563
1762.615234	31977.636719
1761.604492	32344.394531
1760.592773	32134.492188
1759.581055	32474.671875
1758.569336	32214.386719
1757.556641	32047.830078
1756.544922	32577.482422
1755.532227	32538.212891
1754.519531	32498.945313
1753.506836	32459.675781
1752.494141	32420.406250
1751.480469	32381.099609
1750.466797	32341.792969
1749.454102	32302.523438
1748.440430	32263.216797
1747.425781	32223.873047
1746.412109	32184.564453
1745.397461	32145.220703
1744.383789	32664.136719
1743.369141	32890.675781
1742.353516	33081.214844
1741.338867	32627.654297
1740.324219	33004.878906
1739.308594	32917.667969
1738.292969	33014.742188
1737.277344	32836.640625
1736.261719	33409.707031
1735.245117	33255.515625
1734.229492	33735.042969
1733.212891	33588.019531
1732.196289	33842.625000
1731.179688	33602.421875
1730.162109	33928.617188
1729.145508	34073.125000
1728.127930	33868.832031
1727.110352	34118.378906
1726.092773	34363.062500
1725.075195	34509.769531
1724.056641	34544.238281
1723.039063	35070.324219
1722.020508	35076.046875
1721.001953	34838.421875
1719.983398	35015.917969
1718.963867	35501.000000
1717.945313	35535.246094
1716.925781	35617.164063
1715.906250	35489.292969
1714.886719	35575.949219
1713.867188	35838.898438
1712.846680	35751.550781
1711.826172	35814.292969
1710.806641	35884.156250
1709.786133	35794.460938
1708.764648	35952.382813
1707.744141	36181.652344
1706.722656	36027.695313
1705.701172	36304.457031
1704.679688	36262.335938
1703.658203	36467.601563
1702.636719	36142.468750
1701.614258	36380.964844
1700.592773	36536.171875
1699.570313	36596.246094
1698.547852	36425.785156
1697.524414	36093.816406
1696.501953	36393.867188
1695.478516	36377.914063
1694.456055	36542.445313
1693.432617	36410.125000
1692.408203	36415.539063
1691.384766	36817.320313
1690.360352	36404.996094
1689.336914	36787.652344
1688.312500	36698.101563
1687.288086	36909.796875
1686.262695	37187.812500
1685.238281	37216.781250
1684.212891	37044.242188
1683.187500	37490.359375
1682.162109	37692.242188
1681.136719	37488.902344
1680.110352	37707.292969
1679.084961	37691.128906
1678.058594	37791.000000
1677.032227	37817.437500
1676.005859	37562.175781
1674.978516	37941.285156
1673.952148	37825.703125
1672.924805	38020.089844
1671.897461	38058.285156
1670.870117	37800.832031
1669.842773	38744.707031
1668.814453	37960.000000
1667.787109	38059.628906
1666.758789	38189.949219
1665.730469	38360.390625
1664.701172	38374.839844
1663.672852	38531.011719
1662.643555	38271.464844
1661.615234	38651.917969
1660.585938	38805.593750
1659.555664	38706.644531
1658.526367	38645.484375
1657.497070	38664.578125
1656.466797	38744.996094
1655.436523	38754.625000
1654.406250	38896.316406
1653.375977	39070.964844
1652.344727	38540.656250
1651.313477	38995.796875
1650.282227	38939.375000
1649.250977	39158.656250
1648.219727	38741.781250
1647.188477	38824.402344
1646.156250	39472.191406
1645.124023	38836.500000
1644.091797	39495.824219
1643.059570	39043.945313
1642.027344	39098.187500
1640.994141	39453.585938
1639.961914	39086.640625
1638.928711	39453.667969
1637.895508	39491.335938
1636.861328	39096.355469
1635.828125	39576.023438
1634.793945	39994.406250
1633.759766	39806.343750
1632.725586	39867.402344
1631.691406	39944.878906
1630.656250	39817.988281
1629.622070	40353.363281
1628.586914	40548.101563
1627.551758	40292.054688
1626.516602	40322.441406
1625.480469	40646.140625
1624.445313	41136.308594
1623.409180	41368.257813
1622.373047	42087.964844
1621.336914	42125.027344
1620.300781	42101.121094
1619.263672	42478.062500
1618.227539	42620.500000
1617.190430	43280.753906
1616.153320	43938.425781
1615.115234	45188.507813
1614.078125	45283.511719
1613.040039	45804.660156
1612.001953	46253.039063
1610.963867	46132.445313
1609.925781	46236.566406
1608.887695	46031.773438
1607.848633	45965.089844
1606.809570	44899.613281
1605.770508	44807.421875
1604.731445	43910.886719
1603.692383	43080.132813
1602.652344	42794.296875
1601.613281	42559.980469
1600.573242	41825.703125
1599.533203	41815.914063
1598.492188	41313.273438
1597.452148	40992.972656
1596.411133	40651.765625
1595.370117	40504.449219
1594.329102	39979.050781
1593.288086	40018.597656
1592.247070	39981.132813
1591.205078	39724.386719
1590.163086	39278.800781
1589.121094	39602.949219
1588.079102	39483.972656
1587.036133	39369.695313
1585.994141	39451.246094
1584.951172	39460.523438
1583.908203	39306.699219
1582.865234	39185.539063
1581.822266	39660.683594
1580.778320	39707.171875
1579.734375	39795.550781
1578.691406	39557.988281
1577.646484	39569.550781
1576.602539	40037.214844
1575.558594	39883.492188
1574.513672	39853.117188
1573.468750	40178.597656
1572.423828	40376.062500
1571.378906	40259.585938
1570.333008	40275.644531
1569.288086	39919.832031
1568.242188	39863.910156
1567.196289	39659.312500
1566.150391	39707.984375
1565.103516	39289.812500
1564.057617	39004.148438
1563.010742	39034.332031
1561.963867	38871.839844
1560.916992	38697.796875
1559.869141	38338.179688
1558.822266	38277.976563
1557.774414	37774.746094
1556.726563	38078.769531
1555.678711	37851.687500
1554.630859	37933.023438
1553.582031	38058.371094
1552.534180	37882.394531
1551.485352	37921.968750
1550.436523	37366.136719
1549.386719	37660.578125
1548.337891	36998.457031
1547.288086	37202.554688
1546.238281	37489.917969
1545.188477	37788.750000
1544.138672	37228.898438
1543.088867	37118.125000
1542.038086	37183.207031
1540.987305	36811.109375
1539.936523	36716.652344
1538.885742	37216.453125
1537.834961	37202.863281
1536.783203	37078.335938
1535.731445	37517.714844
1534.679688	37293.820313
1533.627930	37719.136719
1532.576172	37213.503906
1531.523438	37015.179688
1530.471680	36946.222656
1529.418945	36865.746094
1528.366211	37350.761719
1527.312500	37258.699219
1526.259766	37159.746094
1525.206055	37116.191406
1524.152344	36878.914063
1523.098633	37066.015625
1522.044922	36690.500000
1520.990234	37108.078125
1519.936523	36783.386719
1518.881836	36578.636719
1517.827148	36684.980469
1516.772461	36814.320313
1515.716797	36729.429688
1514.662109	36342.917969
1513.606445	36414.687500
1512.550781	36435.792969
1511.495117	36162.304688
1510.438477	35882.011719
1509.382813	36149.359375
1508.326172	35876.066406
1507.269531	35782.250000
1506.212891	35948.296875
1505.155273	35955.652344
1504.098633	35999.781250
1503.041016	36057.683594
1501.983398	35867.406250
1500.925781	35605.984375
1499.867188	36231.253906
1498.809570	36041.042969
1497.750977	36039.179688
1496.692383	35872.027344
1495.633789	35787.562500
1494.575195	35905.070313
1493.515625	36082.195313
1492.457031	36169.781250
1491.397461	35855.957031
1490.337891	36042.160156
1489.277344	35256.156250
1488.217773	35795.421875
1487.157227	35805.050781
1486.096680	35771.132813
1485.036133	35833.457031
1483.975586	35701.042969
1482.915039	35763.351563
1481.853516	35770.679688
1480.791992	35526.160156
1479.730469	35439.671875
1478.668945	35925.382813
1477.606445	35946.398438
1476.544922	36031.468750
1475.482422	35773.386719
1474.419922	36029.980469
1473.357422	36087.542969
1472.293945	36254.824219
1471.231445	35800.300781
1470.167969	36639.476563
1469.104492	36022.812500
1468.041016	36009.496094
1466.976563	36329.671875
1465.913086	36304.882813
1464.848633	36620.320313
1463.784180	36757.574219
1462.719727	36600.332031
1461.655273	36762.640625
1460.589844	36625.984375
1459.524414	36633.097656
1458.458984	36863.734375
1457.393555	37149.019531
1456.328125	37010.105469
1455.261719	36955.589844
1454.196289	37101.664063
1453.129883	37523.425781
1452.063477	36983.535156
1450.996094	36940.445313
1449.929688	36858.648438
1448.862305	36984.109375
1447.794922	37152.777344
1446.727539	37214.398438
1445.660156	37287.371094
1444.591797	37412.656250
1443.524414	37710.808594
1442.456055	37797.300781
1441.387695	38231.730469
1440.318359	37892.867188
1439.250000	38318.031250
1438.180664	38340.695313
1437.111328	38756.531250
1436.041992	38629.132813
1434.972656	38799.398438
1433.903320	38683.394531
1432.833008	38930.800781
1431.762695	38290.289063
1430.692383	38914.535156
1429.622070	39422.796875
1428.550781	39161.531250
1427.480469	39279.289063
1426.409180	39524.042969
1425.337891	40118.015625
1424.266602	40312.636719
1423.194336	39994.753906
1422.122070	40533.906250
1421.050781	40390.621094
1419.978516	40390.156250
1418.905273	40679.707031
1417.833008	40497.957031
1416.759766	41031.996094
1415.687500	40207.113281
1414.614258	40439.878906
1413.540039	39495.414063
1412.466797	39427.199219
1411.392578	39313.746094
1410.319336	39012.546875
1409.245117	39003.261719
1408.169922	38946.488281
1407.095703	39113.597656
1406.020508	38808.121094
1404.946289	39519.964844
1403.871094	39431.488281
1402.794922	39691.031250
1401.719727	39887.218750
1400.643555	39715.144531
1399.568359	39906.734375
1398.492188	39732.453125
1397.415039	39707.238281
1396.338867	39722.660156
1395.261719	39338.617188
1394.185547	39367.636719
1393.108398	39525.234375
1392.031250	39581.273438
1390.953125	39666.605469
1389.875977	39911.996094
1388.797852	39891.277344
1387.719727	39793.933594
1386.641602	39811.550781
1385.562500	39822.406250
1384.484375	40056.273438
1383.405273	40292.308594
1382.326172	39906.722656
1381.247070	39849.996094
1380.166992	40160.222656
1379.087891	39824.378906
1378.007813	39974.722656
1376.927734	39362.289063
1375.847656	39773.601563
1374.767578	39282.875000
1373.686523	39316.269531
1372.605469	39225.992188
1371.524414	38452.390625
1370.443359	38998.335938
1369.362305	38903.667969
1368.280273	38600.089844
1367.199219	38512.261719
1366.117188	38431.203125
1365.034180	38435.500000
1363.952148	38807.980469
1362.870117	38690.992188
1361.787109	38668.300781
1360.704102	38854.296875
1359.621094	38598.265625
1358.537109	38746.066406
1357.454102	38483.417969
1356.370117	38232.070313
1355.286133	38339.503906
1354.202148	38440.171875
1353.118164	38377.210938
1352.033203	37550.222656
1350.948242	37384.390625
1349.863281	37706.890625
1348.778320	37301.472656
1347.693359	37417.882813
1346.607422	37424.558594
1345.521484	37052.980469
1344.435547	36562.929688
1343.349609	37417.714844
1342.263672	37032.910156
1341.176758	36766.781250
1340.090820	37144.757813
1339.003906	37088.863281
1337.916016	37182.753906
1336.829102	37263.199219
1335.741211	37033.015625
1334.654297	37814.972656
1333.566406	37678.585938
1332.478516	37566.812500
1331.389648	37644.875000
1330.301758	37421.515625
1329.212891	37823.230469
1328.124023	37546.359375
1327.035156	38068.394531
1325.945313	37967.816406
1324.856445	38228.613281
1323.766602	38157.027344
1322.676758	38473.437500
1321.586914	38660.429688
1320.496094	39246.328125
1319.406250	39078.777344
1318.315430	39684.437500
1317.224609	40100.519531
1316.133789	40730.269531
1315.041992	40742.945313
1313.951172	41292.195313
1312.859375	41044.312500
1311.767578	41159.300781
1310.675781	41463.390625
1309.583008	41264.554688
1308.491211	40923.417969
1307.398438	40655.800781
1306.305664	40615.089844
1305.212891	40418.765625
1304.119141	40433.679688
1303.026367	40150.777344
1301.932617	40596.808594
1300.838867	41100.441406
1299.744141	41270.699219
1298.650391	41540.835938
1297.555664	42268.281250
1296.461914	42606.957031
1295.366211	42883.355469
1294.271484	42804.578125
1293.176758	42299.808594
1292.081055	43013.140625
1290.985352	42754.714844
1289.889648	42083.902344
1288.793945	41694.917969
1287.697266	41091.039063
1286.601563	40682.425781
1285.504883	40316.062500
1284.408203	40076.117188
1283.311523	40000.187500
1282.213867	39995.156250
1281.116211	39638.031250
1280.018555	39564.429688
1278.920898	39302.695313
1277.823242	39091.957031
1276.725586	38972.019531
1275.626953	38442.828125
1274.528320	38670.335938
1273.429688	38400.144531
1272.330078	38295.890625
1271.231445	38313.269531
1270.131836	37687.410156
1269.032227	37269.519531
1267.932617	37510.238281
1266.833008	37510.062500
1265.732422	37315.515625
1264.632813	37355.125000
1263.532227	37246.781250
1262.430664	37052.382813
1261.330078	37129.535156
1260.228516	36977.152344
1259.127930	36758.632813
1258.026367	36531.363281
1256.924805	36705.597656
1255.822266	36840.070313
1254.720703	36725.351563
1253.618164	36872.996094
1252.515625	36399.058594
1251.413086	36388.046875
1250.309570	36262.468750
1249.207031	36520.226563
1248.103516	36744.847656
1247.000000	36194.285156
1245.895508	36445.304688
1244.791992	36236.179688
1243.687500	36145.968750
1242.583008	36471.667969
1241.478516	36724.648438
1240.374023	36665.191406
1239.269531	36445.210938
1238.164063	36590.308594
1237.058594	36423.183594
1235.953125	36590.210938
1234.847656	36741.792969
1233.741211	36618.667969
1232.635742	36203.410156
1231.529297	36563.632813
1230.422852	37024.742188
1229.315430	36866.519531
1228.208984	36941.042969
1227.101563	36949.695313
1225.994141	36883.734375
1224.886719	37111.792969
1223.779297	37061.175781
1222.670898	37225.511719
1221.562500	37345.929688
1220.454102	37310.640625
1219.345703	36893.949219
1218.237305	37077.917969
1217.127930	36472.972656
1216.018555	36865.070313
1214.909180	36540.757813
1213.799805	36402.710938
1212.690430	36674.175781
1211.580078	37092.218750
1210.469727	36779.039063
1209.359375	36754.839844
1208.249023	36991.031250
1207.138672	37281.820313
1206.027344	37106.621094
1204.916016	37169.851563
1203.804688	37117.175781
1202.693359	37125.726563
1201.581055	37140.828125
1200.469727	37433.449219
1199.357422	37330.503906
1198.245117	37360.847656
1197.131836	37895.699219
1196.019531	37526.312500
1194.906250	37667.945313
1193.792969	38045.277344
1192.679688	37796.097656
1191.566406	37701.933594
1190.452148	37959.054688
1189.337891	37271.582031
1188.223633	37618.101563
1187.109375	37327.789063
1185.995117	37185.828125
1184.879883	36867.359375
1183.764648	37024.093750
1182.649414	36958.519531
1181.534180	36808.007813
1180.418945	36505.082031
1179.302734	36498.433594
1178.186523	36709.515625
1177.070313	36626.636719
1175.954102	36545.960938
1174.837891	36667.695313
1173.720703	36395.574219
1172.603516	35908.195313
1171.486328	36025.625000
1170.369141	35673.308594
1169.250977	35927.703125
1168.132813	35447.281250
1167.015625	35849.410156
1165.896484	35782.031250
1164.778320	35636.464844
1163.660156	35755.953125
1162.541016	35619.128906
1161.421875	35855.832031
1160.302734	36038.167969
1159.182617	35883.996094
1158.063477	35653.925781
1156.943359	35847.042969
1155.823242	35684.312500
1154.703125	35938.082031
1153.582031	35781.894531
1152.461914	35846.917969
1151.340820	35664.785156
1150.219727	35783.992188
1149.097656	36002.832031
1147.976563	35365.777344
1146.854492	35820.730469
1145.732422	36097.917969
1144.610352	35727.539063
1143.488281	35982.988281
1142.365234	35956.941406
1141.243164	36065.082031
1140.120117	36220.789063
1138.996094	36586.292969
1137.873047	36542.843750
1136.750000	36609.703125
1135.625977	36408.414063
1134.501953	36641.738281
1133.377930	36762.574219
1132.252930	36624.035156
1131.127930	36548.207031
1130.003906	36599.859375
1128.878906	36690.371094
1127.752930	36631.843750
1126.627930	36657.539063
1125.501953	36201.828125
1124.375977	36324.714844
1123.250000	36637.453125
1122.124023	36225.140625
1120.997070	36259.507813
1119.871094	36244.257813
1118.744141	36144.910156
1117.617188	36425.050781
1116.489258	36347.257813
1115.362305	36254.410156
1114.234375	36321.046875
1113.106445	36295.019531
1111.978516	35911.433594
1110.849609	35999.628906
1109.721680	36221.289063
1108.592773	36587.101563
1107.463867	36683.730469
1106.333984	36403.714844
1105.205078	36420.726563
1104.075195	36306.503906
1102.945313	36562.269531
1101.815430	36381.394531
1100.685547	36368.289063
1099.554688	36441.175781
1098.424805	36473.199219
1097.293945	36414.953125
1096.162109	36182.699219
1095.031250	36302.816406
1093.899414	36508.796875
1092.768555	36691.082031
1091.636719	36443.914063
1090.503906	36158.195313
1089.372070	36093.632813
1088.239258	36205.042969
1087.106445	36204.851563
1085.973633	35979.441406
1084.840820	36356.730469
1083.708008	36131.371094
1082.574219	36225.511719
1081.440430	36126.714844
1080.306641	36162.960938
1079.171875	36227.042969
1078.038086	36094.019531
1076.903320	36158.089844
1075.768555	36314.218750
1074.633789	36690.808594
1073.498047	36125.382813
1072.363281	36375.597656
1071.227539	36405.308594
1070.091797	35647.691406
1068.956055	36655.078125
1067.819336	36413.109375
1066.682617	36598.882813
1065.546875	36455.351563
1064.409180	36741.507813
1063.272461	36822.394531
1062.135742	36796.417969
1060.998047	36426.500000
1059.860352	36494.578125
1058.722656	36231.625000
1057.583984	36679.769531
1056.446289	36118.007813
1055.307617	36329.093750
1054.168945	36243.472656
1053.029297	36339.242188
1051.890625	36592.828125
1050.750977	36215.007813
1049.611328	36349.105469
1048.471680	36323.253906
1047.332031	36079.980469
1046.191406	36079.753906
1045.051758	36039.042969
1043.911133	36388.218750
1042.769531	36379.414063
1041.628906	36230.050781
1040.487305	36498.082031
1039.346680	36063.476563
1038.205078	35833.367188
1037.062500	36124.726563
1035.920898	36307.464844
1034.778320	35998.718750
1033.635742	36064.425781
1032.493164	36208.792969
1031.350586	35974.648438
1030.207031	36165.738281
1029.063477	35955.062500
1027.919922	36384.085938
1026.776367	36009.847656
1025.632813	35846.046875
1024.488281	35947.777344
1023.343750	35807.398438
1022.199219	36350.691406
1021.054688	35840.945313
1019.910156	36152.703125
1018.764648	36256.398438
1017.619141	36060.925781
1016.473633	36132.781250
1015.327148	36236.421875
1014.181641	36189.476563
1013.035156	36199.789063
1011.888672	36029.929688
1010.742188	35860.136719
1009.594727	36014.570313
1008.448242	35948.636719
1007.300781	35965.328125
1006.153320	36151.417969
1005.005859	36019.859375
1003.857422	36116.960938
1002.708984	36709.265625
1001.560547	36664.429688
1000.412109	37070.238281
999.263672	37277.062500
998.114258	37202.531250
996.965820	37417.710938
995.816406	37275.527344
994.666016	36905.113281
993.516602	37141.355469
992.366211	37088.042969
991.215820	36574.210938
990.065430	36808.265625
988.915039	36942.984375
987.763672	36948.855469
986.613281	37208.039063
985.461914	37139.984375
984.309570	36991.765625
983.158203	37248.683594
982.005859	37102.609375
980.854492	37239.195313
979.701172	37057.320313
978.548828	37324.574219
977.396484	37513.734375
976.243164	36963.097656
975.089844	37129.074219
973.936523	37183.332031
972.783203	36793.136719
971.628906	37068.554688
970.474609	37196.484375
969.320313	36478.093750
968.166016	36820.765625
967.010742	36734.015625
965.856445	37017.601563
964.701172	36968.710938
963.545898	37104.917969
962.390625	36843.640625
961.234375	36706.500000
960.078125	37170.597656
958.921875	36953.582031
957.765625	37119.074219
956.609375	37156.351563
955.452148	36834.429688
954.294922	37106.957031
953.137695	37156.808594
951.980469	37187.750000
950.822266	37233.367188
949.665039	36844.562500
948.506836	37381.199219
947.347656	36772.238281
946.189453	36945.835938
945.030273	37291.324219
943.872070	37196.386719
942.712891	37340.457031
941.552734	37295.843750
940.393555	37027.031250
939.233398	37594.253906
938.073242	37126.484375
936.913086	37255.765625
935.752930	37146.292969
934.591797	37606.296875
933.430664	37664.246094
932.269531	37540.101563
931.108398	38020.699219
929.947266	37722.894531
928.785156	37971.109375
927.623047	38024.746094
926.460938	37476.199219
925.298828	37655.332031
924.135742	37834.398438
922.972656	38209.824219
921.810547	38018.910156
920.646484	37984.734375
919.483398	37892.093750
918.319336	37857.949219
917.155273	38212.140625
915.991211	38480.613281
914.827148	38467.246094
913.662109	38351.636719
912.498047	38987.105469
911.333008	39144.683594
910.167969	38922.652344
909.001953	39196.945313
907.836914	39456.539063
906.670898	38982.371094
905.504883	39214.816406
904.337891	39359.664063
903.171875	39429.464844
902.004883	39424.261719
900.837891	39040.066406
899.670898	38768.441406
898.503906	39248.367188
897.335938	38398.222656
896.167969	38844.742188
895.000000	38706.492188
893.832031	38745.097656
892.663086	38787.843750
891.495117	39154.941406
890.326172	38885.761719
889.156250	39065.632813
887.987305	39181.019531
886.817383	39526.988281
885.648438	39384.648438
884.478516	39684.753906
883.307617	39997.207031
882.137695	40182.894531
880.966797	40100.730469
879.795898	40066.328125
878.625000	40444.875000
877.454102	40256.894531
876.282227	40170.621094
875.110352	40067.785156
873.938477	40031.339844
872.766602	40036.367188
871.593750	39900.445313
870.421875	40087.863281
869.249023	40163.320313
868.076172	39967.367188
866.902344	39893.687500
865.729492	40352.238281
864.555664	40290.933594
863.381836	40558.792969
862.207031	40418.820313
861.033203	41228.707031
859.858398	41512.785156
858.683594	41120.351563
857.508789	40754.941406
856.333984	41001.726563
855.158203	40764.652344
853.982422	40575.203125
852.806641	40365.156250
851.630859	40002.281250
850.454102	40306.812500
849.278320	40547.199219
848.101563	40868.031250
846.924805	40639.531250
845.747070	40619.613281
844.570313	41291.117188
843.392578	41031.710938
842.214844	41094.250000
841.036133	41332.101563
839.858398	41769.917969
838.679688	41774.542969
837.500977	42344.058594
836.322266	42674.250000
835.143555	42765.257813
833.963867	42876.832031
832.784180	42914.203125
831.604492	42545.789063
830.424805	42218.695313
829.244141	41401.691406
828.063477	41466.058594
826.882813	40956.164063
825.702148	40942.390625
824.521484	40626.175781
823.339844	40166.082031
822.158203	40448.621094
820.976563	40235.484375
819.794922	40168.394531
818.612305	40477.488281
817.430664	39947.964844
816.248047	39967.261719
815.064453	39910.535156
813.881836	40556.296875
812.698242	40033.308594
811.514648	39859.558594
810.331055	40067.707031
809.147461	40084.894531
807.962891	40219.042969
806.778320	39690.437500
805.593750	40321.031250
804.409180	40295.082031
803.224609	40275.292969
802.039063	39921.324219
800.853516	39760.171875
799.667969	40201.609375
798.482422	39919.566406
797.295898	39334.421875
796.109375	39277.953125
794.922852	39246.078125
793.736328	39257.210938
792.548828	39161.886719
791.362305	39287.644531
790.174805	39175.976563
788.986328	39541.062500
787.798828	38885.250000
786.610352	38992.550781
785.421875	38934.179688
784.233398	38957.605469
783.044922	38968.757813
781.856445	38853.191406
780.666992	38948.132813
779.477539	38703.902344
778.288086	38723.257813
777.097656	38530.210938
775.907227	38463.832031
774.717773	38542.414063
773.526367	38510.750000
772.335938	38385.222656
771.144531	38659.640625
769.954102	38950.277344
768.762695	38781.902344
767.570313	38815.464844
766.378906	39114.058594
765.186523	38697.058594
763.994141	39001.671875
762.801758	39202.250000
761.609375	39626.851563
760.416016	39263.015625
759.222656	39658.933594
758.029297	40042.484375
756.835938	39776.488281
755.641602	40202.613281
754.447266	39987.554688
753.252930	39951.621094
752.058594	39842.468750
750.864258	40044.531250
749.668945	39884.558594
748.473633	39761.242188
747.278320	39398.109375
746.083008	39396.863281
744.886719	39155.843750
743.690430	39075.410156
742.494141	39257.031250
741.297852	39182.695313
740.100586	38744.937500
738.904297	38981.320313
737.707031	38734.550781
736.509766	38510.195313
735.311523	38770.832031
734.113281	38948.203125
732.916016	38620.488281
731.716797	38672.089844
730.518555	38449.972656
729.320313	38574.558594
728.121094	38524.804688
726.921875	38556.117188
725.721680	38739.359375
724.522461	38367.535156
723.322266	38415.058594
722.122070	38304.625000
720.921875	38757.015625
719.721680	38440.109375
718.520508	38698.031250
717.319336	38530.972656
716.118164	38485.347656
714.916992	38741.089844
713.714844	38727.789063
712.513672	38562.863281
711.311523	38937.703125
710.108398	38536.339844
708.906250	38783.742188
707.703125	39045.191406
706.500000	38700.585938
705.296875	39085.136719
704.093750	38835.546875
702.889648	39393.535156
701.685547	39396.269531
700.481445	39261.777344
699.277344	39327.078125
698.072266	39406.472656
696.868164	39399.109375
695.663086	39615.574219
694.457031	39987.199219
693.251953	39893.050781
692.045898	39937.992188
690.839844	40335.539063
689.633789	40334.042969
688.427734	40749.488281
687.220703	40467.988281
686.013672	40361.765625
684.806641	40239.472656
683.599609	40258.113281
682.391602	40121.796875
681.184570	39951.328125
679.976563	39569.703125
678.767578	39554.257813
677.559570	39760.007813
676.350586	39171.554688
675.141602	39560.210938
673.932617	39516.636719
672.723633	39081.257813
671.513672	39672.613281
670.303711	39643.093750
669.093750	39436.867188
667.883789	39351.183594
666.672852	39412.070313
665.462891	38923.000000
664.251953	39188.625000
663.040039	39391.953125
661.829102	38981.386719
660.617188	39148.574219
659.405273	39113.171875
658.193359	39550.917969
656.981445	39070.464844
655.768555	38774.566406
654.555664	39272.234375
653.342773	39140.675781
652.129883	39459.824219
650.916016	39440.417969
649.702148	39567.175781
648.488281	39820.000000
647.274414	39916.617188
646.059570	40187.285156
644.845703	40127.738281
643.630859	40546.285156
642.416016	40854.679688
641.200195	40903.011719
639.984375	40851.363281
638.769531	40597.855469
637.552734	40628.214844
636.336914	40586.632813
635.120117	40579.027344
633.904297	40611.367188
632.687500	40238.312500
631.469727	40312.628906
630.252930	39975.699219
629.035156	39978.183594
627.817383	39773.136719
626.599609	40058.953125
625.380859	39564.734375
624.163086	40004.042969
622.944336	39809.109375
621.724609	39771.738281
620.505859	39539.046875
619.286133	39726.925781
618.066406	40064.164063
616.846680	39749.867188
615.626953	39513.363281
614.406250	39838.500000
613.186523	39789.214844
611.965820	39972.843750
610.744141	39770.300781
609.523438	39908.093750
608.301758	39639.984375
607.080078	39743.933594
605.858398	39452.085938
604.635742	40144.574219
603.414063	40137.035156
602.191406	40044.031250
600.968750	40171.644531
599.745117	40740.285156
598.522461	40112.855469
597.298828	40478.707031
596.075195	40038.214844
594.850586	40529.019531
593.626953	40412.230469
592.402344	40620.960938
591.177734	40851.437500
589.953125	41016.359375
588.727539	41278.406250
587.501953	41383.687500
586.276367	41189.531250
585.050781	41778.484375
583.825195	41949.011719
582.598633	42143.253906
581.372070	42240.339844
580.145508	42345.308594
578.917969	42753.253906
577.691406	42986.792969
576.463867	43067.800781
575.236328	43127.000000
574.007813	42895.261719
572.780273	43381.855469
571.551758	43128.390625
570.323242	43407.074219
569.094727	43179.406250
567.865234	42414.031250
566.635742	42651.171875
565.406250	42220.195313
564.176758	42137.160156
562.947266	41613.582031
561.716797	41382.542969
560.486328	41828.988281
559.255859	41112.253906
558.024414	41337.468750
556.793945	40903.343750
555.562500	40921.300781
554.331055	40672.882813
553.098633	40633.660156
551.867188	40391.304688
550.634766	40103.683594
549.402344	40320.890625
548.168945	40394.117188
546.936523	40234.757813
545.703125	40183.828125
544.469727	40192.843750
543.236328	40201.859375
542.001953	40210.882813
540.767578	40219.906250
539.533203	40228.929688
538.298828	40237.953125
537.064453	40246.976563
535.829102	40558.125000
534.593750	40682.281250
533.358398	40723.785156
532.122070	40698.410156
530.886719	40370.281250
529.650391	40557.269531
528.414063	40510.320313
527.176758	40598.960938
525.940430	40514.691406
524.703125	40884.171875
523.465820	40774.347656
522.227539	40652.781250
520.990234	41025.945313
519.751953	40560.902344
518.513672	40886.847656
517.275391	40998.816406
516.036133	41000.890625
514.796875	41159.859375
513.557617	41354.058594
512.318359	41322.730469
511.079102	41575.628906
509.838867	41068.054688
508.598633	40932.945313
507.358398	41352.281250
506.117188	40745.140625
504.876953	40668.910156
503.635742	40792.410156
502.394531	41094.000000
501.152344	40751.570313
499.911133	40841.714844
498.668945	40810.527344
497.425781	40924.097656
496.183594	40994.593750
494.941406	40926.238281
493.698242	41020.167969
492.455078	41139.464844
491.210938	40979.269531
489.967773	41248.972656
488.723633	41381.828125
487.479492	40938.472656
486.235352	41317.375000
484.990234	41610.230469
483.745117	41647.261719
482.500000	41510.589844
481.254883	41559.328125
480.008789	41629.511719
478.763672	41730.871094
477.517578	41689.832031
476.271484	41882.777344
475.024414	42108.785156
473.777344	42383.433594
472.530273	42184.453125
471.283203	42256.355469
470.036133	41829.562500
468.788086	41813.863281
467.540039	42039.617188
466.291992	42317.847656
465.043945	42420.792969
463.794922	42307.679688
462.545898	42801.671875
461.296875	42600.984375
460.047852	43131.683594
458.797852	43039.906250
457.547852	42880.109375
456.297852	43169.410156
455.047852	43025.195313
453.796875	43605.820313
452.545898	43875.382813
451.294922	43878.734375
450.043945	43707.296875
448.792969	44250.457031
447.541016	44278.964844
446.289063	44814.039063
445.036133	45189.785156
443.784180	45318.984375
442.531250	45558.699219
441.278320	45296.003906
440.025391	44915.121094
438.771484	44478.156250
437.518555	44562.773438
436.264648	43337.273438
435.010742	43307.750000
433.755859	42937.281250
432.500977	42989.187500
431.246094	42953.933594
429.991211	43044.539063
428.736328	42463.386719
427.480469	42255.992188
426.224609	42102.855469
424.968750	42284.476563
423.712891	42183.613281
422.456055	42156.277344
421.199219	41864.046875
419.942383	42177.027344
418.685547	42304.328125
417.427734	41992.906250
416.169922	41971.421875
414.912109	42135.386719
413.654297	41972.886719
412.395508	41860.648438
411.136719	42105.625000
409.877930	41852.492188
408.619141	42120.531250
407.359375	41765.222656
406.099609	41954.074219
404.839844	41969.261719
403.580078	42098.218750
402.319336	42042.027344
401.059570	41663.925781
