#Wave		#Intensity
2001.242188	29007.998047
2000.272461	28872.646484
1999.302734	28752.326172
1998.333008	28536.832031
1997.363281	28589.470703
1996.392578	28669.640625
1995.422852	29102.894531
1994.452148	28592.025391
1993.481445	29210.394531
1992.510742	28717.205078
1991.540039	28907.392578
1990.568359	28809.763672
1989.596680	28509.529297
1988.625977	28852.228516
1987.654297	28397.037109
1986.681641	28697.126953
1985.709961	28649.615234
1984.738281	29019.539063
1983.765625	28819.541016
1982.792969	28617.111328
1981.820313	28634.595703
1980.847656	28537.173828
1979.874023	28786.917969
1978.901367	28961.664063
1977.927734	28846.759766
1976.954102	28534.705078
1975.980469	28938.996094
1975.006836	28412.449219
1974.032227	28584.609375
1973.058594	28402.517578
1972.083984	28696.816406
1971.109375	28624.476563
1970.134766	28806.447266
1969.160156	28666.812500
1968.184570	28345.302734
1967.209961	28554.630859
1966.234375	28402.654297
1965.258789	28636.804688
1964.283203	28920.681641
1963.306641	28537.152344
1962.331055	28502.289063
1961.354492	28440.054688
1960.377930	28462.455078
1959.401367	28987.462891
1958.424805	28574.398438
1957.447266	28708.691406
1956.470703	28979.712891
1955.493164	28549.458984
1954.515625	28576.783203
1953.538086	28614.037109
1952.560547	28447.496094
1951.582031	28688.505859
1950.604492	28519.523438
1949.625977	28653.626953
1948.647461	28842.318359
1947.668945	28839.753906
1946.689453	28633.619141
1945.710938	28412.664063
1944.731445	28606.224609
1943.751953	28434.974609
1942.772461	28603.652344
1941.792969	28668.095703
1940.813477	28618.437500
1939.833008	28467.136719
1938.852539	28362.988281
1937.873047	28806.654297
1936.891602	28315.882813
1935.911133	28239.070313
1934.930664	28457.083984
1933.949219	28642.820313
1932.967773	28692.285156
1931.986328	28338.140625
1931.004883	28796.113281
1930.023438	28528.701172
1929.041016	28390.068359
1928.059570	28154.984375
1927.077148	28775.939453
1926.094727	28268.791016
1925.112305	28308.351563
1924.128906	28451.746094
1923.146484	28513.505859
1922.163086	28246.509766
1921.179688	28145.181641
1920.196289	28350.267578
1919.212891	28705.976563
1918.228516	28476.179688
1917.245117	28609.480469
1916.260742	28727.919922
1915.276367	28009.441406
1914.291992	28357.486328
1913.307617	28350.046875
1912.322266	28382.087891
1911.336914	28061.343750
1910.352539	28500.392578
1909.367188	28310.439453
1908.380859	28290.681641
1907.395508	28261.068359
1906.409180	28364.560547
1905.423828	28396.550781
1904.437500	28702.021484
1903.451172	28411.224609
1902.463867	28512.150391
1901.477539	28509.611328
1900.490234	28295.324219
1899.503906	28337.132813
1898.516602	28482.302734
1897.528320	28509.294922
1896.541016	28479.687500
1895.553711	28518.970703
1894.565430	28464.773438
1893.577148	28454.861328
1892.588867	28408.068359
1891.600586	28550.580078
1890.611328	28292.408203
1889.623047	28090.847656
1888.633789	28375.841797
1887.644531	28272.597656
1886.655273	28439.564453
1885.666016	28324.064453
1884.675781	28432.033203
1883.686523	28503.140625
1882.696289	28073.523438
1881.706055	28448.958984
1880.715820	28061.208984
1879.724609	28733.341797
1878.734375	27985.130859
1877.743164	28218.083984
1876.751953	28259.712891
1875.760742	28443.505859
1874.769531	28423.802734
1873.778320	28075.736328
1872.786133	28198.208984
1871.793945	28323.085938
1870.801758	28117.271484
1869.809570	28643.722656
1868.817383	28207.775391
1867.824219	28337.455078
1866.832031	28308.000000
1865.838867	28408.250000
1864.845703	28214.863281
1863.851563	28332.214844
1862.858398	28486.212891
1861.865234	28058.156250
1860.871094	28375.955078
1859.876953	28395.412109
1858.882813	28512.623047
1857.887695	28351.216797
1856.893555	28077.478516
1855.898438	28272.849609
1854.904297	28563.402344
1853.909180	28336.164063
1852.913086	28167.599609
1851.917969	28367.697266
1850.922852	28299.250000
1849.926758	28269.871094
1848.930664	28081.914063
1847.934570	28081.851563
1846.938477	28308.609375
1845.941406	28223.160156
1844.945313	28279.146484
1843.948242	28325.359375
1842.951172	28522.664063
1841.954102	28619.990234
1840.956055	28173.974609
1839.958984	28587.994141
1838.960938	28115.347656
1837.962891	28521.925781
1836.964844	28492.560547
1835.966797	28446.162109
1834.968750	28268.357422
1833.969727	28669.750000
1832.970703	28275.435547
1831.971680	28494.248047
1830.972656	28817.558594
1829.973633	28211.871094
1828.973633	28447.591797
1827.974609	28916.585938
1826.974609	28155.654297
1825.974609	28539.482422
1824.974609	28422.699219
1823.973633	28262.232422
1822.973633	28546.263672
1821.972656	28402.826172
1820.971680	28509.501953
1819.970703	28293.298828
1818.968750	28290.742188
1817.967773	28875.398438
1816.965820	28404.503906
1815.964844	28317.027344
1814.961914	28556.984375
1813.959961	28629.544922
1812.958008	28408.730469
1811.955078	28352.822266
1810.953125	28389.023438
1809.950195	28740.214844
1808.947266	28461.388672
1807.943359	28814.861328
1806.940430	28761.345703
1805.936523	28862.816406
1804.932617	28453.427734
1803.928711	28717.089844
1802.924805	28588.601563
1801.920898	28540.005859
1800.916016	28733.351563
1799.911133	28440.445313
1798.907227	28420.919922
1797.901367	28652.867188
1796.896484	28848.468750
1795.891602	28642.761719
1794.885742	28480.623047
1793.879883	28688.230469
1792.874023	28941.664063
1791.868164	28540.431641
1790.862305	28830.023438
1789.855469	28639.015625
1788.848633	29227.837891
1787.842773	28570.980469
1786.834961	28939.998047
1785.828125	28867.330078
1784.821289	28862.236328
1783.813477	28881.261719
1782.805664	28753.173828
1781.797852	28834.900391
1780.790039	28899.720703
1779.782227	29039.236328
1778.773438	28694.318359
1777.764648	28751.898438
1776.755859	28843.183594
1775.747070	28845.316406
1774.738281	29189.406250
1773.729492	28929.031250
1772.719727	29046.695313
1771.709961	29178.759766
1770.700195	28976.275391
1769.690430	28879.728516
1768.680664	29153.679688
1767.669922	29126.882813
1766.659180	28912.521484
1765.648438	29015.609375
1764.637695	28919.134766
1763.626953	29601.425781
1762.615234	28966.589844
1761.604492	29665.447266
1760.592773	29227.806641
1759.581055	29385.962891
1758.569336	29095.005859
1757.556641	29745.322266
1756.544922	29466.406250
1755.532227	29446.796875
1754.519531	29760.748047
1753.506836	29381.205078
1752.494141	29524.738281
1751.480469	29373.216797
1750.466797	29514.300781
1749.454102	29640.947266
1748.440430	29964.113281
1747.425781	29695.177734
1746.412109	29658.773438
1745.397461	29660.716797
1744.383789	29849.501953
1743.369141	29896.912109
1742.353516	29673.716797
1741.338867	30053.927734
1740.324219	29579.439453
1739.308594	30174.929688
1738.292969	29911.158203
1737.277344	30023.097656
1736.261719	30237.853516
1735.245117	30328.169922
1734.229492	30069.335938
1733.212891	30647.363281
1732.196289	30668.234375
1731.179688	30626.958984
1730.162109	30817.476563
1729.145508	30780.964844
1728.127930	30995.273438
1727.110352	31190.398438
1726.092773	30974.750000
1725.075195	30940.617188
1724.056641	31319.443359
1723.039063	31275.712891
1722.020508	31341.759766
1721.001953	31391.080078
1719.983398	31628.820313
1718.963867	31694.765625
1717.945313	31956.208984
1716.925781	31657.316406
1715.906250	31837.628906
1714.886719	31874.886719
1713.867188	32300.517578
1712.846680	32130.416016
1711.826172	32117.578125
1710.806641	32273.830078
1709.786133	32122.867188
1708.764648	32267.156250
1707.744141	32473.277344
1706.722656	32284.279297
1705.701172	32430.837891
1704.679688	32415.576172
1703.658203	32512.107422
1702.636719	32827.390625
1701.614258	32612.333984
1700.592773	32506.708984
1699.570313	32557.990234
1698.547852	32656.781250
1697.524414	32964.625000
1696.501953	32616.697266
1695.478516	32912.558594
1694.456055	32783.238281
1693.432617	32912.761719
1692.408203	32966.726563
1691.384766	33020.640625
1690.360352	33074.605469
1689.336914	33128.519531
1688.312500	33182.484375
1687.288086	33178.968750
1686.262695	33462.390625
1685.238281	33285.746094
1684.212891	33810.839844
1683.187500	33420.886719
1682.162109	33777.519531
1681.136719	33589.089844
1680.110352	33945.562500
1679.084961	34081.644531
1678.058594	33763.019531
1677.032227	33960.640625
1676.005859	33883.601563
1674.978516	34026.691406
1673.952148	34025.382813
1672.924805	34218.078125
1671.897461	34514.789063
1670.870117	34059.296875
1669.842773	34552.191406
1668.814453	34659.539063
1667.787109	34497.375000
1666.758789	34285.636719
1665.730469	34463.859375
1664.701172	34493.175781
1663.672852	34569.726563
1662.643555	34785.585938
1661.615234	34897.472656
1660.585938	34343.550781
1659.555664	35076.273438
1658.526367	35013.402344
1657.497070	34804.253906
1656.466797	35008.039063
1655.436523	34999.460938
1654.406250	35245.585938
1653.375977	34904.496094
1652.344727	34587.101563
1651.313477	35090.089844
1650.282227	34834.042969
1649.250977	34862.886719
1648.219727	34891.730469
1647.188477	34920.570313
1646.156250	34949.441406
1645.124023	34978.312500
1644.091797	35007.183594
1643.059570	35036.054688
1642.027344	35064.921875
1640.994141	35093.820313
1639.961914	35122.691406
1638.928711	34996.492188
1637.895508	35070.222656
1636.861328	35127.468750
1635.828125	35408.023438
1634.793945	35380.570313
1633.759766	34986.531250
1632.725586	35283.402344
1631.691406	35385.187500
1630.656250	35888.566406
1629.622070	35367.902344
1628.586914	35338.128906
1627.551758	35932.796875
1626.516602	35860.683594
1625.480469	36272.003906
1624.445313	35951.156250
1623.409180	36693.070313
1622.373047	36501.253906
1621.336914	36548.691406
1620.300781	36778.988281
1619.263672	37454.582031
1618.227539	37070.578125
1617.190430	37961.460938
1616.153320	38313.164063
1615.115234	38985.660156
1614.078125	39365.156250
1613.040039	39784.324219
1612.001953	39936.441406
1610.963867	40156.386719
1609.925781	40247.531250
1608.887695	39608.574219
1607.848633	39634.273438
1606.809570	38916.117188
1605.770508	38771.203125
1604.731445	38137.632813
1603.692383	37588.449219
1602.652344	37282.558594
1601.613281	36471.968750
1600.573242	36311.253906
1599.533203	35991.730469
1598.492188	35950.281250
1597.452148	35532.847656
1596.411133	35307.027344
1595.370117	35629.906250
1594.329102	35250.093750
1593.288086	35015.109375
1592.247070	35174.531250
1591.205078	34594.371094
1590.163086	34581.207031
1589.121094	34721.960938
1588.079102	34813.699219
1587.036133	34245.667969
1585.994141	34433.015625
1584.951172	34629.621094
1583.908203	34593.156250
1582.865234	34694.148438
1581.822266	34727.554688
1580.778320	34679.445313
1579.734375	34356.605469
1578.691406	34990.652344
1577.646484	34986.738281
1576.602539	35136.410156
1575.558594	35037.074219
1574.513672	35140.156250
1573.468750	35082.718750
1572.423828	34920.656250
1571.378906	34923.726563
1570.333008	34768.718750
1569.288086	34841.535156
1568.242188	34465.843750
1567.196289	34696.671875
1566.150391	33977.339844
1565.103516	33734.378906
1564.057617	33656.375000
1563.010742	33223.175781
1561.963867	33321.703125
1560.916992	33429.476563
1559.869141	33142.734375
1558.822266	33085.777344
1557.774414	33035.792969
1556.726563	32971.914063
1555.678711	33068.054688
1554.630859	33013.460938
1553.582031	32766.498047
1552.534180	32885.792969
1551.485352	32574.058594
1550.436523	32369.003906
1549.386719	32622.644531
1548.337891	32683.976563
1547.288086	32203.468750
1546.238281	32632.943359
1545.188477	32340.097656
1544.138672	32577.312500
1543.088867	32446.544922
1542.038086	32392.164063
1540.987305	32254.535156
1539.936523	32371.335938
1538.885742	32529.712891
1537.834961	32380.570313
1536.783203	32347.044922
1535.731445	32230.337891
1534.679688	32243.060547
1533.627930	32399.001953
1532.576172	32522.550781
1531.523438	32431.292969
1530.471680	32554.789063
1529.418945	32592.826172
1528.366211	32321.574219
1527.312500	32269.642578
1526.259766	32409.224609
1525.206055	32431.107422
1524.152344	32252.328125
1523.098633	32371.080078
1522.044922	32266.150391
1520.990234	32495.501953
1519.936523	32215.425781
1518.881836	32241.921875
1517.827148	32192.378906
1516.772461	31900.984375
1515.716797	31920.609375
1514.662109	31829.699219
1513.606445	31833.210938
1512.550781	31422.388672
1511.495117	31916.173828
1510.438477	31988.695313
1509.382813	31831.128906
1508.326172	31793.228516
1507.269531	31833.531250
1506.212891	31409.345703
1505.155273	31385.330078
1504.098633	31595.773438
1503.041016	31679.742188
1501.983398	31315.625000
1500.925781	31500.693359
1499.867188	31568.550781
1498.809570	31475.630859
1497.750977	31534.283203
1496.692383	31691.625000
1495.633789	31323.298828
1494.575195	31737.642578
1493.515625	31658.533203
1492.457031	31572.570313
1491.397461	31447.646484
1490.337891	31529.152344
1489.277344	31867.419922
1488.217773	31996.958984
1487.157227	31576.378906
1486.096680	31657.796875
1485.036133	31661.287109
1483.975586	31731.207031
1482.915039	31526.259766
1481.853516	31728.990234
1480.791992	31631.720703
1479.730469	31509.306641
1478.668945	31723.369141
1477.606445	31431.648438
1476.544922	31382.541016
1475.482422	31557.621094
1474.419922	31430.750000
1473.357422	31916.736328
1472.293945	32068.761719
1471.231445	31861.857422
1470.167969	31968.126953
1469.104492	31918.976563
1468.041016	31783.029297
1466.976563	31971.480469
1465.913086	32036.541016
1464.848633	32414.394531
1463.784180	31792.185547
1462.719727	32240.703125
1461.655273	32351.304688
1460.589844	32076.255859
1459.524414	32013.466797
1458.458984	32023.687500
1457.393555	32503.681641
1456.328125	32276.679688
1455.261719	32644.748047
1454.196289	32554.556641
1453.129883	32418.816406
1452.063477	32786.660156
1450.996094	32290.996094
1449.929688	32610.896484
1448.862305	32406.923828
1447.794922	32583.246094
1446.727539	32677.554688
1445.660156	32416.777344
1444.591797	32866.066406
1443.524414	33005.773438
1442.456055	33498.015625
1441.387695	33130.375000
1440.318359	33442.777344
1439.250000	34043.796875
1438.180664	33796.730469
1437.111328	34186.109375
1436.041992	34095.890625
1434.972656	33846.671875
1433.903320	33976.875000
1432.833008	34122.929688
1431.762695	34586.828125
1430.692383	34834.878906
1429.622070	34635.679688
1428.550781	34488.746094
1427.480469	35176.871094
1426.409180	35072.996094
1425.337891	35127.929688
1424.266602	35160.167969
1423.194336	35360.179688
1422.122070	35557.847656
1421.050781	35521.988281
1419.978516	35943.906250
1418.905273	35663.285156
1417.833008	35881.140625
1416.759766	35806.738281
1415.687500	35370.031250
1414.614258	35556.121094
1413.540039	34958.886719
1412.466797	34699.105469
1411.392578	35018.722656
1410.319336	34867.617188
1409.245117	34727.878906
1408.169922	34983.988281
1407.095703	34733.472656
1406.020508	35371.570313
1404.946289	35005.789063
1403.871094	35623.265625
1402.794922	35897.054688
1401.719727	35542.664063
1400.643555	35687.609375
1399.568359	35665.375000
1398.492188	35943.464844
1397.415039	35370.328125
1396.338867	35616.765625
1395.261719	35808.953125
1394.185547	35003.734375
1393.108398	35362.902344
1392.031250	35559.535156
1390.953125	35332.121094
1389.875977	35562.511719
1388.797852	35777.031250
1387.719727	35921.605469
1386.641602	36081.894531
1385.562500	36287.191406
1384.484375	36082.410156
1383.405273	36150.234375
1382.326172	35718.105469
1381.247070	35673.390625
1380.166992	35684.968750
1379.087891	35658.281250
1378.007813	35629.351563
1376.927734	35879.417969
1375.847656	35495.031250
1374.767578	34775.667969
1373.686523	34688.445313
1372.605469	34742.894531
1371.524414	34473.625000
1370.443359	34557.308594
1369.362305	34658.937500
1368.280273	34430.265625
1367.199219	34291.527344
1366.117188	34402.125000
1365.034180	34238.738281
1363.952148	34632.183594
1362.870117	34426.160156
1361.787109	34426.683594
1360.704102	34714.414063
1359.621094	35028.960938
1358.537109	34468.613281
1357.454102	34688.898438
1356.370117	34303.703125
1355.286133	34364.769531
1354.202148	34047.007813
1353.118164	34199.976563
1352.033203	33671.742188
1350.948242	33629.820313
1349.863281	33514.000000
1348.778320	33223.550781
1347.693359	33387.714844
1346.607422	33424.218750
1345.521484	33462.945313
1344.435547	33188.371094
1343.349609	33128.683594
1342.263672	33120.460938
1341.176758	33340.375000
1340.090820	33341.058594
1339.003906	33471.417969
1337.916016	33192.660156
1336.829102	33466.031250
1335.741211	33046.597656
1334.654297	33431.601563
1333.566406	33450.132813
1332.478516	33642.855469
1331.389648	33509.496094
1330.301758	34182.128906
1329.212891	34073.273438
1328.124023	34225.566406
1327.035156	34315.328125
1325.945313	33961.105469
1324.856445	34273.929688
1323.766602	34069.253906
1322.676758	34807.812500
1321.586914	34415.851563
1320.496094	34862.097656
1319.406250	35194.523438
1318.315430	34853.945313
1317.224609	35905.792969
1316.133789	35934.937500
1315.041992	36253.562500
1313.951172	37142.046875
1312.859375	36776.933594
1311.767578	36883.789063
1310.675781	37137.472656
1309.583008	36959.441406
1308.491211	36654.675781
1307.398438	36292.195313
1306.305664	36023.238281
1305.212891	36176.792969
1304.119141	35630.093750
1303.026367	36014.796875
1301.932617	36159.378906
1300.838867	36799.335938
1299.744141	36845.984375
1298.650391	37223.519531
1297.555664	37578.714844
1296.461914	38084.738281
1295.366211	38093.382813
1294.271484	38608.007813
1293.176758	38445.699219
1292.081055	38225.765625
1290.985352	37686.519531
1289.889648	37291.609375
1288.793945	37018.789063
1287.697266	36497.781250
1286.601563	36234.066406
1285.504883	36074.597656
1284.408203	35633.800781
1283.311523	35013.730469
1282.213867	35169.070313
1281.116211	35076.335938
1280.018555	34509.835938
1278.920898	34268.941406
1277.823242	34295.929688
1276.725586	34362.738281
1275.626953	34137.480469
1274.528320	33865.851563
1273.429688	33830.964844
1272.330078	33798.296875
1271.231445	33562.246094
1270.131836	33377.121094
1269.032227	33273.828125
1267.932617	33133.011719
1266.833008	32868.527344
1265.732422	33178.425781
1264.632813	32869.859375
1263.532227	33040.539063
1262.430664	32747.558594
1261.330078	32529.728516
1260.228516	32532.656250
1259.127930	32564.263672
1258.026367	32642.185547
1256.924805	32245.873047
1255.822266	32387.771484
1254.720703	32386.304688
1253.618164	32353.976563
1252.515625	32517.814453
1251.413086	32271.720703
1250.309570	32142.486328
1249.207031	32094.798828
1248.103516	32251.953125
1247.000000	32149.210938
1245.895508	32319.503906
1244.791992	32344.455078
1243.687500	32345.185547
1242.583008	31941.041016
1241.478516	32157.441406
1240.374023	32246.187500
1239.269531	32475.646484
1238.164063	32311.435547
1237.058594	32037.363281
1235.953125	32537.085938
1234.847656	32177.363281
1233.741211	32520.875000
1232.635742	32589.658203
1231.529297	32346.527344
1230.422852	32724.953125
1229.315430	32593.859375
1228.208984	32873.316406
1227.101563	33053.902344
1225.994141	33227.835938
1224.886719	32837.847656
1223.779297	33204.796875
1222.670898	32961.894531
1221.562500	33129.136719
1220.454102	33204.234375
1219.345703	32906.660156
1218.237305	32983.960938
1217.127930	33116.011719
1216.018555	32890.910156
1214.909180	32503.794922
1213.799805	32771.636719
1212.690430	32778.816406
1211.580078	32626.179688
1210.469727	32604.923828
1209.359375	32736.867188
1208.249023	32663.083984
1207.138672	32722.771484
1206.027344	32603.083984
1204.916016	32962.355469
1203.804688	33155.328125
1202.693359	33123.062500
1201.581055	33058.023438
1200.469727	33113.199219
1199.357422	32563.142578
1198.245117	32808.429688
1197.131836	33280.769531
1196.019531	33108.753906
1194.906250	33305.773438
1193.792969	33236.410156
1192.679688	33442.058594
1191.566406	33189.398438
1190.452148	33130.996094
1189.337891	32839.214844
1188.223633	32981.539063
1187.109375	32792.371094
1185.995117	32923.746094
1184.879883	32444.757813
1183.764648	32181.693359
1182.649414	32332.712891
1181.534180	32383.464844
1180.418945	32351.429688
1179.302734	32047.191406
1178.186523	32341.824219
1177.070313	32000.687500
1175.954102	32308.275391
1174.837891	32084.777344
1173.720703	32018.011719
1172.603516	31929.515625
1171.486328	31791.025391
1170.369141	31774.359375
1169.250977	31794.660156
1168.132813	31812.775391
1167.015625	31806.978516
1165.896484	32040.205078
1164.778320	31545.539063
1163.660156	31935.123047
1162.541016	32096.527344
1161.421875	31938.679688
1160.302734	32323.630859
1159.182617	31614.470703
1158.063477	31682.492188
1156.943359	31570.394531
1155.823242	31870.521484
1154.703125	31610.937500
1153.582031	31483.730469
1152.461914	31601.574219
1151.340820	31613.152344
1150.219727	31752.601563
1149.097656	31924.505859
1147.976563	32152.675781
1146.854492	31880.363281
1145.732422	32032.652344
1144.610352	32015.980469
1143.488281	32443.146484
1142.365234	32313.839844
1141.243164	31963.828125
1140.120117	32427.550781
1138.996094	32384.851563
1137.873047	32564.964844
1136.750000	32723.382813
1135.625977	32576.861328
1134.501953	32521.189453
1133.377930	32493.636719
1132.252930	32524.443359
1131.127930	32905.269531
1130.003906	32465.039063
1128.878906	32411.591797
1127.752930	32930.433594
1126.627930	32512.027344
1125.501953	32391.677734
1124.375977	32793.683594
1123.250000	32403.580078
1122.124023	32509.853516
1120.997070	32434.884766
1119.871094	32370.726563
1118.744141	32455.378906
1117.617188	32509.814453
1116.489258	32570.697266
1115.362305	32166.037109
1114.234375	32300.218750
1113.106445	32201.675781
1111.978516	32357.339844
1110.849609	32202.826172
1109.721680	32530.687500
1108.592773	32442.931641
1107.463867	32639.328125
1106.333984	32536.519531
1105.205078	32509.054688
1104.075195	32509.562500
1102.945313	32185.292969
1101.815430	32635.302734
1100.685547	32625.033203
1099.554688	32917.871094
1098.424805	32810.832031
1097.293945	32779.042969
1096.162109	32502.337891
1095.031250	32614.537109
1093.899414	32561.320313
1092.768555	32415.787109
1091.636719	32304.656250
1090.503906	32013.257813
1089.372070	32073.929688
1088.239258	32638.826172
1087.106445	32259.560547
1085.973633	32161.423828
1084.840820	32556.570313
1083.708008	32087.468750
1082.574219	32139.476563
1081.440430	32382.224609
1080.306641	31969.128906
1079.171875	32216.101563
1078.038086	32186.638672
1076.903320	32474.171875
1075.768555	32459.658203
1074.633789	32346.662109
1073.498047	32595.474609
1072.363281	32486.771484
1071.227539	32527.898438
1070.091797	32519.798828
1068.956055	32605.822266
1067.819336	32328.236328
1066.682617	32638.779297
1065.546875	33009.066406
1064.409180	32737.968750
1063.272461	32755.476563
1062.135742	32544.349609
1060.998047	32811.835938
1059.860352	32641.353516
1058.722656	32859.601563
1057.583984	32727.605469
1056.446289	32527.341797
1055.307617	32480.826172
1054.168945	32570.898438
1053.029297	32069.935547
1051.890625	32418.164063
1050.750977	32518.859375
1049.611328	32316.714844
1048.471680	32182.867188
1047.332031	32398.654297
1046.191406	32518.453125
1045.051758	32612.638672
1043.911133	32461.785156
1042.769531	32217.261719
1041.628906	32941.832031
1040.487305	32516.316406
1039.346680	32612.537109
1038.205078	32278.763672
1037.062500	32145.154297
1035.920898	32071.167969
1034.778320	32109.955078
1033.635742	32133.837891
1032.493164	32032.246094
1031.350586	32088.023438
1030.207031	32381.867188
1029.063477	31982.726563
1027.919922	32072.480469
1026.776367	32011.351563
1025.632813	32377.210938
1024.488281	32398.875000
1023.343750	32063.792969
1022.199219	31722.464844
1021.054688	32064.751953
1019.910156	32513.027344
1018.764648	32169.677734
1017.619141	32346.214844
1016.473633	32429.357422
1015.327148	32251.623047
1014.181641	32360.195313
1013.035156	32280.050781
1011.888672	32077.003906
1010.742188	31958.794922
1009.594727	32082.164063
1008.448242	32245.738281
1007.300781	32241.929688
1006.153320	32415.998047
1005.005859	32060.701172
1003.857422	32778.753906
1002.708984	32531.457031
1001.560547	33018.511719
1000.412109	32889.734375
999.263672	32841.378906
998.114258	32966.464844
996.965820	32588.253906
995.816406	32783.097656
994.666016	33094.121094
993.516602	33206.382813
992.366211	32974.191406
991.215820	32898.410156
990.065430	32981.070313
988.915039	33038.355469
987.763672	33009.050781
986.613281	33104.304688
985.461914	33003.234375
984.309570	33066.800781
983.158203	33136.667969
982.005859	33012.441406
980.854492	33377.554688
979.701172	33213.261719
978.548828	33546.578125
977.396484	33504.570313
976.243164	33344.554688
975.089844	33688.191406
973.936523	33298.570313
972.783203	33490.433594
971.628906	33044.125000
970.474609	33425.460938
969.320313	33154.054688
968.166016	33013.242188
967.010742	33005.058594
965.856445	33118.906250
964.701172	33297.921875
963.545898	33066.746094
962.390625	33195.234375
961.234375	33067.175781
960.078125	33216.636719
958.921875	33483.730469
957.765625	33578.421875
956.609375	33389.457031
955.452148	33673.171875
954.294922	33606.062500
953.137695	33137.925781
951.980469	33465.613281
950.822266	33524.511719
949.665039	33558.207031
948.506836	33356.886719
947.347656	33409.476563
946.189453	33562.718750
945.030273	33585.886719
943.872070	33495.828125
942.712891	33789.414063
941.552734	33581.980469
940.393555	33936.207031
939.233398	33598.921875
938.073242	33496.367188
936.913086	33557.207031
935.752930	33858.824219
934.591797	33747.898438
933.430664	33770.976563
932.269531	34158.187500
931.108398	34038.894531
929.947266	34072.359375
928.785156	34287.781250
927.623047	34455.023438
926.460938	34250.035156
925.298828	34254.164063
924.135742	33946.871094
922.972656	34164.203125
921.810547	34517.253906
920.646484	34771.992188
919.483398	34425.144531
918.319336	34464.726563
917.155273	34558.570313
915.991211	34769.277344
914.827148	34704.417969
913.662109	34714.703125
912.498047	34852.238281
911.333008	35133.644531
910.167969	35387.832031
909.001953	35593.968750
907.836914	35677.035156
906.670898	35595.406250
905.504883	35778.464844
904.337891	35686.429688
903.171875	35429.859375
902.004883	35167.132813
900.837891	35383.445313
899.670898	35308.199219
898.503906	35389.097656
897.335938	35068.296875
896.167969	35086.781250
895.000000	35240.488281
893.832031	35117.488281
892.663086	34930.066406
891.495117	34771.816406
890.326172	34788.253906
889.156250	35089.441406
887.987305	35055.933594
886.817383	35088.929688
885.648438	35605.933594
884.478516	35005.332031
883.307617	35426.632813
882.137695	35716.976563
880.966797	35349.171875
879.795898	35716.210938
878.625000	35520.773438
877.454102	35804.652344
876.282227	36061.460938
875.110352	36092.117188
873.938477	36243.023438
872.766602	36031.074219
871.593750	36233.750000
870.421875	36361.746094
869.249023	36350.871094
868.076172	36213.628906
866.902344	36362.265625
865.729492	37009.914063
864.555664	36856.058594
863.381836	37002.417969
862.207031	37508.847656
861.033203	37764.699219
859.858398	37575.640625
858.683594	38019.621094
857.508789	37694.082031
856.333984	37608.523438
855.158203	37200.484375
853.982422	37046.832031
852.806641	36944.902344
851.630859	37268.656250
850.454102	36968.398438
849.278320	37345.722656
848.101563	37396.625000
846.924805	37439.246094
845.747070	37238.257813
844.570313	37664.781250
843.392578	37736.214844
842.214844	38267.703125
841.036133	38524.648438
839.858398	38571.125000
838.679688	38834.097656
837.500977	39507.238281
836.322266	39584.421875
835.143555	40059.324219
833.963867	39940.628906
832.784180	39525.316406
831.604492	39466.492188
830.424805	39055.539063
829.244141	38729.152344
828.063477	38293.781250
826.882813	38346.363281
825.702148	37781.578125
824.521484	37832.175781
823.339844	37580.363281
822.158203	37641.257813
820.976563	37410.136719
819.794922	37479.261719
818.612305	37233.863281
817.430664	37483.843750
816.248047	37000.179688
815.064453	37050.832031
813.881836	37107.625000
812.698242	36944.660156
811.514648	36847.457031
810.331055	37230.656250
809.147461	37211.425781
807.962891	36986.992188
806.778320	37402.777344
805.593750	37539.421875
804.409180	37483.222656
803.224609	37611.597656
802.039063	37225.324219
800.853516	36927.335938
799.667969	37193.046875
798.482422	36993.523438
797.295898	37000.988281
796.109375	37033.031250
794.922852	36639.093750
793.736328	36781.750000
792.548828	36605.000000
791.362305	36583.867188
790.174805	36380.613281
788.986328	36684.843750
787.798828	36673.929688
786.610352	36857.320313
785.421875	36584.632813
784.233398	36518.539063
783.044922	36374.792969
781.856445	35983.808594
780.666992	36267.269531
779.477539	36499.546875
778.288086	36249.691406
777.097656	36485.968750
775.907227	35980.976563
774.717773	36458.101563
773.526367	36426.824219
772.335938	36020.074219
771.144531	36554.050781
769.954102	36396.292969
768.762695	36389.519531
767.570313	36138.046875
766.378906	36414.710938
765.186523	36479.273438
763.994141	36761.882813
762.801758	36889.523438
761.609375	37094.531250
760.416016	37348.343750
759.222656	37105.152344
758.029297	37448.457031
756.835938	37685.773438
755.641602	37640.082031
754.447266	37541.496094
753.252930	37760.343750
752.058594	37816.371094
750.864258	37744.242188
749.668945	37253.246094
748.473633	37291.031250
747.278320	37298.312500
746.083008	36927.574219
744.886719	37117.789063
743.690430	37062.113281
742.494141	36646.937500
741.297852	36794.449219
740.100586	36617.031250
738.904297	36687.347656
737.707031	36343.582031
736.509766	36464.652344
735.311523	36545.097656
734.113281	36371.941406
732.916016	36624.765625
731.716797	36838.964844
730.518555	36655.707031
729.320313	36251.570313
728.121094	36398.835938
726.921875	35996.921875
725.721680	36308.273438
724.522461	36293.398438
723.322266	36363.582031
722.122070	36182.664063
720.921875	36206.281250
719.721680	36420.140625
718.520508	36506.433594
717.319336	36303.363281
716.118164	36476.625000
714.916992	36405.093750
713.714844	36628.820313
712.513672	36636.136719
711.311523	36637.382813
710.108398	36620.437500
708.906250	36700.484375
707.703125	37043.132813
706.500000	37072.574219
705.296875	36881.878906
704.093750	37268.714844
702.889648	36853.972656
701.685547	37061.035156
700.481445	37544.480469
699.277344	37238.859375
698.072266	37171.386719
696.868164	37442.765625
695.663086	37625.320313
694.457031	37747.320313
693.251953	37913.617188
692.045898	38152.402344
690.839844	38096.914063
689.633789	38130.085938
688.427734	38259.921875
687.220703	38393.738281
686.013672	37967.761719
684.806641	38127.750000
683.599609	38090.433594
682.391602	37759.324219
681.184570	37937.363281
679.976563	37413.296875
678.767578	37496.800781
677.559570	37256.535156
676.350586	37311.890625
675.141602	37540.089844
673.932617	37466.746094
672.723633	37435.625000
671.513672	37364.335938
670.303711	37293.070313
669.093750	37374.453125
667.883789	37257.031250
666.672852	37135.632813
665.462891	37164.812500
664.251953	37340.464844
663.040039	37361.566406
661.829102	37214.156250
660.617188	37508.023438
659.405273	37270.406250
658.193359	37099.035156
656.981445	37302.554688
655.768555	37341.664063
654.555664	37831.585938
653.342773	37624.167969
652.129883	37567.050781
650.916016	37550.000000
649.702148	37713.152344
648.488281	38322.648438
647.274414	38121.328125
646.059570	38150.207031
644.845703	38469.171875
643.630859	38760.007813
642.416016	38832.746094
641.200195	38579.523438
639.984375	38912.152344
638.769531	39132.726563
637.552734	38797.648438
636.336914	38410.746094
635.120117	38185.796875
633.904297	38256.535156
632.687500	38175.476563
631.469727	37840.882813
630.252930	37632.171875
629.035156	37954.425781
627.817383	37781.687500
626.599609	38025.980469
625.380859	37354.617188
624.163086	37804.308594
622.944336	37306.707031
621.724609	37622.667969
620.505859	37559.800781
619.286133	37947.332031
618.066406	37902.359375
616.846680	37775.722656
615.626953	37945.894531
614.406250	37803.363281
613.186523	38045.140625
611.965820	38336.585938
610.744141	37799.996094
609.523438	37816.781250
608.301758	37942.976563
607.080078	37878.167969
605.858398	38054.019531
604.635742	38166.175781
603.414063	38137.140625
602.191406	38159.792969
600.968750	38331.480469
599.745117	38260.703125
598.522461	38317.082031
597.298828	38250.304688
596.075195	38396.019531
594.850586	38122.769531
593.626953	38480.843750
592.402344	38844.738281
591.177734	38869.187500
589.953125	39012.656250
588.727539	39449.628906
587.501953	39202.257813
586.276367	39795.664063
585.050781	39716.816406
583.825195	40111.699219
582.598633	40672.886719
581.372070	40445.320313
580.145508	40768.527344
578.917969	41168.847656
577.691406	41117.542969
576.463867	41701.761719
575.236328	41676.105469
574.007813	41697.953125
572.780273	41907.761719
571.551758	42038.359375
570.323242	41634.875000
569.094727	41741.738281
567.865234	41105.148438
566.635742	41206.140625
565.406250	41063.992188
564.176758	40919.917969
562.947266	40202.953125
561.716797	40242.796875
560.486328	39848.136719
559.255859	39532.605469
558.024414	39408.687500
556.793945	39032.167969
555.562500	38740.644531
554.331055	39222.675781
553.098633	38822.722656
551.867188	39028.425781
550.634766	38246.097656
549.402344	38830.371094
548.168945	38819.117188
546.936523	38746.769531
545.703125	38477.398438
544.469727	38413.019531
543.236328	38468.816406
542.001953	38693.953125
540.767578	38424.789063
539.533203	38317.152344
538.298828	38733.105469
537.064453	38582.152344
535.829102	38828.691406
534.593750	38732.851563
533.358398	38444.308594
532.122070	38828.375000
530.886719	38826.953125
529.650391	39004.406250
528.414063	38886.996094
527.176758	38753.914063
525.940430	39357.578125
524.703125	39138.027344
523.465820	39230.800781
522.227539	38885.695313
520.990234	39280.789063
519.751953	39318.523438
518.513672	39415.109375
517.275391	39368.437500
516.036133	39557.167969
514.796875	39594.816406
513.557617	40018.730469
512.318359	39548.507813
511.079102	39495.964844
509.838867	39212.191406
508.598633	39490.859375
507.358398	39262.039063
506.117188	39272.257813
504.876953	39370.589844
503.635742	39365.117188
502.394531	39334.199219
501.152344	39009.714844
499.911133	39395.660156
498.668945	39077.156250
497.425781	39261.468750
496.183594	39158.226563
494.941406	39262.285156
493.698242	39424.949219
492.455078	39618.824219
491.210938	39861.476563
489.967773	39429.968750
488.723633	39293.593750
487.479492	39438.511719
486.235352	39559.937500
484.990234	39841.410156
483.745117	39988.085938
482.500000	39806.839844
481.254883	40246.148438
480.008789	39819.109375
478.763672	40057.343750
477.517578	40318.890625
476.271484	40192.335938
475.024414	40321.195313
473.777344	40531.863281
472.530273	40181.234375
471.283203	40775.660156
470.036133	40380.312500
468.788086	40641.441406
467.540039	40363.097656
466.291992	40849.953125
465.043945	40741.011719
463.794922	41124.468750
462.545898	41184.789063
461.296875	41128.363281
460.047852	41114.746094
458.797852	41762.300781
457.547852	41556.085938
456.297852	41800.925781
455.047852	41515.093750
453.796875	41651.031250
452.545898	41897.648438
451.294922	42008.207031
450.043945	41910.921875
448.792969	42520.437500
447.541016	43135.542969
446.289063	43919.273438
445.036133	43361.781250
443.784180	44020.996094
442.531250	44134.867188
441.278320	43922.867188
440.025391	43895.160156
438.771484	43287.781250
437.518555	42820.191406
436.264648	42096.960938
435.010742	42199.433594
433.755859	41402.976563
432.500977	41768.949219
431.246094	41470.558594
429.991211	40963.171875
428.736328	41009.613281
427.480469	40512.179688
426.224609	40663.175781
424.968750	40570.343750
423.712891	40974.664063
422.456055	40721.285156
421.199219	40293.976563
419.942383	40589.855469
418.685547	40829.562500
417.427734	40562.867188
416.169922	40547.449219
414.912109	40251.929688
413.654297	40360.179688
412.395508	40267.558594
411.136719	40312.046875
409.877930	40410.566406
408.619141	40229.207031
407.359375	40192.632813
406.099609	40192.726563
404.839844	40485.996094
403.580078	40341.394531
402.319336	40378.085938
401.059570	40410.902344
