#Wave		#Intensity
2001.242188	24298.240234
2000.272461	24358.396484
1999.302734	24018.330078
1998.333008	23906.394531
1997.363281	24097.626953
1996.392578	24178.582031
1995.422852	24389.734375
1994.452148	24295.333984
1993.481445	24168.421875
1992.510742	24344.419922
1991.540039	23942.257813
1990.568359	23943.080078
1989.596680	24111.517578
1988.625977	24142.324219
1987.654297	24213.132813
1986.681641	23936.359375
1985.709961	24287.173828
1984.738281	23805.519531
1983.765625	24003.787109
1982.792969	24179.498047
1981.820313	24087.835938
1980.847656	23868.818359
1979.874023	24056.943359
1978.901367	23828.017578
1977.927734	23993.613281
1976.954102	23847.146484
1975.980469	23955.279297
1975.006836	23833.820313
1974.032227	24036.716797
1973.058594	23822.996094
1972.083984	23980.931641
1971.109375	23979.232422
1970.134766	23977.533203
1969.160156	23940.939453
1968.184570	23727.416016
1967.209961	24039.710938
1966.234375	23791.365234
1965.258789	24008.886719
1964.283203	23892.621094
1963.306641	23719.126953
1962.331055	23558.140625
1961.354492	23673.496094
1960.377930	23452.843750
1959.401367	23988.679688
1958.424805	23847.658203
1957.447266	23798.712891
1956.470703	23849.261719
1955.493164	23785.414063
1954.515625	23743.962891
1953.538086	23739.808594
1952.560547	23653.644531
1951.582031	23773.742188
1950.604492	23759.644531
1949.625977	23715.744141
1948.647461	23530.304688
1947.668945	23533.636719
1946.689453	23514.621094
1945.710938	23952.320313
1944.731445	23702.443359
1943.751953	23534.531250
1942.772461	23565.142578
1941.792969	23181.521484
1940.813477	23822.244141
1939.833008	23493.259766
1938.852539	23489.146484
1937.873047	23527.169922
1936.891602	23495.789063
1935.911133	23885.638672
1934.930664	23333.966797
1933.949219	23520.599609
1932.967773	23377.798828
1931.986328	23616.355469
1931.004883	23518.146484
1930.023438	23323.437500
1929.041016	23207.990234
1928.059570	23607.234375
1927.077148	23291.390625
1926.094727	23495.078125
1925.112305	23520.636719
1924.128906	23469.537109
1923.146484	23228.099609
1922.163086	23263.576172
1921.179688	23603.005859
1920.196289	23287.542969
1919.212891	23335.339844
1918.228516	23590.595703
1917.245117	23285.177734
1916.260742	23678.621094
1915.276367	23427.603516
1914.291992	23371.664063
1913.307617	23189.884766
1912.322266	23262.306641
1911.336914	23344.570313
1910.352539	23286.214844
1909.367188	23131.701172
1908.380859	23273.117188
1907.395508	23389.830078
1906.409180	23094.884766
1905.423828	23243.623047
1904.437500	23431.730469
1903.451172	23363.570313
1902.463867	23347.156250
1901.477539	23219.929688
1900.490234	23242.939453
1899.503906	23088.695313
1898.516602	23431.689453
1897.528320	23053.525391
1896.541016	23428.388672
1895.553711	23210.255859
1894.565430	23176.667969
1893.577148	22911.929688
1892.588867	23067.724609
1891.600586	22918.636719
1890.611328	22949.023438
1889.623047	23281.664063
1888.633789	22943.423828
1887.644531	22769.894531
1886.655273	22886.246094
1885.666016	22759.443359
1884.675781	23118.828125
1883.686523	23178.593750
1882.696289	23181.886719
1881.706055	23187.632813
1880.715820	22965.193359
1879.724609	23027.394531
1878.734375	22861.472656
1877.743164	22629.398438
1876.751953	22882.865234
1875.760742	22883.748047
1874.769531	22980.216797
1873.778320	22895.312500
1872.786133	22874.138672
1871.793945	23154.281250
1870.801758	22542.802734
1869.809570	22675.974609
1868.817383	22694.025391
1867.824219	23018.062500
1866.832031	22546.541016
1865.838867	22806.863281
1864.845703	22981.460938
1863.851563	23033.685547
1862.858398	22638.308594
1861.865234	22729.699219
1860.871094	23041.099609
1859.876953	23071.271484
1858.882813	23118.541016
1857.887695	22784.583984
1856.893555	22885.636719
1855.898438	22950.009766
1854.904297	22826.298828
1853.909180	22971.242188
1852.913086	22762.117188
1851.917969	22465.183594
1850.922852	22519.808594
1849.926758	22945.324219
1848.930664	23058.398438
1847.934570	23003.115234
1846.938477	22908.828125
1845.941406	22951.128906
1844.945313	23054.367188
1843.948242	22986.931641
1842.951172	22783.035156
1841.954102	23027.578125
1840.956055	22658.074219
1839.958984	22680.880859
1838.960938	22696.373047
1837.962891	22969.976563
1836.964844	22992.714844
1835.966797	22832.876953
1834.968750	22811.822266
1833.969727	22992.740234
1832.970703	22908.406250
1831.971680	23011.402344
1830.972656	22897.908203
1829.973633	22730.957031
1828.973633	22571.357422
1827.974609	23065.693359
1826.974609	22716.521484
1825.974609	22914.203125
1824.974609	22720.667969
1823.973633	22898.845703
1822.973633	22821.953125
1821.972656	22562.970703
1820.971680	22908.597656
1819.970703	22982.236328
1818.968750	22856.841797
1817.967773	22571.339844
1816.965820	22870.623047
1815.964844	22786.546875
1814.961914	22867.414063
1813.959961	22633.029297
1812.958008	22827.837891
1811.955078	23010.458984
1810.953125	22744.664063
1809.950195	22667.962891
1808.947266	22719.687500
1807.943359	22861.017578
1806.940430	22748.005859
1805.936523	22860.220703
1804.932617	22950.607422
1803.928711	23120.839844
1802.924805	22923.154297
1801.920898	22844.103516
1800.916016	22658.632813
1799.911133	22579.652344
1798.907227	22694.171875
1797.901367	22641.810547
1796.896484	22896.494141
1795.891602	23131.748047
1794.885742	22704.748047
1793.879883	23000.359375
1792.874023	22766.798828
1791.868164	22772.443359
1790.862305	22879.513672
1789.855469	22602.632813
1788.848633	22666.240234
1787.842773	22671.896484
1786.834961	22834.410156
1785.828125	22914.830078
1784.821289	23041.056641
1783.813477	22692.076172
1782.805664	23184.853516
1781.797852	22990.281250
1780.790039	23017.562500
1779.782227	22615.800781
1778.773438	22725.072266
1777.764648	23055.972656
1776.755859	22994.085938
1775.747070	22956.304688
1774.738281	22988.373047
1773.729492	23092.662109
1772.719727	22857.482422
1771.709961	22865.480469
1770.700195	23114.121094
1769.690430	22960.863281
1768.680664	23245.482422
1767.669922	23034.529297
1766.659180	23160.318359
1765.648438	23237.974609
1764.637695	23055.978516
1763.626953	23155.255859
1762.615234	23220.853516
1761.604492	22940.447266
1760.592773	23488.902344
1759.581055	22956.357422
1758.569336	23283.689453
1757.556641	23233.957031
1756.544922	22646.523438
1755.532227	22990.535156
1754.519531	23180.843750
1753.506836	22965.613281
1752.494141	23350.162109
1751.480469	23221.318359
1750.466797	23164.457031
1749.454102	23213.107422
1748.440430	23175.443359
1747.425781	23207.296875
1746.412109	23193.607422
1745.397461	23503.363281
1744.383789	23307.572266
1743.369141	23564.505859
1742.353516	23498.078125
1741.338867	23311.964844
1740.324219	23623.816406
1739.308594	23507.150391
1738.292969	23730.316406
1737.277344	23383.996094
1736.261719	23532.949219
1735.245117	23677.066406
1734.229492	23916.779297
1733.212891	23599.355469
1732.196289	24032.613281
1731.179688	24009.240234
1730.162109	24009.771484
1729.145508	23835.896484
1728.127930	24166.089844
1727.110352	23755.812500
1726.092773	24143.208984
1725.075195	24000.464844
1724.056641	24289.814453
1723.039063	24025.378906
1722.020508	24276.441406
1721.001953	24336.556641
1719.983398	24434.814453
1718.963867	24850.222656
1717.945313	24671.757813
1716.925781	24591.099609
1715.906250	24341.234375
1714.886719	24751.593750
1713.867188	24873.496094
1712.846680	24969.148438
1711.826172	24612.203125
1710.806641	24865.042969
1709.786133	24546.337891
1708.764648	25080.011719
1707.744141	24789.943359
1706.722656	24997.351563
1705.701172	25004.818359
1704.679688	25128.851563
1703.658203	25152.939453
1702.636719	25386.292969
1701.614258	25141.646484
1700.592773	25210.884766
1699.570313	25406.072266
1698.547852	25380.179688
1697.524414	25237.873047
1696.501953	25375.933594
1695.478516	25380.933594
1694.456055	25376.433594
1693.432617	25374.308594
1692.408203	25804.232422
1691.384766	25536.199219
1690.360352	25583.878906
1689.336914	25795.250000
1688.312500	25427.726563
1687.288086	25705.460938
1686.262695	26013.921875
1685.238281	26033.015625
1684.212891	25713.117188
1683.187500	26414.847656
1682.162109	26410.160156
1681.136719	26234.888672
1680.110352	26358.150391
1679.084961	26348.736328
1678.058594	26389.052734
1677.032227	26417.515625
1676.005859	26460.169922
1674.978516	26580.912109
1673.952148	26760.767578
1672.924805	26502.865234
1671.897461	26753.632813
1670.870117	26748.882813
1669.842773	26914.388672
1668.814453	27103.476563
1667.787109	26547.898438
1666.758789	27126.939453
1665.730469	26725.144531
1664.701172	26751.111328
1663.672852	26970.763672
1662.643555	27150.185547
1661.615234	27320.099609
1660.585938	26817.103516
1659.555664	27442.580078
1658.526367	27440.064453
1657.497070	27399.796875
1656.466797	27630.847656
1655.436523	27694.343750
1654.406250	27646.972656
1653.375977	26941.753906
1652.344727	27486.267578
1651.313477	27601.593750
1650.282227	27410.511719
1649.250977	27499.890625
1648.219727	27327.738281
1647.188477	27337.013672
1646.156250	27605.333984
1645.124023	27715.802734
1644.091797	27906.269531
1643.059570	27449.390625
1642.027344	27726.908203
1640.994141	27653.744141
1639.961914	27771.158203
1638.928711	27399.294922
1637.895508	27951.765625
1636.861328	27589.406250
1635.828125	27993.542969
1634.793945	27828.736328
1633.759766	27967.134766
1632.725586	27872.876953
1631.691406	27769.255859
1630.656250	27653.923828
1629.622070	27836.869141
1628.586914	27855.396484
1627.551758	28061.712891
1626.516602	27960.490234
1625.480469	28075.193359
1624.445313	27718.263672
1623.409180	27530.359375
1622.373047	27952.320313
1621.336914	28102.113281
1620.300781	27909.546875
1619.263672	28202.283203
1618.227539	28628.507813
1617.190430	28822.591797
1616.153320	28901.804688
1615.115234	28969.275391
1614.078125	28856.382813
1613.040039	29249.322266
1612.001953	29110.664063
1610.963867	29358.287109
1609.925781	29186.890625
1608.887695	29207.433594
1607.848633	29197.550781
1606.809570	28675.402344
1605.770508	28649.246094
1604.731445	28080.613281
1603.692383	27589.332031
1602.652344	27661.552734
1601.613281	27593.525391
1600.573242	27586.271484
1599.533203	27109.441406
1598.492188	27293.810547
1597.452148	26779.832031
1596.411133	26744.705078
1595.370117	26627.880859
1594.329102	26254.341797
1593.288086	26623.056641
1592.247070	26524.978516
1591.205078	26578.574219
1590.163086	26282.275391
1589.121094	26056.044922
1588.079102	26179.640625
1587.036133	26172.640625
1585.994141	25871.960938
1584.951172	26065.431641
1583.908203	25781.185547
1582.865234	26042.158203
1581.822266	25678.826172
1580.778320	26219.167969
1579.734375	25907.154297
1578.691406	26004.960938
1577.646484	25786.193359
1576.602539	26025.935547
1575.558594	25776.994141
1574.513672	25625.841797
1573.468750	26039.917969
1572.423828	25998.064453
1571.378906	25742.326172
1570.333008	26237.517578
1569.288086	25874.914063
1568.242188	26086.404297
1567.196289	25963.257813
1566.150391	25612.507813
1565.103516	25282.785156
1564.057617	25429.208984
1563.010742	24962.656250
1561.963867	25199.609375
1560.916992	25329.720703
1559.869141	25213.816406
1558.822266	24991.232422
1557.774414	25374.144531
1556.726563	25286.121094
1555.678711	25098.423828
1554.630859	24987.294922
1553.582031	24822.894531
1552.534180	24630.740234
1551.485352	25145.375000
1550.436523	24696.076172
1549.386719	24870.019531
1548.337891	24636.302734
1547.288086	24689.789063
1546.238281	24701.582031
1545.188477	24576.806641
1544.138672	24340.994141
1543.088867	24614.300781
1542.038086	24614.529297
1540.987305	24554.617188
1539.936523	24550.228516
1538.885742	24367.804688
1537.834961	24384.253906
1536.783203	24359.093750
1535.731445	24223.015625
1534.679688	24248.722656
1533.627930	24500.806641
1532.576172	24198.476563
1531.523438	24378.890625
1530.471680	24182.898438
1529.418945	24310.154297
1528.366211	24091.160156
1527.312500	23747.632813
1526.259766	23951.033203
1525.206055	23819.875000
1524.152344	24117.748047
1523.098633	23709.890625
1522.044922	24028.425781
1520.990234	24001.076172
1519.936523	24095.884766
1518.881836	23706.753906
1517.827148	24094.173828
1516.772461	24059.917969
1515.716797	23735.484375
1514.662109	23742.750000
1513.606445	23710.873047
1512.550781	23750.363281
1511.495117	23753.015625
1510.438477	23518.664063
1509.382813	24029.787109
1508.326172	23570.048828
1507.269531	23374.947266
1506.212891	23488.029297
1505.155273	23847.058594
1504.098633	23378.482422
1503.041016	23480.009766
1501.983398	23767.615234
1500.925781	23340.654297
1499.867188	23582.240234
1498.809570	23408.076172
1497.750977	23367.146484
1496.692383	23450.195313
1495.633789	23232.537109
1494.575195	23276.566406
1493.515625	23655.564453
1492.457031	23252.167969
1491.397461	23488.830078
1490.337891	23367.667969
1489.277344	23271.767578
1488.217773	23434.941406
1487.157227	23070.902344
1486.096680	23337.169922
1485.036133	23564.392578
1483.975586	23081.406250
1482.915039	23148.267578
1481.853516	23146.408203
1480.791992	22979.703125
1479.730469	23003.052734
1478.668945	23214.064453
1477.606445	23175.576172
1476.544922	23372.751953
1475.482422	23059.755859
1474.419922	22900.101563
1473.357422	23254.994141
1472.293945	23296.546875
1471.231445	22855.779297
1470.167969	22945.380859
1469.104492	22998.388672
1468.041016	23010.255859
1466.976563	22898.771484
1465.913086	23017.984375
1464.848633	23333.523438
1463.784180	23114.740234
1462.719727	23090.048828
1461.655273	23247.935547
1460.589844	23100.015625
1459.524414	23059.369141
1458.458984	23212.611328
1457.393555	23167.396484
1456.328125	23090.275391
1455.261719	23033.697266
1454.196289	22870.013672
1453.129883	23230.523438
1452.063477	23142.048828
1450.996094	23388.476563
1449.929688	23425.273438
1448.862305	23033.941406
1447.794922	23134.537109
1446.727539	23052.986328
1445.660156	23588.251953
1444.591797	23233.576172
1443.524414	23193.000000
1442.456055	23170.636719
1441.387695	23146.003906
1440.318359	23153.214844
1439.250000	23696.974609
1438.180664	23249.458984
1437.111328	23293.007813
1436.041992	23706.925781
1434.972656	23391.416016
1433.903320	23546.216797
1432.833008	23714.585938
1431.762695	23308.414063
1430.692383	23236.117188
1429.622070	23431.687500
1428.550781	23708.884766
1427.480469	23393.765625
1426.409180	23541.556641
1425.337891	23621.248047
1424.266602	23662.357422
1423.194336	23900.714844
1422.122070	23871.478516
1421.050781	23769.722656
1419.978516	23754.117188
1418.905273	23758.906250
1417.833008	23695.734375
1416.759766	23699.621094
1415.687500	23703.503906
1414.614258	23707.390625
1413.540039	23711.279297
1412.466797	23715.166016
1411.392578	23622.644531
1410.319336	23523.369141
1409.245117	23885.595703
1408.169922	23324.919922
1407.095703	23413.435547
1406.020508	23732.527344
1404.946289	23554.199219
1403.871094	23511.537109
1402.794922	23618.029297
1401.719727	23663.480469
1400.643555	23675.031250
1399.568359	23770.140625
1398.492188	23750.054688
1397.415039	23522.271484
1396.338867	23592.525391
1395.261719	23563.451172
1394.185547	23622.386719
1393.108398	23573.011719
1392.031250	23814.626953
1390.953125	23444.996094
1389.875977	23778.990234
1388.797852	23745.398438
1387.719727	23921.439453
1386.641602	23867.550781
1385.562500	23689.757813
1384.484375	23816.148438
1383.405273	24260.074219
1382.326172	24125.089844
1381.247070	23386.740234
1380.166992	23567.117188
1379.087891	23576.375000
1378.007813	23464.109375
1376.927734	23594.875000
1375.847656	23565.876953
1374.767578	23606.609375
1373.686523	23294.281250
1372.605469	23499.173828
1371.524414	23337.583984
1370.443359	23324.384766
1369.362305	23385.343750
1368.280273	23203.640625
1367.199219	23120.835938
1366.117188	23422.103516
1365.034180	23056.359375
1363.952148	23249.765625
1362.870117	23303.931641
1361.787109	23084.279297
1360.704102	23086.847656
1359.621094	23490.986328
1358.537109	22881.130859
1357.454102	23208.910156
1356.370117	23141.939453
1355.286133	22989.802734
1354.202148	22931.859375
1353.118164	22795.501953
1352.033203	22892.214844
1350.948242	23024.734375
1349.863281	22727.166016
1348.778320	22342.367188
1347.693359	22530.884766
1346.607422	22643.222656
1345.521484	22818.189453
1344.435547	22532.109375
1343.349609	22443.021484
1342.263672	22443.441406
1341.176758	22188.894531
1340.090820	22500.183594
1339.003906	22469.291016
1337.916016	22650.765625
1336.829102	22210.861328
1335.741211	22063.837891
1334.654297	22555.830078
1333.566406	22279.240234
1332.478516	22150.148438
1331.389648	22327.011719
1330.301758	22439.068359
1329.212891	22546.619141
1328.124023	22089.505859
1327.035156	22507.232422
1325.945313	22505.394531
1324.856445	22338.500000
1323.766602	22392.445313
1322.676758	22613.595703
1321.586914	22451.228516
1320.496094	22674.515625
1319.406250	22980.175781
1318.315430	22893.582031
1317.224609	23203.544922
1316.133789	23299.576172
1315.041992	23192.927734
1313.951172	23462.587891
1312.859375	23282.484375
1311.767578	23253.791016
1310.675781	23305.216797
1309.583008	23176.408203
1308.491211	23303.458984
1307.398438	23154.679688
1306.305664	23306.146484
1305.212891	22981.779297
1304.119141	22804.238281
1303.026367	22913.457031
1301.932617	22580.447266
1300.838867	22934.044922
1299.744141	22752.195313
1298.650391	23292.183594
1297.555664	23214.693359
1296.461914	22815.324219
1295.366211	23090.867188
1294.271484	23319.707031
1293.176758	23226.730469
1292.081055	23348.976563
1290.985352	23043.095703
1289.889648	22823.812500
1288.793945	23021.447266
1287.697266	23086.000000
1286.601563	22543.228516
1285.504883	22780.691406
1284.408203	23071.242188
1283.311523	22624.019531
1282.213867	22493.675781
1281.116211	22336.806641
1280.018555	22250.839844
1278.920898	22220.246094
1277.823242	22059.082031
1276.725586	22079.423828
1275.626953	22287.814453
1274.528320	21976.306641
1273.429688	21877.224609
1272.330078	21919.693359
1271.231445	22043.947266
1270.131836	21706.179688
1269.032227	21945.345703
1267.932617	21947.996094
1266.833008	21749.607422
1265.732422	21557.916016
1264.632813	21509.837891
1263.532227	21441.906250
1262.430664	21848.630859
1261.330078	21405.435547
1260.228516	21423.621094
1259.127930	21567.564453
1258.026367	21376.142578
1256.924805	21233.312500
1255.822266	21227.253906
1254.720703	21397.582031
1253.618164	21175.464844
1252.515625	21057.015625
1251.413086	21176.595703
1250.309570	21086.828125
1249.207031	21226.183594
1248.103516	21341.259766
1247.000000	21273.529297
1245.895508	21230.039063
1244.791992	21208.576172
1243.687500	21030.863281
1242.583008	21011.642578
1241.478516	21069.427734
1240.374023	20955.623047
1239.269531	21143.148438
1238.164063	21011.777344
1237.058594	21251.986328
1235.953125	21120.642578
1234.847656	21092.632813
1233.741211	21110.773438
1232.635742	20768.630859
1231.529297	20971.320313
1230.422852	20947.748047
1229.315430	21093.244141
1228.208984	21054.287109
1227.101563	21087.775391
1225.994141	20811.835938
1224.886719	21290.738281
1223.779297	20946.857422
1222.670898	21269.841797
1221.562500	21059.849609
1220.454102	20913.515625
1219.345703	21137.683594
1218.237305	21339.855469
1217.127930	20871.435547
1216.018555	20909.267578
1214.909180	20986.511719
1213.799805	21028.687500
1212.690430	20854.072266
1211.580078	20782.414063
1210.469727	20550.996094
1209.359375	20643.548828
1208.249023	20589.470703
1207.138672	20786.988281
1206.027344	20820.390625
1204.916016	20707.261719
1203.804688	20847.800781
1202.693359	21167.542969
1201.581055	20575.751953
1200.469727	20849.535156
1199.357422	20865.406250
1198.245117	20855.056641
1197.131836	20720.216797
1196.019531	20969.751953
1194.906250	20965.935547
1193.792969	21243.710938
1192.679688	20838.267578
1191.566406	21135.601563
1190.452148	20976.855469
1189.337891	20678.562500
1188.223633	20834.003906
1187.109375	21035.175781
1185.995117	20957.222656
1184.879883	20925.070313
1183.764648	20433.097656
1182.649414	20682.128906
1181.534180	20674.005859
1180.418945	20500.347656
1179.302734	20673.007813
1178.186523	20560.376953
1177.070313	20606.701172
1175.954102	20703.066406
1174.837891	20692.765625
1173.720703	20532.343750
1172.603516	20589.511719
1171.486328	20564.011719
1170.369141	20358.031250
1169.250977	20497.814453
1168.132813	20641.894531
1167.015625	20292.568359
1165.896484	20362.751953
1164.778320	20571.949219
1163.660156	20487.830078
1162.541016	20510.156250
1161.421875	20549.843750
1160.302734	20580.833984
1159.182617	20481.574219
1158.063477	20291.205078
1156.943359	20419.861328
1155.823242	20381.427734
1154.703125	20089.234375
1153.582031	20460.738281
1152.461914	20157.792969
1151.340820	20292.855469
1150.219727	19961.875000
1149.097656	20480.484375
1147.976563	20119.255859
1146.854492	20412.357422
1145.732422	20224.537109
1144.610352	20387.585938
1143.488281	20375.205078
1142.365234	20367.158203
1141.243164	20434.861328
1140.120117	20444.113281
1138.996094	20682.689453
1137.873047	20583.740234
1136.750000	20346.414063
1135.625977	20496.220703
1134.501953	20596.250000
1133.377930	20611.941406
1132.252930	20748.650391
1131.127930	20254.382813
1130.003906	20255.003906
1128.878906	20607.689453
1127.752930	20584.490234
1126.627930	20444.707031
1125.501953	20458.242188
1124.375977	20413.496094
1123.250000	20347.187500
1122.124023	20177.339844
1120.997070	20607.240234
1119.871094	20053.501953
1118.744141	19948.488281
1117.617188	20216.496094
1116.489258	20387.402344
1115.362305	20293.158203
1114.234375	20384.259766
1113.106445	20257.734375
1111.978516	20262.648438
1110.849609	20327.859375
1109.721680	20203.562500
1108.592773	20374.248047
1107.463867	20297.339844
1106.333984	20147.291016
1105.205078	20130.697266
1104.075195	20101.201172
1102.945313	20155.597656
1101.815430	20231.478516
1100.685547	20100.925781
1099.554688	20077.902344
1098.424805	19852.853516
1097.293945	20113.535156
1096.162109	20176.457031
1095.031250	19994.474609
1093.899414	19844.773438
1092.768555	20034.400391
1091.636719	20354.917969
1090.503906	19975.550781
1089.372070	19813.082031
1088.239258	20094.839844
1087.106445	19801.539063
1085.973633	19952.351563
1084.840820	19762.123047
1083.708008	20395.322266
1082.574219	19857.789063
1081.440430	19995.617188
1080.306641	19946.953125
1079.171875	19819.029297
1078.038086	20042.474609
1076.903320	20040.945313
1075.768555	20045.841797
1074.633789	19870.888672
1073.498047	19901.498047
1072.363281	20011.287109
1071.227539	20001.201172
1070.091797	19736.523438
1068.956055	19844.138672
1067.819336	19797.730469
1066.682617	19762.027344
1065.546875	19854.611328
1064.409180	19927.923828
1063.272461	19864.433594
1062.135742	19843.699219
1060.998047	19825.107422
1059.860352	19753.123047
1058.722656	20035.666016
1057.583984	19908.154297
1056.446289	19825.517578
1055.307617	19922.199219
1054.168945	19489.617188
1053.029297	19838.085938
1051.890625	20039.234375
1050.750977	19835.076172
1049.611328	19592.607422
1048.471680	19859.781250
1047.332031	19623.791016
1046.191406	20155.132813
1045.051758	19951.136719
1043.911133	19542.689453
1042.769531	19818.142578
1041.628906	19627.095703
1040.487305	19725.699219
1039.346680	19722.080078
1038.205078	19650.349609
1037.062500	19733.996094
1035.920898	19606.966797
1034.778320	19626.769531
1033.635742	19489.169922
1032.493164	19570.654297
1031.350586	19707.388672
1030.207031	19535.833984
1029.063477	19589.632813
1027.919922	19424.537109
1026.776367	19695.042969
1025.632813	19835.873047
1024.488281	19711.173828
1023.343750	19361.435547
1022.199219	19487.384766
1021.054688	19734.277344
1019.910156	19692.453125
1018.764648	19523.330078
1017.619141	19405.183594
1016.473633	19622.210938
1015.327148	19879.453125
1014.181641	19434.775391
1013.035156	19825.509766
1011.888672	19703.173828
1010.742188	19502.472656
1009.594727	19462.869141
1008.448242	19510.132813
1007.300781	19771.292969
1006.153320	19515.667969
1005.005859	19634.876953
1003.857422	19734.990234
1002.708984	19650.939453
1001.560547	19810.259766
1000.412109	19645.830078
999.263672	19580.875000
998.114258	20048.888672
996.965820	19988.111328
995.816406	20001.347656
994.666016	19949.052734
993.516602	20025.689453
992.366211	19945.941406
991.215820	19929.597656
990.065430	19942.828125
988.915039	19850.464844
987.763672	19988.273438
986.613281	20107.033203
985.461914	19755.085938
984.309570	19747.230469
983.158203	19914.490234
982.005859	19934.029297
980.854492	19641.423828
979.701172	20086.949219
978.548828	19963.082031
977.396484	19735.972656
976.243164	19976.806641
975.089844	20120.625000
973.936523	19952.597656
972.783203	19849.925781
971.628906	19759.927734
970.474609	19977.371094
969.320313	19731.599609
968.166016	19946.861328
967.010742	19793.775391
965.856445	19661.787109
964.701172	20192.480469
963.545898	20218.205078
962.390625	20016.814453
961.234375	20233.882813
960.078125	20267.990234
958.921875	20150.765625
957.765625	20283.636719
956.609375	20223.173828
955.452148	20334.974609
954.294922	20261.923828
953.137695	20371.574219
951.980469	19973.142578
950.822266	20152.068359
949.665039	20209.212891
948.506836	20249.548828
947.347656	20405.246094
946.189453	20116.236328
945.030273	20318.035156
943.872070	19989.310547
942.712891	20237.173828
941.552734	20216.673828
940.393555	20110.267578
939.233398	20161.029297
938.073242	20249.478516
936.913086	20293.912109
935.752930	20189.658203
934.591797	20106.378906
933.430664	20498.275391
932.269531	20590.759766
931.108398	20595.330078
929.947266	20336.304688
928.785156	20491.515625
927.623047	20475.185547
926.460938	20419.134766
925.298828	20519.888672
924.135742	20674.945313
922.972656	20516.492188
921.810547	20473.007813
920.646484	20582.029297
919.483398	20755.751953
918.319336	20676.746094
917.155273	20614.470703
915.991211	20571.003906
914.827148	20625.640625
913.662109	20680.255859
912.498047	21006.056641
911.333008	20837.396484
910.167969	20937.818359
909.001953	20944.375000
907.836914	20721.615234
906.670898	20857.433594
905.504883	20899.425781
904.337891	21199.755859
903.171875	21191.671875
902.004883	20864.929688
900.837891	20963.109375
899.670898	20732.298828
898.503906	21082.335938
897.335938	20741.283203
896.167969	20999.632813
895.000000	20810.591797
893.832031	21002.267578
892.663086	20713.470703
891.495117	20761.621094
890.326172	20961.513672
889.156250	20751.865234
887.987305	21005.714844
886.817383	21053.771484
885.648438	20983.402344
884.478516	20692.898438
883.307617	20821.970703
882.137695	21115.017578
880.966797	20978.257813
879.795898	21036.638672
878.625000	21151.023438
877.454102	21030.927734
876.282227	21195.052734
875.110352	21390.224609
873.938477	20994.371094
872.766602	21521.207031
871.593750	21345.185547
870.421875	21482.154297
869.249023	21430.521484
868.076172	21505.273438
866.902344	21449.511719
865.729492	21416.548828
864.555664	21416.722656
863.381836	21803.998047
862.207031	22189.060547
861.033203	22025.615234
859.858398	22321.527344
858.683594	21880.931641
857.508789	22145.738281
856.333984	22079.603516
855.158203	22096.185547
853.982422	21686.958984
852.806641	21780.072266
851.630859	22021.917969
850.454102	21978.585938
849.278320	21972.445313
848.101563	21801.101563
846.924805	22307.042969
845.747070	22143.955078
844.570313	22426.736328
843.392578	21917.007813
842.214844	22228.609375
841.036133	22375.072266
839.858398	22568.914063
838.679688	22638.960938
837.500977	22810.001953
836.322266	22956.244141
835.143555	22597.515625
833.963867	22982.757813
832.784180	22939.351563
831.604492	22873.304688
830.424805	22726.966797
829.244141	22700.101563
828.063477	22650.599609
826.882813	22452.925781
825.702148	22216.226563
824.521484	22376.699219
823.339844	22265.578125
822.158203	22316.976563
820.976563	22319.001953
819.794922	22094.876953
818.612305	22183.275391
817.430664	22131.888672
816.248047	22080.519531
815.064453	22419.501953
813.881836	22023.023438
812.698242	22361.890625
811.514648	22304.353516
810.331055	22308.421875
809.147461	22057.980469
807.962891	22090.822266
806.778320	22347.287109
805.593750	22386.212891
804.409180	22494.857422
803.224609	22554.246094
802.039063	22406.541016
800.853516	22613.507813
799.667969	22490.439453
798.482422	22123.578125
797.295898	22377.599609
796.109375	22346.812500
794.922852	22291.460938
793.736328	22266.841797
792.548828	22123.496094
791.362305	22133.710938
790.174805	22082.529297
788.986328	21941.341797
787.798828	22092.728516
786.610352	21771.609375
785.421875	22033.392578
784.233398	21959.781250
783.044922	21708.361328
781.856445	22102.849609
780.666992	22086.478516
779.477539	22231.505859
778.288086	21970.003906
777.097656	21888.314453
775.907227	21710.685547
774.717773	22094.521484
773.526367	22184.298828
772.335938	21796.521484
771.144531	22249.492188
769.954102	22006.681641
768.762695	22057.652344
767.570313	22161.623047
766.378906	22181.962891
765.186523	21988.261719
763.994141	22081.994141
762.801758	22106.408203
761.609375	22067.660156
760.416016	22446.484375
759.222656	22311.968750
758.029297	22203.970703
756.835938	22409.517578
755.641602	22525.429688
754.447266	22417.451172
753.252930	22390.894531
752.058594	22244.326172
750.864258	22472.041016
749.668945	22408.884766
748.473633	22398.609375
747.278320	22532.660156
746.083008	22264.257813
744.886719	22140.222656
743.690430	21853.707031
742.494141	22140.095703
741.297852	22347.173828
740.100586	21945.041016
738.904297	21865.837891
737.707031	21967.304688
736.509766	21687.224609
735.311523	21837.378906
734.113281	21940.820313
732.916016	22305.855469
731.716797	21930.609375
730.518555	21960.986328
729.320313	21896.078125
728.121094	21946.714844
726.921875	21861.568359
725.721680	21983.097656
724.522461	21966.841797
723.322266	21837.185547
722.122070	21861.457031
720.921875	21737.939453
719.721680	22110.349609
718.520508	21800.654297
717.319336	22053.539063
716.118164	21837.019531
714.916992	21808.673828
713.714844	21911.775391
712.513672	21758.076172
711.311523	21586.240234
710.108398	22093.521484
708.906250	21865.107422
707.703125	22042.847656
706.500000	21881.181641
705.296875	22410.240234
704.093750	22042.615234
702.889648	22042.535156
701.685547	22010.160156
700.481445	22119.056641
699.277344	22413.529297
698.072266	22060.361328
696.868164	22380.953125
695.663086	22528.005859
694.457031	22334.283203
693.251953	22307.937500
692.045898	22386.396484
690.839844	22366.093750
689.633789	22422.351563
688.427734	22458.443359
687.220703	22230.710938
686.013672	22405.751953
684.806641	22256.621094
683.599609	22411.464844
682.391602	22503.865234
681.184570	22278.343750
679.976563	22310.384766
678.767578	22364.537109
677.559570	22585.566406
676.350586	22673.824219
675.141602	22508.777344
673.932617	22444.275391
672.723633	22554.607422
671.513672	22504.183594
670.303711	22771.128906
669.093750	22365.230469
667.883789	22561.826172
666.672852	22354.853516
665.462891	22434.966797
664.251953	22486.955078
663.040039	22410.519531
661.829102	22097.410156
660.617188	22458.285156
659.405273	22464.107422
658.193359	22387.728516
656.981445	22215.164063
655.768555	22543.677734
654.555664	22439.273438
653.342773	22759.607422
652.129883	22523.003906
650.916016	22723.046875
649.702148	22402.445313
648.488281	22398.250000
647.274414	22674.255859
646.059570	22866.111328
644.845703	22765.794922
643.630859	23315.615234
642.416016	23009.255859
641.200195	23052.933594
639.984375	22810.710938
638.769531	22880.392578
637.552734	22928.062500
636.336914	22658.023438
635.120117	22647.783203
633.904297	22857.250000
632.687500	23156.500000
631.469727	22818.732422
630.252930	22630.804688
629.035156	22884.021484
627.817383	22738.054688
626.599609	22478.421875
625.380859	22514.099609
624.163086	22896.775391
622.944336	22766.861328
621.724609	22567.220703
620.505859	22708.492188
619.286133	22861.664063
618.066406	22947.035156
616.846680	22753.482422
615.626953	23061.910156
614.406250	22936.111328
613.186523	22686.919922
611.965820	22829.966797
610.744141	22955.044922
609.523438	22859.203125
608.301758	22795.228516
607.080078	23041.574219
605.858398	23146.628906
604.635742	22762.509766
603.414063	22807.935547
602.191406	23125.642578
600.968750	23143.160156
599.745117	22824.890625
598.522461	23241.736328
597.298828	22862.000000
596.075195	23139.677734
594.850586	23065.843750
593.626953	23007.916016
592.402344	23231.824219
591.177734	23215.554688
589.953125	23119.933594
588.727539	23494.437500
587.501953	23539.599609
586.276367	23473.710938
585.050781	23290.886719
583.825195	23736.421875
582.598633	23718.089844
581.372070	23753.255859
580.145508	23929.050781
578.917969	24253.316406
577.691406	23886.392578
576.463867	24079.876953
575.236328	24061.494141
574.007813	24276.640625
572.780273	24351.220703
571.551758	23921.310547
570.323242	24055.265625
569.094727	23916.267578
567.865234	24299.292969
566.635742	24172.160156
565.406250	24171.566406
564.176758	23771.808594
562.947266	24075.541016
561.716797	23786.568359
560.486328	24175.101563
559.255859	23862.521484
558.024414	23972.533203
556.793945	23993.681641
555.562500	24089.810547
554.331055	23781.421875
553.098633	23682.255859
551.867188	23981.535156
550.634766	23718.693359
549.402344	23799.005859
548.168945	24092.177734
546.936523	23618.580078
545.703125	23821.031250
544.469727	23883.529297
543.236328	23969.638672
542.001953	23843.023438
540.767578	24090.560547
539.533203	23786.792969
538.298828	23735.074219
537.064453	23746.345703
535.829102	23989.775391
534.593750	23965.583984
533.358398	23650.318359
532.122070	23765.812500
530.886719	23877.328125
529.650391	23721.472656
528.414063	23872.257813
527.176758	23985.652344
525.940430	23908.441406
524.703125	23900.005859
523.465820	23868.005859
522.227539	23993.091797
520.990234	24218.246094
519.751953	24050.775391
518.513672	24020.728516
517.275391	24194.736328
516.036133	23939.089844
514.796875	24111.082031
513.557617	24120.259766
512.318359	24184.326172
511.079102	24187.603516
509.838867	24120.328125
508.598633	24145.167969
507.358398	24489.310547
506.117188	24570.867188
504.876953	24209.830078
503.635742	24162.185547
502.394531	24378.824219
501.152344	24188.292969
499.911133	24412.669922
498.668945	24353.281250
497.425781	24554.066406
496.183594	24512.273438
494.941406	24314.070313
493.698242	24319.251953
492.455078	24482.751953
491.210938	24544.570313
489.967773	24522.349609
488.723633	24377.068359
487.479492	24311.917969
486.235352	24180.398438
484.990234	24581.917969
483.745117	24497.242188
482.500000	24316.968750
481.254883	24661.644531
480.008789	24738.919922
478.763672	24783.007813
477.517578	24903.130859
476.271484	24869.177734
475.024414	24885.919922
473.777344	25058.576172
472.530273	24956.406250
471.283203	24821.152344
470.036133	25003.458984
468.788086	24977.308594
467.540039	24976.478516
466.291992	25000.957031
465.043945	25484.787109
463.794922	25464.398438
462.545898	25119.082031
461.296875	25157.126953
460.047852	25473.289063
458.797852	25355.681641
457.547852	25329.498047
456.297852	25293.603516
455.047852	25415.144531
453.796875	25626.023438
452.545898	25677.513672
451.294922	25701.789063
450.043945	25545.445313
448.792969	25824.091797
447.541016	26178.343750
446.289063	26511.107422
445.036133	26246.054688
443.784180	26419.582031
442.531250	26346.685547
441.278320	26343.634766
440.025391	25999.306641
438.771484	26384.064453
437.518555	25919.677734
436.264648	25657.015625
435.010742	25506.833984
433.755859	25265.656250
432.500977	25551.402344
431.246094	25587.228516
429.991211	25365.531250
428.736328	25496.228516
427.480469	25226.246094
426.224609	25685.876953
424.968750	25559.123047
423.712891	25304.751953
422.456055	25549.435547
421.199219	25534.923828
419.942383	25661.541016
418.685547	25701.130859
417.427734	25331.019531
416.169922	25430.548828
414.912109	25499.134766
413.654297	25625.632813
412.395508	25591.806641
411.136719	25695.070313
409.877930	25232.716797
408.619141	25606.195313
407.359375	25508.718750
406.099609	25594.550781
404.839844	25524.115234
403.580078	25731.402344
402.319336	25385.248047
401.059570	25661.878906
