#Wave		#Intensity
2001.182617	28940.013672
2000.212891	28799.650391
1999.243164	28949.998047
1998.273438	28872.281250
1997.303711	29050.119141
1996.333008	28849.677734
1995.363281	28774.519531
1994.392578	28581.705078
1993.421875	28681.857422
1992.451172	28659.328125
1991.479492	29057.236328
1990.508789	28739.396484
1989.537109	28766.898438
1988.566406	28694.341797
1987.594727	28666.822266
1986.622070	29046.873047
1985.650391	28919.300781
1984.677734	29139.205078
1983.706055	28836.726563
1982.733398	28686.767578
1981.760742	28649.279297
1980.788086	29143.824219
1979.814453	29003.876953
1978.841797	28881.455078
1977.868164	28357.146484
1976.894531	28961.218750
1975.920898	28891.271484
1974.947266	28659.164063
1973.972656	28831.279297
1972.999023	28357.316406
1972.024414	28327.421875
1971.049805	29072.982422
1970.075195	28267.660156
1969.099609	28606.685547
1968.125000	28409.792969
1967.149414	28666.449219
1966.173828	28706.279297
1965.198242	28658.916016
1964.222656	28541.839844
1963.247070	28845.595703
1962.270508	28735.994141
1961.294922	28681.187500
1960.318359	28994.710938
1959.341797	28618.902344
1958.364258	28892.523438
1957.387695	28817.824219
1956.410156	28800.349609
1955.433594	28636.179688
1954.456055	28772.871094
1953.478516	28365.175781
1952.500000	28588.843750
1951.522461	28877.035156
1950.543945	28765.158203
1949.565430	28924.056641
1948.586914	29048.130859
1947.608398	28670.603516
1946.629883	28943.626953
1945.650391	28730.066406
1944.671875	28568.693359
1943.692383	28851.513672
1942.712891	28878.712891
1941.733398	28769.482422
1940.752930	28794.205078
1939.773438	28558.572266
1938.792969	28870.888672
1937.812500	28521.306641
1936.832031	28570.832031
1935.851563	28783.869141
1934.870117	28890.306641
1933.888672	28545.916016
1932.908203	28862.853516
1931.926758	28996.453125
1930.945313	28667.074219
1929.962891	29030.847656
1928.981445	28832.734375
1927.999023	28649.537109
1927.016602	29166.496094
1926.034180	28862.103516
1925.051758	28666.628906
1924.069336	28698.693359
1923.085938	28827.158203
1922.102539	28935.802734
1921.119141	29029.580078
1920.135742	29056.613281
1919.152344	28940.353516
1918.168945	28917.992188
1917.184570	28473.351563
1916.200195	28981.925781
1915.215820	28752.199219
1914.231445	29193.904297
1913.247070	29139.429688
1912.261719	28796.294922
1911.276367	29267.359375
1910.291992	28907.054688
1909.306641	29032.685547
1908.320313	28768.705078
1907.334961	28906.640625
1906.348633	29145.580078
1905.363281	28901.429688
1904.376953	28748.527344
1903.390625	28711.458984
1902.403320	28903.464844
1901.416992	29095.400391
1900.429688	29112.455078
1899.443359	28930.103516
1898.456055	29235.148438
1897.467773	29119.281250
1896.480469	28831.222656
1895.493164	28877.822266
1894.504883	29064.601563
1893.516602	29172.619141
1892.528320	29327.314453
1891.540039	29304.958984
1890.550781	28874.611328
1889.562500	29117.740234
1888.573242	29432.033203
1887.583984	29377.736328
1886.594727	29402.052734
1885.605469	29028.539063
1884.615234	29271.421875
1883.625000	29239.277344
1882.635742	29062.337891
1881.645508	29192.201172
1880.654297	29277.853516
1879.664063	29407.632813
1878.673828	29073.810547
1877.682617	29007.398438
1876.691406	29441.175781
1875.700195	29333.046875
1874.708984	29467.595703
1873.716797	29430.562500
1872.725586	29150.984375
1871.733398	29545.154297
1870.741211	29101.552734
1869.749023	29537.220703
1868.755859	29282.298828
1867.763672	29497.464844
1866.770508	29345.431641
1865.777344	29391.662109
1864.784180	29455.001953
1863.791016	29263.914063
1862.797852	29610.960938
1861.803711	29769.593750
1860.809570	28925.755859
1859.815430	29632.013672
1858.821289	29558.371094
1857.827148	29372.345703
1856.832031	29545.535156
1855.837891	29686.904297
1854.842773	29857.533203
1853.847656	29346.808594
1852.852539	29366.060547
1851.856445	29490.271484
1850.861328	29609.556641
1849.865234	29460.376953
1848.869141	29552.785156
1847.873047	29523.193359
1846.876953	29374.105469
1845.879883	29761.531250
1844.883789	29714.847656
1843.886719	29456.107422
1842.889648	29677.582031
1841.892578	29894.105469
1840.895508	29852.298828
1839.897461	29647.302734
1838.899414	29586.068359
1837.901367	29790.275391
1836.903320	30013.884766
1835.905273	30169.257813
1834.907227	29930.306641
1833.908203	29771.738281
1832.909180	29868.679688
1831.910156	30084.775391
1830.911133	30393.210938
1829.912109	29826.156250
1828.912109	29859.804688
1827.913086	30022.267578
1826.913086	30191.964844
1825.913086	30101.601563
1824.913086	30256.644531
1823.912109	29991.408203
1822.912109	30238.701172
1821.911133	30318.361328
1820.910156	29895.445313
1819.909180	29924.162109
1818.908203	29901.902344
1817.906250	30112.589844
1816.904297	30318.351563
1815.903320	30242.666016
1814.900391	30373.148438
1813.898438	30008.929688
1812.896484	30292.136719
1811.893555	30223.777344
1810.891602	30225.720703
1809.888672	30302.777344
1808.885742	30200.531250
1807.881836	30575.494141
1806.878906	30429.640625
1805.875000	30714.837891
1804.871094	30382.597656
1803.867188	30345.775391
1802.863281	30543.710938
1801.859375	30821.421875
1800.854492	30607.935547
1799.849609	30568.673828
1798.844727	30321.447266
1797.839844	30840.791016
1796.834961	30714.476563
1795.830078	30900.007813
1794.824219	31070.974609
1793.818359	31111.402344
1792.812500	30770.115234
1791.806641	30994.148438
1790.799805	31239.835938
1789.793945	30891.460938
1788.787109	30844.970703
1787.780273	31018.138672
1786.773438	31203.312500
1785.766602	31332.923828
1784.758789	31530.035156
1783.751953	31254.330078
1782.744141	31183.701172
1781.736328	31298.753906
1780.728516	31184.748047
1779.719727	31340.730469
1778.711914	31311.099609
1777.703125	31141.730469
1776.694336	31724.027344
1775.685547	31559.458984
1774.676758	31517.765625
1773.666992	31476.083984
1772.657227	31826.804688
1771.648438	31650.296875
1770.638672	31902.195313
1769.627930	31538.064453
1768.618164	31773.052734
1767.607422	31466.794922
1766.597656	31506.925781
1765.586914	32208.228516
1764.576172	31865.994141
1763.564453	32208.867188
1762.553711	31657.685547
1761.541992	32072.550781
1760.530273	32275.873047
1759.518555	31977.154297
1758.506836	32055.550781
1757.495117	32066.691406
1756.482422	32497.914063
1755.469727	32148.958984
1754.457031	32256.060547
1753.444336	32768.589844
1752.431641	32405.376953
1751.417969	32344.486328
1750.405273	32700.857422
1749.391602	32589.583984
1748.377930	32799.562500
1747.364258	32439.052734
1746.349609	32826.304688
1745.335938	33021.746094
1744.321289	32975.187500
1743.306641	33017.253906
1742.291992	33080.855469
1741.276367	33185.136719
1740.261719	33224.746094
1739.246094	33522.816406
1738.230469	33428.347656
1737.214844	33872.214844
1736.199219	33696.386719
1735.182617	33511.054688
1734.166992	33595.992188
1733.150391	33936.707031
1732.133789	33847.039063
1731.117188	34285.570313
1730.099609	34475.441406
1729.083008	34581.625000
1728.065430	34943.351563
1727.047852	34660.136719
1726.030273	35052.761719
1725.012695	35464.343750
1723.994141	35770.753906
1722.976563	35869.429688
1721.958008	35937.046875
1720.939453	35813.785156
1719.920898	36003.035156
1718.901367	36223.218750
1717.882813	36293.105469
1716.863281	36496.468750
1715.843750	36590.113281
1714.824219	36562.183594
1713.803711	36596.214844
1712.784180	36568.292969
1711.763672	36933.386719
1710.743164	37155.460938
1709.722656	37075.066406
1708.702148	36785.207031
1707.681641	37428.480469
1706.660156	36774.550781
1705.638672	37243.902344
1704.617188	37370.523438
1703.595703	37432.875000
1702.574219	36955.382813
1701.551758	37148.554688
1700.529297	37500.933594
1699.507813	37399.214844
1698.484375	37211.976563
1697.461914	37338.437500
1696.439453	37452.968750
1695.416016	37211.191406
1694.392578	37670.035156
1693.369141	37376.066406
1692.345703	37659.050781
1691.322266	37239.394531
1690.297852	37341.949219
1689.273438	37745.785156
1688.249023	37717.742188
1687.224609	37656.500000
1686.200195	37929.640625
1685.174805	38169.488281
1684.150391	38022.855469
1683.125000	38004.261719
1682.099609	38187.089844
1681.073242	38445.667969
1680.047852	38273.031250
1679.021484	38877.285156
1677.995117	38432.312500
1676.968750	38865.855469
1675.942383	38745.335938
1674.916016	38901.761719
1673.888672	38901.957031
1672.862305	39138.738281
1671.834961	39382.527344
1670.806641	38850.496094
1669.779297	39427.660156
1668.751953	39380.468750
1667.723633	39803.683594
1666.695313	39867.519531
1665.666992	39888.792969
1664.638672	39836.824219
1663.609375	40094.304688
1662.581055	40165.117188
1661.551758	40162.707031
1660.522461	40046.976563
1659.493164	39928.921875
1658.462891	40346.628906
1657.433594	40476.316406
1656.403320	40235.570313
1655.373047	40174.167969
1654.342773	40586.812500
1653.312500	40471.136719
1652.281250	40409.722656
1651.250977	40779.675781
1650.219727	40784.210938
1649.188477	40515.421875
1648.156250	40830.964844
1647.125000	40677.675781
1646.092773	40877.683594
1645.060547	40901.023438
1644.028320	40966.730469
1642.996094	41420.777344
1641.963867	41065.125000
1640.930664	41302.523438
1639.898438	41575.121094
1638.865234	41461.886719
1637.832031	41193.484375
1636.797852	41444.792969
1635.764648	41371.597656
1634.730469	41759.101563
1633.696289	41671.777344
1632.662109	41753.648438
1631.627930	41985.828125
1630.592773	42551.445313
1629.558594	42433.503906
1628.523438	42019.773438
1627.488281	42747.050781
1626.453125	42884.960938
1625.416992	43262.171875
1624.381836	43669.750000
1623.345703	43870.753906
1622.309570	44324.980469
1621.273438	44300.679688
1620.237305	45064.140625
1619.200195	45644.492188
1618.163086	46271.507813
1617.125977	47142.000000
1616.088867	48518.234375
1615.051758	49270.890625
1614.014648	49864.015625
1612.976563	50726.214844
1611.938477	51026.218750
1610.900391	51904.285156
1609.862305	51478.460938
1608.823242	51530.128906
1607.785156	51546.687500
1606.746094	50243.980469
1605.707031	49722.855469
1604.667969	48865.207031
1603.628906	48416.984375
1602.588867	47171.855469
1601.548828	46726.425781
1600.508789	46325.550781
1599.468750	45936.500000
1598.428711	45706.414063
1597.387695	45399.343750
1596.347656	44653.410156
1595.306641	44633.781250
1594.265625	44243.031250
1593.224609	44270.152344
1592.182617	43825.937500
1591.140625	44091.070313
1590.099609	43644.710938
1589.057617	43690.566406
1588.014648	43398.320313
1586.972656	43397.574219
1585.929688	42995.933594
1584.887695	43403.074219
1583.844727	43236.894531
1582.800781	43310.718750
1581.757813	43461.375000
1580.714844	43122.949219
1579.670898	43857.980469
1578.626953	43857.140625
1577.583008	43795.785156
1576.538086	43832.187500
1575.494141	43605.664063
1574.449219	44130.585938
1573.404297	44320.406250
1572.359375	44628.750000
1571.314453	44832.355469
1570.269531	44759.269531
1569.223633	44244.617188
1568.177734	44208.839844
1567.131836	44001.144531
1566.085938	43616.980469
1565.040039	43302.628906
1563.993164	43262.386719
1562.946289	42857.664063
1561.899414	42812.871094
1560.852539	42324.816406
1559.805664	42363.667969
1558.757813	41940.824219
1557.709961	42327.664063
1556.662109	41642.910156
1555.614258	41596.054688
1554.566406	41771.773438
1553.517578	41421.261719
1552.469727	41566.816406
1551.420898	40868.898438
1550.372070	41056.199219
1549.322266	41593.187500
1548.273438	41238.378906
1547.223633	40862.855469
1546.173828	41024.550781
1545.124023	40788.074219
1544.074219	40963.605469
1543.024414	40694.828125
1541.973633	40877.250000
1540.922852	41050.355469
1539.872070	41156.335938
1538.821289	40577.882813
1537.770508	40739.382813
1536.718750	40602.667969
1535.666992	40542.257813
1534.615234	40280.859375
1533.563477	40721.808594
1532.511719	40481.250000
1531.458984	39952.125000
1530.407227	40136.613281
1529.354492	39970.156250
1528.300781	40043.785156
1527.248047	39598.183594
1526.195313	39939.484375
1525.141602	39955.406250
1524.087891	39715.320313
1523.034180	39410.750000
1521.980469	39862.496094
1520.925781	39728.585938
1519.871094	39769.875000
1518.817383	39122.167969
1517.762695	39474.570313
1516.707031	39386.886719
1515.652344	39214.015625
1514.596680	39165.550781
1513.541016	39487.757813
1512.485352	39384.015625
1511.429688	38939.699219
1510.374023	39250.265625
1509.317383	39112.105469
1508.260742	39351.222656
1507.204102	39139.496094
1506.147461	38799.085938
1505.090820	39401.355469
1504.033203	38817.371094
1502.975586	39049.421875
1501.917969	39017.156250
1500.860352	38858.546875
1499.802734	39097.351563
1498.744141	38718.320313
1497.686523	39048.906250
1496.627930	39094.710938
1495.569336	38924.746094
1494.509766	38982.027344
1493.451172	38915.386719
1492.391602	38855.652344
1491.332031	39114.746094
1490.272461	39002.250000
1489.212891	38887.500000
1488.152344	39034.117188
1487.092773	38804.804688
1486.032227	38460.996094
1484.971680	38850.464844
1483.910156	38676.277344
1482.849609	38845.699219
1481.788086	38806.675781
1480.726563	38799.718750
1479.665039	38790.472656
1478.603516	38586.691406
1477.541992	38611.808594
1476.479492	38655.214844
1475.416992	38648.285156
1474.354492	39167.367188
1473.291992	38586.402344
1472.229492	39247.050781
1471.166016	38716.566406
1470.102539	38979.296875
1469.039063	39059.128906
1467.975586	39209.757813
1466.912109	39346.625000
1465.847656	39469.734375
1464.783203	39133.855469
1463.718750	39215.867188
1462.654297	39847.929688
1461.589844	39564.644531
1460.524414	39051.011719
1459.458984	38920.812500
1458.393555	39828.453125
1457.328125	39921.644531
1456.262695	39253.265625
1455.196289	39266.734375
1454.130859	39207.261719
1453.064453	39122.742188
1451.998047	39311.660156
1450.930664	39304.601563
1449.864258	39507.082031
1448.796875	39254.050781
1447.729492	39848.070313
1446.662109	40027.574219
1445.594727	39640.300781
1444.526367	39758.335938
1443.458008	39883.152344
1442.390625	40023.843750
1441.321289	40203.148438
1440.252930	40493.804688
1439.184570	40404.683594
1438.115234	40488.347656
1437.045898	40721.976563
1435.976563	41007.781250
1434.907227	41043.578125
1433.836914	41181.574219
1432.767578	41369.484375
1431.697266	41695.832031
1430.626953	42115.140625
1429.555664	41910.093750
1428.485352	42311.054688
1427.414063	41965.367188
1426.342773	42234.589844
1425.271484	42766.828125
1424.200195	42668.425781
1423.128906	42803.597656
1422.056641	42940.984375
1420.984375	42998.992188
1419.912109	42939.136719
1418.839844	42976.730469
1417.767578	43118.511719
1416.694336	43316.863281
1415.621094	42910.515625
1414.547852	42805.437500
1413.474609	42720.769531
1412.400391	42543.335938
1411.327148	42273.183594
1410.252930	42342.503906
1409.178711	41642.683594
1408.104492	42519.503906
1407.029297	41460.363281
1405.955078	42106.289063
1404.879883	42198.171875
1403.804688	42486.640625
1402.729492	42713.996094
1401.653320	42878.007813
1400.578125	42705.394531
1399.501953	42977.746094
1398.425781	42608.726563
1397.349609	42666.523438
1396.272461	42722.042969
1395.196289	42933.257813
1394.119141	42902.960938
1393.041992	42653.843750
1391.964844	43004.796875
1390.886719	43181.976563
1389.809570	43438.003906
1388.731445	43504.574219
1387.653320	43821.304688
1386.575195	43448.335938
1385.497070	44314.722656
1384.417969	43844.929688
1383.338867	43992.437500
1382.259766	44398.863281
1381.180664	43697.394531
1380.101563	43887.617188
1379.021484	43854.949219
1377.941406	43772.785156
1376.861328	43470.156250
1375.781250	43376.839844
1374.701172	43719.875000
1373.620117	43165.566406
1372.539063	42923.964844
1371.458008	43057.839844
1370.376953	42921.968750
1369.295898	42536.722656
1368.213867	42436.941406
1367.132813	42299.003906
1366.050781	42549.648438
1364.967773	42730.589844
1363.885742	42287.343750
1362.802734	42706.195313
1361.720703	42653.605469
1360.637695	43047.554688
1359.554688	42763.847656
1358.470703	43222.675781
1357.387695	43084.804688
1356.303711	42859.539063
1355.219727	42771.097656
1354.135742	42458.550781
1353.050781	42004.933594
1351.966797	41831.546875
1350.881836	41521.574219
1349.796875	41749.253906
1348.711914	41596.160156
1347.626953	41890.906250
1346.541016	40985.683594
1345.455078	41090.191406
1344.369141	41096.199219
1343.283203	41319.222656
1342.197266	40920.296875
1341.110352	41125.378906
1340.023438	40936.824219
1338.936523	41217.839844
1337.849609	41554.632813
1336.762695	41705.804688
1335.674805	41231.257813
1334.586914	41641.585938
1333.499023	41756.917969
1332.411133	41856.570313
1331.323242	41313.113281
1330.234375	41783.402344
1329.145508	41682.101563
1328.056641	41708.042969
1326.967773	41968.261719
1325.878906	42134.683594
1324.789063	42410.339844
1323.699219	42471.804688
1322.609375	42829.792969
1321.519531	42806.445313
1320.429688	43266.769531
1319.338867	43604.359375
1318.248047	44420.855469
1317.157227	45003.152344
1316.066406	45015.058594
1314.975586	45997.867188
1313.883789	45711.242188
1312.791992	46504.351563
1311.700195	46553.808594
1310.608398	46273.906250
1309.516602	45967.406250
1308.423828	45649.894531
1307.331055	45325.824219
1306.238281	45166.414063
1305.145508	45258.289063
1304.051758	44543.238281
1302.958984	44681.859375
1301.865234	44669.328125
1300.771484	44912.285156
1299.677734	44890.832031
1298.583008	45333.531250
1297.489258	45676.148438
1296.394531	45674.542969
1295.299805	46212.296875
1294.204102	46474.675781
1293.109375	46807.957031
1292.013672	46129.523438
1290.917969	46036.886719
1289.822266	46099.511719
1288.726563	45654.375000
1287.630859	45320.238281
1286.534180	44649.324219
1285.437500	44672.261719
1284.340820	44283.089844
1283.244141	44450.066406
1282.146484	44174.023438
1281.048828	43851.578125
1279.951172	43666.515625
1278.853516	43149.476563
1277.755859	43057.554688
1276.658203	42604.984375
1275.559570	42895.933594
1274.460938	42348.437500
1273.362305	42347.394531
1272.262695	42377.308594
1271.164063	42181.710938
1270.064453	42158.593750
1268.964844	42181.890625
1267.865234	41756.632813
1266.765625	41894.867188
1265.665039	41531.656250
1264.564453	41354.082031
1263.463867	41618.164063
1262.363281	41643.730469
1261.262695	41079.968750
1260.161133	41169.617188
1259.059570	41257.023438
1257.958008	41311.308594
1256.856445	41034.734375
1255.754883	41190.472656
1254.652344	41090.398438
1253.549805	40911.003906
1252.447266	40738.281250
1251.344727	40788.183594
1250.242188	40393.023438
1249.138672	40588.347656
1248.035156	40431.218750
1246.931641	40705.734375
1245.828125	40605.878906
1244.724609	40424.617188
1243.620117	40476.699219
1242.515625	40607.972656
1241.411133	40407.003906
1240.306641	40896.773438
1239.201172	40566.066406
1238.096680	40697.226563
1236.991211	40823.937500
1235.885742	40706.625000
1234.779297	40683.847656
1233.673828	40423.781250
1232.567383	40719.597656
1231.460938	40450.828125
1230.354492	40814.605469
1229.248047	40214.378906
1228.140625	40413.421875
1227.033203	40954.777344
1225.926758	40556.734375
1224.818359	40808.257813
1223.710938	40969.746094
1222.602539	40716.664063
1221.495117	40803.554688
1220.386719	40552.781250
1219.278320	40641.859375
1218.168945	40599.406250
1217.060547	40613.937500
1215.951172	40273.554688
1214.841797	40555.363281
1213.731445	39842.808594
1212.622070	40015.113281
1211.511719	40417.218750
1210.402344	40232.574219
1209.291992	40258.085938
1208.180664	40171.996094
1207.070313	40407.515625
1205.958984	40636.386719
1204.847656	40985.445313
1203.736328	40816.195313
1202.625000	40909.328125
1201.512695	40886.585938
1200.401367	40968.738281
1199.289063	41162.289063
1198.176758	40696.070313
1197.063477	41313.296875
1195.951172	41390.941406
1194.837891	41632.300781
1193.724609	41447.910156
1192.611328	41407.632813
1191.498047	41576.839844
1190.383789	41578.000000
1189.269531	41542.074219
1188.155273	41301.156250
1187.041016	40977.468750
1185.926758	40673.519531
1184.811523	40940.753906
1183.696289	41127.253906
1182.581055	41459.667969
1181.465820	40907.496094
1180.350586	40858.664063
1179.234375	41173.519531
1178.118164	40906.921875
1177.001953	40444.500000
1175.885742	40047.539063
1174.768555	40190.394531
1173.652344	40346.250000
1172.535156	39660.199219
1171.417969	40238.023438
1170.299805	39884.945313
1169.182617	40075.519531
1168.064453	39822.585938
1166.946289	39702.316406
1165.828125	39942.792969
1164.709961	39733.468750
1163.590820	39980.363281
1162.471680	40014.339844
1161.352539	40048.300781
1160.233398	40012.773438
1159.114258	39994.625000
1157.994141	39546.792969
1156.874023	39817.308594
1155.753906	39588.773438
1154.633789	39453.582031
1153.513672	39543.972656
1152.392578	39571.453125
1151.271484	39681.292969
1150.150391	39741.242188
1149.029297	39393.777344
1147.907227	39468.917969
1146.786133	39611.187500
1145.664063	39606.125000
1144.541992	39674.687500
1143.418945	40379.738281
1142.296875	39954.597656
1141.173828	40395.300781
1140.050781	40316.519531
1138.927734	40525.503906
1137.803711	40401.304688
1136.680664	40553.964844
1135.556641	40399.527344
1134.432617	40452.683594
1133.308594	40181.597656
1132.183594	40684.273438
1131.059570	40236.066406
1129.934570	40619.730469
1128.809570	40532.394531
1127.684570	40615.691406
1126.558594	41014.183594
1125.432617	40613.808594
1124.307617	40623.656250
1123.180664	40465.179688
1122.054688	40749.054688
1120.928711	40122.515625
1119.801758	40643.582031
1118.674805	40204.886719
1117.547852	40533.867188
1116.419922	39974.640625
1115.292969	40372.503906
1114.165039	39966.496094
1113.037109	39901.023438
1111.909180	39484.472656
1110.780273	40119.023438
1109.652344	40146.140625
1108.523438	39667.339844
1107.394531	39890.394531
1106.264648	39814.234375
1105.135742	39972.628906
1104.005859	40102.996094
1102.875977	39674.101563
1101.746094	39922.746094
1100.616211	40156.250000
1099.485352	39826.457031
1098.355469	40053.441406
1097.224609	39783.953125
1096.092773	39924.917969
1094.961914	39969.167969
1093.830078	39826.550781
1092.699219	39836.445313
1091.567383	39769.042969
1090.434570	39441.933594
1089.302734	39996.996094
1088.169922	39483.289063
1087.037109	39431.011719
1085.904297	39640.429688
1084.771484	39665.343750
1083.637695	39752.425781
1082.504883	39717.277344
1081.371094	39834.320313
1080.236328	39769.167969
1079.102539	39794.023438
1077.968750	39469.695313
1076.833984	39539.570313
1075.699219	39793.582031
1074.564453	39657.832031
1073.428711	40202.847656
1072.292969	40000.722656
1071.158203	39856.445313
1070.022461	40257.777344
1068.885742	40205.480469
1067.750000	39952.171875
1066.613281	39887.117188
1065.476563	40433.515625
1064.339844	40205.945313
1063.203125	40499.906250
1062.065430	40302.320313
1060.927734	40431.656250
1059.790039	40355.898438
1058.652344	40239.589844
1057.514648	40185.238281
1056.375977	40288.878906
1055.237305	40065.921875
1054.098633	40393.609375
1052.959961	40019.230469
1051.820313	40342.531250
1050.681641	40433.242188
1049.541992	40376.781250
1048.402344	40098.613281
1047.261719	40400.339844
1046.122070	40360.964844
1044.981445	40602.867188
1043.840820	40292.894531
1042.700195	40818.015625
1041.558594	40697.656250
1040.417969	40468.746094
1039.276367	40859.417969
1038.134766	40321.929688
1036.992188	40472.007813
1035.850586	40281.597656
1034.708008	40589.046875
1033.565430	40422.078125
1032.422852	40518.859375
1031.280273	40543.312500
1030.136719	40416.828125
1028.994141	40456.164063
1027.850586	40752.609375
1026.706055	41080.808594
1025.562500	40087.640625
1024.417969	40609.105469
1023.273438	40433.898438
1022.128906	40589.945313
1020.984375	40467.871094
1019.839844	40865.785156
1018.694336	40860.398438
1017.548828	41060.796875
1016.403320	40983.257813
1015.256836	40988.453125
1014.111328	40785.855469
1012.964844	40846.195313
1011.818359	40692.445313
1010.671875	41204.152344
1009.524414	40819.445313
1008.377930	40678.488281
1007.230469	40914.574219
1006.083008	40928.230469
1004.934570	41585.500000
1003.787109	41643.476563
1002.638672	41673.914063
1001.490234	42000.582031
1000.341797	42346.167969
999.193359	42344.726563
998.043945	42463.828125
996.894531	42711.867188
995.745117	42458.781250
994.595703	42848.343750
993.446289	42407.238281
992.295898	42646.648438
991.145508	42702.175781
989.995117	42347.933594
988.844727	42614.667969
987.693359	42558.265625
986.541992	42178.910156
985.390625	42188.031250
984.239258	42289.996094
983.087891	42282.214844
981.935547	42325.058594
980.783203	42545.042969
979.630859	41908.839844
978.478516	42539.921875
977.325195	42327.628906
976.172852	42210.250000
975.019531	42415.292969
973.865234	42295.828125
972.711914	42226.957031
971.557617	42465.574219
970.404297	42415.640625
969.250000	41603.671875
968.094727	41423.417969
966.940430	41779.843750
965.785156	41929.945313
964.629883	41848.593750
963.474609	42345.652344
962.319336	41879.437500
961.163086	42020.996094
960.007813	42038.476563
958.851563	42142.117188
957.694336	42411.714844
956.538086	42200.117188
955.380859	42343.574219
954.223633	41892.648438
953.066406	42611.425781
951.909180	42353.753906
950.751953	42052.093750
949.593750	42226.914063
948.435547	41992.527344
947.277344	41592.503906
946.118164	42534.949219
944.959961	41988.175781
943.800781	41833.671875
942.641602	42025.097656
941.482422	42103.273438
940.322266	42506.218750
939.162109	42316.105469
938.001953	42035.992188
936.841797	42065.933594
935.681641	42175.433594
934.520508	42090.191406
933.360352	42379.648438
932.198242	42380.199219
931.037109	42445.609375
929.875977	42310.167969
928.713867	42344.191406
927.551758	42321.738281
926.389648	42531.371094
925.227539	42753.464844
924.064453	42676.601563
922.901367	42616.480469
921.738281	42771.578125
920.575195	42617.457031
919.412109	42617.941406
918.248047	42841.851563
917.083984	42712.851563
915.919922	43109.910156
914.755859	42724.207031
913.590820	43273.429688
912.426758	43317.589844
911.261719	43676.691406
910.095703	43195.230469
908.930664	43816.929688
907.764648	44023.554688
906.598633	43698.613281
905.432617	43963.523438
904.266602	43930.398438
903.099609	43855.621094
901.933594	43720.468750
900.766602	43595.777344
899.599609	43648.093750
898.431641	43540.109375
897.264648	43367.648438
896.096680	43415.812500
894.928711	43409.867188
893.759766	43233.355469
892.591797	43023.636719
891.422852	43387.867188
890.253906	42922.492188
889.084961	42964.437500
887.916016	42862.976563
886.746094	43409.796875
885.576172	43586.652344
884.406250	43381.277344
883.236328	43321.339844
882.065430	43136.847656
880.895508	43768.210938
879.724609	43791.246094
878.552734	43664.863281
877.381836	44185.816406
876.209961	44219.125000
875.039063	43966.222656
873.866211	44362.417969
872.694336	44292.011719
871.522461	44569.847656
870.349609	44472.488281
869.176758	44758.472656
868.003906	44476.738281
866.830078	44714.972656
865.657227	44977.968750
864.483398	44864.046875
863.309570	45396.019531
862.135742	45435.214844
860.960938	45797.199219
859.786133	45803.199219
858.611328	45976.742188
857.436523	45968.226563
856.261719	45523.414063
855.085938	45506.710938
853.910156	45229.570313
852.734375	45772.972656
851.558594	45119.832031
850.382813	45607.269531
849.206055	45286.933594
848.029297	45544.933594
846.852539	45538.554688
845.674805	45957.421875
844.498047	45884.921875
843.320313	45822.761719
842.142578	46014.390625
840.963867	46399.847656
839.786133	47071.832031
838.607422	47242.496094
837.428711	47427.527344
836.250000	47791.816406
835.070313	47904.539063
833.891602	47957.468750
832.711914	47573.636719
831.532227	47379.437500
830.352539	47018.503906
829.171875	46929.480469
827.991211	47138.980469
826.810547	46086.738281
825.629883	45722.187500
824.449219	45510.019531
823.267578	45332.894531
822.085938	45124.984375
820.904297	45564.875000
819.722656	45124.683594
818.540039	44573.652344
817.357422	44933.242188
816.174805	44511.898438
814.992188	44339.285156
813.809570	44618.609375
812.625977	44739.699219
811.442383	44975.726563
810.258789	44989.953125
809.074219	44548.527344
807.890625	45022.492188
806.706055	44675.601563
805.521484	44886.789063
804.336914	44929.726563
803.151367	45179.746094
801.966797	44896.628906
800.781250	44910.835938
799.594727	44892.242188
798.409180	44469.996094
797.222656	44506.804688
796.037109	44443.226563
794.849609	44469.781250
793.663086	43949.640625
792.476563	44052.015625
791.289063	43777.750000
790.101563	43779.839844
788.914063	43957.886719
787.725586	43640.828125
786.538086	43413.875000
785.349609	43732.972656
784.161133	43270.972656
782.971680	43113.707031
781.783203	42911.535156
780.593750	42883.121094
779.404297	42954.816406
778.214844	43185.804688
777.024414	42955.171875
775.834961	42949.222656
774.644531	42820.789063
773.454102	42792.410156
772.262695	42921.171875
771.072266	43082.527344
769.880859	42986.792969
768.689453	43054.253906
767.497070	42795.425781
766.305664	43107.542969
765.113281	42983.332031
763.920898	43105.761719
762.728516	43193.503906
761.536133	43319.917969
760.342773	43751.816406
759.149414	43920.843750
757.956055	43702.945313
756.762695	43690.734375
755.568359	43904.449219
754.374023	44474.199219
753.179688	44142.417969
751.985352	44119.953125
750.791016	44128.003906
749.595703	44323.128906
748.400391	43902.156250
747.205078	43483.371094
746.009766	43454.945313
744.813477	43233.492188
743.617188	42924.765625
742.420898	43375.812500
741.224609	42839.718750
740.027344	42740.363281
738.830078	42789.238281
737.632813	42614.828125
736.435547	42533.828125
735.238281	42286.488281
734.040039	42590.996094
732.841797	42510.039063
731.643555	42646.082031
730.445313	42183.992188
729.246094	42605.851563
728.046875	42304.042969
726.847656	42431.910156
725.648438	42136.320313
724.449219	42416.082031
723.249023	42308.937500
722.048828	42074.269531
720.848633	42234.441406
719.647461	42163.816406
718.447266	42089.167969
717.246094	42071.199219
716.044922	42387.003906
714.842773	42417.519531
713.641602	42395.445313
712.439453	42632.160156
711.237305	42333.128906
710.035156	42533.382813
708.832031	42553.730469
707.629883	42937.707031
706.426758	42792.339844
705.223633	42943.886719
704.019531	43014.609375
702.815430	43428.484375
701.612305	43034.871094
700.408203	42964.277344
699.203125	43111.605469
697.999023	43216.511719
696.793945	43277.011719
695.588867	43639.953125
694.383789	43555.187500
693.177734	43331.367188
691.971680	43929.878906
690.766602	44054.656250
689.559570	44112.902344
688.353516	43961.648438
687.146484	43729.898438
685.939453	44116.359375
684.732422	44021.546875
683.525391	43804.000000
682.318359	43500.000000
681.110352	43534.117188
679.902344	43574.253906
678.693359	43789.343750
677.485352	43459.425781
676.276367	43469.390625
675.067383	43559.753906
673.858398	43316.472656
672.649414	43515.328125
671.439453	43376.605469
670.229492	43153.578125
669.019531	43193.699219
667.809570	43617.292969
666.598633	42942.667969
665.387695	43095.195313
664.176758	42824.253906
662.965820	43103.140625
661.754883	43046.929688
660.542969	42768.125000
659.331055	42842.328125
658.119141	43245.289063
656.906250	42850.339844
655.694336	42978.593750
654.481445	43014.625000
653.268555	42812.250000
652.054688	42950.445313
650.841797	43477.082031
649.627930	43176.621094
648.414063	43012.394531
647.200195	43538.714844
645.985352	43826.710938
644.770508	44102.593750
643.555664	44020.320313
642.340820	44400.054688
641.125977	44547.699219
639.910156	44391.414063
638.694336	44167.226563
637.478516	44416.742188
636.262695	44000.816406
635.045898	43778.820313
633.829102	43874.472656
632.612305	43958.105469
631.395508	43422.777344
630.177734	43528.417969
628.959961	43400.507813
627.742188	42865.578125
626.524414	42624.121094
625.306641	42771.710938
624.087891	42737.761719
622.869141	42959.046875
621.650391	42683.855469
620.430664	42889.117188
619.211914	43052.453125
617.992188	43002.535156
616.772461	42556.214844
615.551758	43147.722656
614.332031	43059.976563
613.111328	43000.128906
611.890625	42603.902344
610.669922	42910.355469
609.448242	42936.128906
608.226563	43027.539063
607.004883	43021.453125
605.783203	43305.710938
604.561523	42742.843750
603.338867	43496.199219
602.116211	43321.074219
600.893555	43149.992188
599.669922	43106.125000
598.447266	43149.675781
597.223633	43338.195313
596.000000	43552.453125
594.775391	43387.429688
593.551758	43502.347656
592.327148	43408.835938
591.102539	43757.839844
589.877930	43692.085938
588.652344	43701.730469
587.426758	43673.683594
586.201172	44389.171875
584.975586	44436.335938
583.750000	44527.082031
582.523438	44288.847656
581.296875	44809.507813
580.070313	45155.660156
578.842773	44854.058594
577.616211	45340.652344
576.388672	45338.066406
575.161133	45626.449219
573.932617	45726.714844
572.705078	45377.789063
571.476563	45307.929688
570.248047	45281.605469
569.018555	45526.210938
567.790039	45539.394531
566.560547	45163.148438
565.331055	44872.027344
564.101563	44703.527344
562.871094	44835.386719
561.641602	44117.828125
560.411133	44047.742188
559.179688	43977.601563
557.949219	43907.519531
556.717773	43837.378906
555.486328	43767.238281
554.254883	43697.097656
553.023438	43631.664063
551.791016	43497.218750
550.558594	43378.601563
549.326172	43715.457031
548.093750	43679.628906
546.860352	43472.351563
545.627930	43456.281250
544.393555	43213.656250
543.160156	43443.851563
541.926758	43386.437500
540.692383	43516.089844
539.458008	43411.429688
538.223633	43712.261719
536.988281	43294.714844
535.752930	43583.644531
534.517578	43553.792969
533.282227	43494.453125
532.046875	43712.386719
530.810547	43686.453125
529.574219	43921.957031
528.337891	44188.812500
527.101563	44015.433594
525.864258	44231.089844
524.626953	44476.125000
523.389648	43941.449219
522.152344	43799.652344
520.914063	43824.761719
519.675781	44177.628906
518.437500	43957.367188
517.199219	44264.945313
515.959961	44439.023438
514.721680	44105.082031
513.482422	44412.453125
512.242188	44276.644531
511.002930	44203.609375
509.762695	44136.476563
508.522461	44200.644531
507.282227	44159.000000
506.041016	44185.921875
504.800781	43983.718750
503.559570	44024.363281
502.318359	43986.691406
501.076172	44342.410156
499.833984	44263.597656
498.592773	43607.679688
497.349609	44219.500000
496.107422	44197.460938
494.864258	44220.398438
493.622070	44143.625000
492.377930	44485.148438
491.134766	44318.460938
489.891602	44102.988281
488.647461	44395.484375
487.403320	44545.292969
486.158203	44462.675781
484.914063	44395.707031
483.668945	44436.117188
482.423828	44337.949219
481.178711	44614.445313
479.932617	44791.343750
478.686523	44972.074219
477.440430	44513.101563
476.194336	44822.496094
474.948242	44673.667969
473.701172	45481.851563
472.454102	45580.429688
471.207031	45622.464844
469.958984	45327.500000
468.711914	45198.179688
467.463867	45261.675781
466.215820	45441.957031
464.966797	45509.273438
463.718750	45627.156250
462.469727	45630.199219
461.220703	45613.789063
459.970703	46328.679688
458.721680	46032.117188
457.471680	46159.500000
456.221680	46457.894531
454.970703	46464.652344
453.720703	46310.125000
452.469727	46287.761719
451.218750	47015.160156
449.966797	46981.015625
448.715820	47209.000000
447.463867	47772.738281
446.211914	47769.515625
444.959961	48288.300781
443.707031	48793.300781
442.454102	48458.175781
441.201172	48534.332031
439.948242	48240.097656
438.695313	47924.648438
437.441406	47671.339844
436.187500	46954.953125
434.933594	46450.035156
433.678711	46065.410156
432.424805	46167.085938
431.169922	45676.148438
429.914063	45692.664063
428.659180	45269.753906
427.403320	45394.714844
426.147461	45343.542969
424.891602	45379.445313
423.635742	44873.730469
422.378906	45375.781250
421.122070	45036.539063
419.865234	45147.859375
418.608398	45268.800781
417.350586	45099.820313
416.092773	44934.769531
414.834961	45260.437500
413.577148	44977.601563
412.318359	45048.242188
411.059570	45006.875000
409.800781	45002.199219
408.541992	45296.656250
407.282227	44894.437500
406.022461	44966.945313
404.762695	45058.710938
403.502930	44710.757813
402.242188	44889.296875
400.981445	45029.210938
