#Wave		#Intensity
2001.242188	25493.851563
2000.272461	25355.994141
1999.302734	25494.414063
1998.333008	25457.390625
1997.363281	25563.175781
1996.392578	25608.808594
1995.422852	25276.269531
1994.452148	25494.703125
1993.481445	25224.882813
1992.510742	25558.386719
1991.540039	25376.240234
1990.568359	25677.070313
1989.596680	25142.222656
1988.625977	25332.931641
1987.654297	25193.460938
1986.681641	25431.599609
1985.709961	25367.158203
1984.738281	25147.767578
1983.765625	25238.339844
1982.792969	25313.886719
1981.820313	25336.945313
1980.847656	25157.673828
1979.874023	25273.150391
1978.901367	25570.859375
1977.927734	25141.990234
1976.954102	25457.089844
1975.980469	25245.505859
1975.006836	25305.968750
1974.032227	25453.724609
1973.058594	25227.283203
1972.083984	25005.906250
1971.109375	24894.318359
1970.134766	25007.136719
1969.160156	25055.109375
1968.184570	24853.851563
1967.209961	25273.091797
1966.234375	25022.039063
1965.258789	25087.406250
1964.283203	24928.615234
1963.306641	24951.646484
1962.331055	25293.322266
1961.354492	25005.144531
1960.377930	24985.839844
1959.401367	24941.658203
1958.424805	24459.646484
1957.447266	25156.792969
1956.470703	24968.361328
1955.493164	25555.769531
1954.515625	25113.759766
1953.538086	24826.007813
1952.560547	25107.457031
1951.582031	25132.880859
1950.604492	25262.632813
1949.625977	25230.888672
1948.647461	24918.531250
1947.668945	25393.384766
1946.689453	25230.056641
1945.710938	25319.960938
1944.731445	24970.576172
1943.751953	24971.167969
1942.772461	25195.029297
1941.792969	25007.072266
1940.813477	25518.519531
1939.833008	25276.019531
1938.852539	25006.333984
1937.873047	25108.537109
1936.891602	25277.613281
1935.911133	25183.988281
1934.930664	25006.164063
1933.949219	25259.380859
1932.967773	25054.363281
1931.986328	24638.955078
1931.004883	24976.271484
1930.023438	25105.554688
1929.041016	25145.701172
1928.059570	24923.558594
1927.077148	24976.089844
1926.094727	25008.814453
1925.112305	24910.458984
1924.128906	25024.777344
1923.146484	24894.314453
1922.163086	24914.667969
1921.179688	24905.359375
1920.196289	25115.955078
1919.212891	24874.396484
1918.228516	24899.675781
1917.245117	24749.609375
1916.260742	24777.369141
1915.276367	25313.662109
1914.291992	24916.775391
1913.307617	25045.667969
1912.322266	24940.115234
1911.336914	24893.802734
1910.352539	24637.855469
1909.367188	24830.820313
1908.380859	24893.037109
1907.395508	24900.998047
1906.409180	24583.605469
1905.423828	24769.046875
1904.437500	24939.640625
1903.451172	24777.603516
1902.463867	24652.566406
1901.477539	24653.167969
1900.490234	24599.599609
1899.503906	24750.373047
1898.516602	24581.123047
1897.528320	24704.775391
1896.541016	24904.656250
1895.553711	24455.023438
1894.565430	24554.035156
1893.577148	24530.052734
1892.588867	24488.865234
1891.600586	24553.400391
1890.611328	24485.185547
1889.623047	24847.044922
1888.633789	24592.068359
1887.644531	24602.490234
1886.655273	24382.031250
1885.666016	24488.257813
1884.675781	24361.195313
1883.686523	24482.113281
1882.696289	24485.177734
1881.706055	24385.171875
1880.715820	24564.906250
1879.724609	24428.123047
1878.734375	24887.390625
1877.743164	24586.296875
1876.751953	24633.466797
1875.760742	24278.589844
1874.769531	24521.873047
1873.778320	24461.201172
1872.786133	24574.509766
1871.793945	24423.210938
1870.801758	24521.789063
1869.809570	24622.777344
1868.817383	24647.832031
1867.824219	24479.488281
1866.832031	24597.562500
1865.838867	24338.742188
1864.845703	24618.275391
1863.851563	24295.939453
1862.858398	24536.248047
1861.865234	24265.390625
1860.871094	24698.767578
1859.876953	24699.314453
1858.882813	24734.078125
1857.887695	24529.349609
1856.893555	24527.480469
1855.898438	24418.126953
1854.904297	24509.085938
1853.909180	24873.505859
1852.913086	24317.353516
1851.917969	24378.984375
1850.922852	24269.750000
1849.926758	24306.964844
1848.930664	24475.912109
1847.934570	24410.623047
1846.938477	24794.119141
1845.941406	24336.195313
1844.945313	24490.388672
1843.948242	24732.281250
1842.951172	24666.998047
1841.954102	24418.980469
1840.956055	24519.447266
1839.958984	24763.595703
1838.960938	24452.365234
1837.962891	24584.425781
1836.964844	24748.087891
1835.966797	24463.796875
1834.968750	24335.369141
1833.969727	24630.386719
1832.970703	24460.611328
1831.971680	24840.638672
1830.972656	24561.441406
1829.973633	24418.513672
1828.973633	24540.636719
1827.974609	24696.748047
1826.974609	24745.867188
1825.974609	24897.023438
1824.974609	24270.687500
1823.973633	24392.724609
1822.973633	24624.005859
1821.972656	24651.234375
1820.971680	24479.375000
1819.970703	24399.814453
1818.968750	24621.220703
1817.967773	24565.925781
1816.965820	24804.205078
1815.964844	24467.521484
1814.961914	24538.392578
1813.959961	24643.183594
1812.958008	24553.988281
1811.955078	24493.910156
1810.953125	24390.228516
1809.950195	24606.431641
1808.947266	24657.814453
1807.943359	24915.068359
1806.940430	24656.386719
1805.936523	24790.058594
1804.932617	24606.539063
1803.928711	24398.876953
1802.924805	24438.136719
1801.920898	24683.052734
1800.916016	24664.185547
1799.911133	24509.869141
1798.907227	24568.423828
1797.901367	24310.205078
1796.896484	24574.263672
1795.891602	24601.351563
1794.885742	24543.845703
1793.879883	24679.658203
1792.874023	24440.968750
1791.868164	24728.921875
1790.862305	24809.082031
1789.855469	24770.902344
1788.848633	24781.015625
1787.842773	24846.640625
1786.834961	24933.960938
1785.828125	24741.357422
1784.821289	24903.449219
1783.813477	24739.861328
1782.805664	24995.945313
1781.797852	24762.472656
1780.790039	24666.496094
1779.782227	24700.705078
1778.773438	24799.968750
1777.764648	24875.103516
1776.755859	25061.023438
1775.747070	24912.082031
1774.738281	25040.132813
1773.729492	24876.800781
1772.719727	25120.361328
1771.709961	24831.912109
1770.700195	24894.906250
1769.690430	25102.242188
1768.680664	24479.564453
1767.669922	25093.375000
1766.659180	24814.798828
1765.648438	24733.474609
1764.637695	24849.302734
1763.626953	25010.751953
1762.615234	24888.583984
1761.604492	24953.861328
1760.592773	24997.496094
1759.581055	25084.347656
1758.569336	25118.335938
1757.556641	24945.832031
1756.544922	25109.458984
1755.532227	25001.816406
1754.519531	24848.617188
1753.506836	24741.056641
1752.494141	25046.132813
1751.480469	25305.529297
1750.466797	25217.125000
1749.454102	25183.896484
1748.440430	25085.955078
1747.425781	25141.437500
1746.412109	24954.873047
1745.397461	24909.730469
1744.383789	25084.984375
1743.369141	25511.648438
1742.353516	25023.429688
1741.338867	25258.419922
1740.324219	25620.193359
1739.308594	25053.232422
1738.292969	25513.021484
1737.277344	25384.099609
1736.261719	25606.853516
1735.245117	25709.945313
1734.229492	25726.916016
1733.212891	25464.160156
1732.196289	25772.791016
1731.179688	25531.626953
1730.162109	25880.755859
1729.145508	26174.810547
1728.127930	25926.533203
1727.110352	26413.921875
1726.092773	26263.589844
1725.075195	26342.498047
1724.056641	26724.523438
1723.039063	26667.289063
1722.020508	26414.410156
1721.001953	26469.375000
1719.983398	26543.402344
1718.963867	26560.166016
1717.945313	26848.748047
1716.925781	26951.273438
1715.906250	26598.496094
1714.886719	26841.634766
1713.867188	26803.521484
1712.846680	27094.181641
1711.826172	27170.367188
1710.806641	27163.171875
1709.786133	27089.308594
1708.764648	27174.972656
1707.744141	27315.351563
1706.722656	27174.863281
1705.701172	27500.779297
1704.679688	27536.347656
1703.658203	27262.695313
1702.636719	27084.261719
1701.614258	27433.736328
1700.592773	27405.099609
1699.570313	26912.990234
1698.547852	27623.521484
1697.524414	27457.056641
1696.501953	27224.132813
1695.478516	27549.453125
1694.456055	27720.298828
1693.432617	27456.583984
1692.408203	27826.789063
1691.384766	27883.564453
1690.360352	27793.189453
1689.336914	27667.257813
1688.312500	28041.904297
1687.288086	28200.583984
1686.262695	27877.816406
1685.238281	28069.660156
1684.212891	28022.011719
1683.187500	28315.673828
1682.162109	28393.589844
1681.136719	28466.736328
1680.110352	28416.677734
1679.084961	28324.003906
1678.058594	28352.128906
1677.032227	28465.476563
1676.005859	28538.541016
1674.978516	28190.298828
1673.952148	28646.728516
1672.924805	28984.699219
1671.897461	28835.259766
1670.870117	28981.503906
1669.842773	28732.800781
1668.814453	28767.890625
1667.787109	29143.355469
1666.758789	29152.361328
1665.730469	29114.103516
1664.701172	29217.609375
1663.672852	29264.388672
1662.643555	29136.382813
1661.615234	29074.537109
1660.585938	29288.933594
1659.555664	29904.529297
1658.526367	29927.537109
1657.497070	29379.509766
1656.466797	29997.117188
1655.436523	29479.933594
1654.406250	29670.439453
1653.375977	29599.144531
1652.344727	29346.345703
1651.313477	29847.906250
1650.282227	29731.837891
1649.250977	29575.753906
1648.219727	29787.234375
1647.188477	30095.210938
1646.156250	30099.281250
1645.124023	29886.728516
1644.091797	29827.269531
1643.059570	30014.972656
1642.027344	30233.203125
1640.994141	29799.597656
1639.961914	29966.031250
1638.928711	30292.345703
1637.895508	29866.011719
1636.861328	30013.531250
1635.828125	30257.380859
1634.793945	30165.033203
1633.759766	30145.568359
1632.725586	30224.791016
1631.691406	30235.857422
1630.656250	30115.392578
1629.622070	30058.371094
1628.586914	30132.851563
1627.551758	30430.314453
1626.516602	30873.187500
1625.480469	30311.541016
1624.445313	30916.164063
1623.409180	30866.091797
1622.373047	30665.931641
1621.336914	30723.789063
1620.300781	31189.574219
1619.263672	31254.347656
1618.227539	31417.531250
1617.190430	31927.464844
1616.153320	32024.867188
1615.115234	32424.412109
1614.078125	32327.298828
1613.040039	32679.812500
1612.001953	33273.343750
1610.963867	32719.671875
1609.925781	32777.035156
1608.887695	32862.457031
1607.848633	32561.820313
1606.809570	32672.978516
1605.770508	31958.527344
1604.731445	31567.015625
1603.692383	31259.804688
1602.652344	31233.199219
1601.613281	30916.806641
1600.573242	30654.269531
1599.533203	30438.546875
1598.492188	30416.773438
1597.452148	30021.343750
1596.411133	30300.859375
1595.370117	29721.160156
1594.329102	29699.523438
1593.288086	29782.912109
1592.247070	29441.607422
1591.205078	29643.986328
1590.163086	29641.033203
1589.121094	29535.470703
1588.079102	29077.867188
1587.036133	29151.943359
1585.994141	29319.226563
1584.951172	29307.005859
1583.908203	29401.968750
1582.865234	29478.259766
1581.822266	29538.218750
1580.778320	29684.318359
1579.734375	29655.740234
1578.691406	29662.089844
1577.646484	29186.646484
1576.602539	29805.095703
1575.558594	29657.851563
1574.513672	29692.105469
1573.468750	29528.652344
1572.423828	29553.613281
1571.378906	29873.839844
1570.333008	29696.490234
1569.288086	29428.558594
1568.242188	29269.939453
1567.196289	29111.375000
1566.150391	28934.283203
1565.103516	28847.830078
1564.057617	28773.017578
1563.010742	28505.533203
1561.963867	28402.951172
1560.916992	28799.386719
1559.869141	28462.421875
1558.822266	28376.138672
1557.774414	28603.033203
1556.726563	28488.921875
1555.678711	28300.652344
1554.630859	28321.099609
1553.582031	28427.302734
1552.534180	28206.693359
1551.485352	27988.480469
1550.436523	27981.164063
1549.386719	28008.593750
1548.337891	27850.742188
1547.288086	28081.943359
1546.238281	27583.820313
1545.188477	27479.361328
1544.138672	27909.525391
1543.088867	27476.482422
1542.038086	27517.839844
1540.987305	27808.982422
1539.936523	27526.503906
1538.885742	27651.064453
1537.834961	27558.275391
1536.783203	27324.527344
1535.731445	27365.861328
1534.679688	27009.773438
1533.627930	27293.705078
1532.576172	27002.423828
1531.523438	27168.482422
1530.471680	27212.109375
1529.418945	27186.466797
1528.366211	26840.017578
1527.312500	26634.455078
1526.259766	26724.285156
1525.206055	26784.095703
1524.152344	26341.093750
1523.098633	26603.873047
1522.044922	26380.085938
1520.990234	26481.402344
1519.936523	26308.419922
1518.881836	26087.107422
1517.827148	26299.005859
1516.772461	26275.871094
1515.716797	26077.710938
1514.662109	26061.529297
1513.606445	26335.437500
1512.550781	26049.900391
1511.495117	26054.443359
1510.438477	25987.650391
1509.382813	26093.427734
1508.326172	25844.935547
1507.269531	26164.578125
1506.212891	26015.033203
1505.155273	26134.517578
1504.098633	25752.876953
1503.041016	25619.570313
1501.983398	25968.830078
1500.925781	25883.773438
1499.867188	25872.246094
1498.809570	25817.089844
1497.750977	25773.431641
1496.692383	25559.910156
1495.633789	25695.341797
1494.575195	25816.953125
1493.515625	25715.962891
1492.457031	25876.523438
1491.397461	25619.589844
1490.337891	25424.664063
1489.277344	25449.914063
1488.217773	25809.839844
1487.157227	25408.705078
1486.096680	25692.886719
1485.036133	25340.027344
1483.975586	25356.101563
1482.915039	25546.234375
1481.853516	25447.767578
1480.791992	25280.650391
1479.730469	25358.525391
1478.668945	25443.236328
1477.606445	25415.791016
1476.544922	25676.625000
1475.482422	25322.041016
1474.419922	25395.257813
1473.357422	25415.857422
1472.293945	25527.894531
1471.231445	25491.314453
1470.167969	25516.451172
1469.104492	25363.349609
1468.041016	25276.554688
1466.976563	25708.296875
1465.913086	25112.189453
1464.848633	25399.953125
1463.784180	25393.111328
1462.719727	25498.115234
1461.655273	25383.998047
1460.589844	25520.908203
1459.524414	25603.017578
1458.458984	25867.566406
1457.393555	25586.984375
1456.328125	25641.673828
1455.261719	25379.468750
1454.196289	25773.781250
1453.129883	25589.125000
1452.063477	25336.181641
1450.996094	25358.968750
1449.929688	25486.515625
1448.862305	25579.859375
1447.794922	25600.308594
1446.727539	25629.857422
1445.660156	25502.351563
1444.591797	25857.310547
1443.524414	25722.980469
1442.456055	25877.591797
1441.387695	26202.722656
1440.318359	25916.046875
1439.250000	26084.179688
1438.180664	25952.197266
1437.111328	26249.804688
1436.041992	26340.523438
1434.972656	26197.205078
1433.903320	26333.328125
1432.833008	26301.341797
1431.762695	26144.480469
1430.692383	26235.130859
1429.622070	26325.748047
1428.550781	26416.332031
1427.480469	26409.314453
1426.409180	26660.921875
1425.337891	26386.208984
1424.266602	26553.818359
1423.194336	26871.013672
1422.122070	26884.318359
1421.050781	26836.417969
1419.978516	26915.439453
1418.905273	27302.578125
1417.833008	27055.271484
1416.759766	26846.558594
1415.687500	27339.931641
1414.614258	26660.296875
1413.540039	26639.654297
1412.466797	26714.078125
1411.392578	26731.900391
1410.319336	26638.851563
1409.245117	26297.003906
1408.169922	26075.148438
1407.095703	26357.638672
1406.020508	26090.632813
1404.946289	26565.158203
1403.871094	26506.134766
1402.794922	26804.158203
1401.719727	26645.703125
1400.643555	26426.314453
1399.568359	26674.501953
1398.492188	26529.701172
1397.415039	26585.878906
1396.338867	26427.599609
1395.261719	26307.744141
1394.185547	26363.927734
1393.108398	26381.740234
1392.031250	26446.912109
1390.953125	26604.521484
1389.875977	26356.212891
1388.797852	26597.191406
1387.719727	26578.876953
1386.641602	26646.201172
1385.562500	26821.654297
1384.484375	26632.093750
1383.405273	26949.380859
1382.326172	27151.703125
1381.247070	26829.343750
1380.166992	26475.582031
1379.087891	26806.167969
1378.007813	26583.054688
1376.927734	26573.763672
1375.847656	26658.953125
1374.767578	26534.945313
1373.686523	26689.818359
1372.605469	26253.333984
1371.524414	26313.789063
1370.443359	26396.695313
1369.362305	26108.802734
1368.280273	26373.695313
1367.199219	26144.312500
1366.117188	25888.060547
1365.034180	25977.699219
1363.952148	26148.128906
1362.870117	26282.580078
1361.787109	25927.736328
1360.704102	26118.271484
1359.621094	26151.697266
1358.537109	26308.476563
1357.454102	26083.953125
1356.370117	25969.376953
1355.286133	25830.181641
1354.202148	25776.208984
1353.118164	26336.289063
1352.033203	25869.972656
1350.948242	25807.056641
1349.863281	25824.796875
1348.778320	25345.384766
1347.693359	25649.789063
1346.607422	25640.679688
1345.521484	25237.656250
1344.435547	25436.736328
1343.349609	25432.142578
1342.263672	25530.449219
1341.176758	25405.064453
1340.090820	25442.962891
1339.003906	25179.021484
1337.916016	25368.947266
1336.829102	25216.859375
1335.741211	24993.318359
1334.654297	25270.304688
1333.566406	25207.662109
1332.478516	25296.906250
1331.389648	25475.435547
1330.301758	25401.623047
1329.212891	25731.851563
1328.124023	25254.078125
1327.035156	25472.644531
1325.945313	25363.187500
1324.856445	25813.625000
1323.766602	25788.888672
1322.676758	25692.808594
1321.586914	26131.792969
1320.496094	25721.410156
1319.406250	25964.123047
1318.315430	26171.095703
1317.224609	26188.640625
1316.133789	26482.359375
1315.041992	26328.369141
1313.951172	26472.781250
1312.859375	26229.804688
1311.767578	26369.728516
1310.675781	26487.347656
1309.583008	26633.847656
1308.491211	26967.146484
1307.398438	26590.849609
1306.305664	26272.503906
1305.212891	26241.070313
1304.119141	25827.318359
1303.026367	26089.337891
1301.932617	26113.503906
1300.838867	25862.173828
1299.744141	26463.892578
1298.650391	26494.636719
1297.555664	26536.468750
1296.461914	27099.996094
1295.366211	26810.976563
1294.271484	26994.757813
1293.176758	26987.650391
1292.081055	26887.371094
1290.985352	26926.863281
1289.889648	26972.992188
1288.793945	26655.478516
1287.697266	26326.996094
1286.601563	26484.025391
1285.504883	26250.978516
1284.408203	26057.896484
1283.311523	26221.533203
1282.213867	26145.908203
1281.116211	25944.087891
1280.018555	25957.099609
1278.920898	25728.822266
1277.823242	25739.652344
1276.725586	25885.458984
1275.626953	25436.074219
1274.528320	25842.896484
1273.429688	25464.451172
1272.330078	25607.986328
1271.231445	25249.617188
1270.131836	25052.734375
1269.032227	25039.351563
1267.932617	25021.554688
1266.833008	24983.880859
1265.732422	24628.150391
1264.632813	24943.904297
1263.532227	24502.195313
1262.430664	24341.013672
1261.330078	24433.714844
1260.228516	24376.320313
1259.127930	24160.083984
1258.026367	24502.044922
1256.924805	24111.619141
1255.822266	24065.347656
1254.720703	24314.533203
1253.618164	24164.630859
1252.515625	23979.519531
1251.413086	24162.472656
1250.309570	24076.570313
1249.207031	24376.187500
1248.103516	24138.308594
1247.000000	24323.300781
1245.895508	24043.685547
1244.791992	24012.906250
1243.687500	24034.957031
1242.583008	24056.998047
1241.478516	23843.630859
1240.374023	23760.117188
1239.269531	23859.164063
1238.164063	24138.478516
1237.058594	23883.476563
1235.953125	24000.029297
1234.847656	23914.359375
1233.741211	23793.564453
1232.635742	23894.689453
1231.529297	23896.939453
1230.422852	23736.681641
1229.315430	23861.910156
1228.208984	24050.753906
1227.101563	24041.994141
1225.994141	23745.769531
1224.886719	23734.873047
1223.779297	23824.884766
1222.670898	23735.019531
1221.562500	24055.244141
1220.454102	23776.818359
1219.345703	23623.439453
1218.237305	24055.279297
1217.127930	23750.707031
1216.018555	23507.589844
1214.909180	23785.882813
1213.799805	23637.015625
1212.690430	23409.375000
1211.580078	23470.794922
1210.469727	23433.695313
1209.359375	23567.304688
1208.249023	23668.044922
1207.138672	23812.500000
1206.027344	23792.857422
1204.916016	23211.203125
1203.804688	23561.185547
1202.693359	23438.851563
1201.581055	23552.613281
1200.469727	23911.080078
1199.357422	23985.384766
1198.245117	23994.126953
1197.131836	23957.000000
1196.019531	23828.171875
1194.906250	23775.802734
1193.792969	24173.125000
1192.679688	23830.441406
1191.566406	23682.085938
1190.452148	23865.400391
1189.337891	23985.388672
1188.223633	23784.742188
1187.109375	23867.630859
1185.995117	23719.398438
1184.879883	23723.798828
1183.764648	23828.443359
1182.649414	23795.779297
1181.534180	23597.558594
1180.418945	23649.890625
1179.302734	23922.152344
1178.186523	23904.730469
1177.070313	23867.722656
1175.954102	23615.251953
1174.837891	23854.675781
1173.720703	23654.513672
1172.603516	23687.183594
1171.486328	23763.339844
1170.369141	23713.345703
1169.250977	23693.804688
1168.132813	23832.953125
1167.015625	23687.341797
1165.896484	23780.806641
1164.778320	23646.119141
1163.660156	23765.621094
1162.541016	23548.457031
1161.421875	23581.076172
1160.302734	23709.207031
1159.182617	23600.695313
1158.063477	23431.458984
1156.943359	23418.505859
1155.823242	23678.902344
1154.703125	23236.445313
1153.582031	23425.212891
1152.461914	23403.595703
1151.340820	23290.935547
1150.219727	23269.347656
1149.097656	23304.109375
1147.976563	23165.527344
1146.854492	23315.101563
1145.732422	23066.109375
1144.610352	23228.638672
1143.488281	23237.390625
1142.365234	23311.076172
1141.243164	23393.392578
1140.120117	23419.416016
1138.996094	23441.103516
1137.873047	23133.994141
1136.750000	23512.564453
1135.625977	23250.960938
1134.501953	23473.714844
1133.377930	23482.396484
1132.252930	23508.365234
1131.127930	23547.285156
1130.003906	23495.458984
1128.878906	23780.595703
1127.752930	23158.632813
1126.627930	23478.269531
1125.501953	23301.283203
1124.375977	23227.960938
1123.250000	23474.037109
1122.124023	23450.332031
1120.997070	23474.089844
1119.871094	23418.039063
1118.744141	23344.755859
1117.617188	23299.527344
1116.489258	23422.449219
1115.362305	23715.582031
1114.234375	23513.007813
1113.106445	23383.755859
1111.978516	23422.560547
1110.849609	23168.460938
1109.721680	23265.427734
1108.592773	23132.003906
1107.463867	23411.894531
1106.333984	23265.580078
1105.205078	23401.183594
1104.075195	23371.087891
1102.945313	23272.177734
1101.815430	23768.976563
1100.685547	23250.765625
1099.554688	23556.064453
1098.424805	23332.529297
1097.293945	23659.189453
1096.162109	23794.513672
1095.031250	23281.060547
1093.899414	23313.312500
1092.768555	23397.085938
1091.636719	23283.312500
1090.503906	23448.626953
1089.372070	23455.066406
1088.239258	23442.191406
1087.106445	23212.638672
1085.973633	23006.765625
1084.840820	23079.757813
1083.708008	22961.892578
1082.574219	23298.548828
1081.440430	23034.933594
1080.306641	23375.738281
1079.171875	23174.337891
1078.038086	23337.187500
1076.903320	23086.605469
1075.768555	23219.427734
1074.633789	23071.726563
1073.498047	23371.470703
1072.363281	23050.433594
1071.227539	23225.958984
1070.091797	23114.730469
1068.956055	23249.535156
1067.819336	22939.445313
1066.682617	23191.835938
1065.546875	23217.517578
1064.409180	23339.375000
1063.272461	23422.720703
1062.135742	23303.044922
1060.998047	23478.224609
1059.860352	23170.619141
1058.722656	23166.371094
1057.583984	23215.503906
1056.446289	23273.156250
1055.307617	23130.156250
1054.168945	23364.919922
1053.029297	23074.736328
1051.890625	23089.703125
1050.750977	23179.312500
1049.611328	22878.656250
1048.471680	23358.429688
1047.332031	23051.453125
1046.191406	23132.474609
1045.051758	23023.820313
1043.911133	22783.115234
1042.769531	23153.828125
1041.628906	22896.148438
1040.487305	22874.912109
1039.346680	23081.476563
1038.205078	23062.341797
1037.062500	22990.009766
1035.920898	23166.646484
1034.778320	23204.941406
1033.635742	23196.429688
1032.493164	22941.238281
1031.350586	23323.988281
1030.207031	23168.777344
1029.063477	23472.703125
1027.919922	23213.394531
1026.776367	23160.267578
1025.632813	23168.759766
1024.488281	23060.437500
1023.343750	22869.341797
1022.199219	23196.335938
1021.054688	23005.281250
1019.910156	22964.978516
1018.764648	23196.287109
1017.619141	23079.587891
1016.473633	23374.421875
1015.327148	23111.402344
1014.181641	22999.019531
1013.035156	23306.421875
1011.888672	22996.925781
1010.742188	22927.007813
1009.594727	23499.093750
1008.448242	23299.886719
1007.300781	23071.097656
1006.153320	23373.908203
1005.005859	23187.533203
1003.857422	23748.457031
1002.708984	23667.900391
1001.560547	23587.371094
1000.412109	23661.312500
999.263672	23900.216797
998.114258	24477.408203
996.965820	24327.007813
995.816406	24089.986328
994.666016	24337.083984
993.516602	24030.406250
992.366211	23861.177734
991.215820	23626.523438
990.065430	23649.291016
988.915039	23672.058594
987.763672	23694.845703
986.613281	23717.613281
985.461914	23740.398438
984.309570	23763.205078
983.158203	23785.992188
982.005859	23740.525391
980.854492	23695.099609
979.701172	23649.593750
978.548828	23604.128906
977.396484	23558.662109
976.243164	23513.158203
975.089844	23500.400391
973.936523	23548.742188
972.783203	23664.464844
971.628906	23470.574219
970.474609	23474.673828
969.320313	23944.009766
968.166016	23705.972656
967.010742	23747.902344
965.856445	23747.734375
964.701172	23688.667969
963.545898	23774.742188
962.390625	23688.351563
961.234375	23744.957031
960.078125	23662.806641
958.921875	23784.544922
957.765625	23595.250000
956.609375	23851.412109
955.452148	23639.066406
954.294922	23796.417969
953.137695	23636.652344
951.980469	23691.076172
950.822266	23770.667969
949.665039	23751.595703
948.506836	23562.576172
947.347656	23858.216797
946.189453	23621.005859
945.030273	23467.761719
943.872070	23576.652344
942.712891	23788.216797
941.552734	23744.007813
940.393555	23423.212891
939.233398	23793.912109
938.073242	23858.648438
936.913086	23726.494141
935.752930	23736.773438
934.591797	23793.107422
933.430664	24201.068359
932.269531	23853.388672
931.108398	23886.648438
929.947266	23961.736328
928.785156	23683.314453
927.623047	24028.177734
926.460938	23762.386719
925.298828	24052.753906
924.135742	24071.304688
922.972656	24133.730469
921.810547	24150.167969
920.646484	24300.287109
919.483398	23938.664063
918.319336	24259.992188
917.155273	24380.777344
915.991211	24155.013672
914.827148	24204.814453
913.662109	24181.564453
912.498047	24354.423828
911.333008	24243.548828
910.167969	24243.240234
909.001953	24659.943359
907.836914	24507.375000
906.670898	24663.335938
905.504883	24758.806641
904.337891	24397.949219
903.171875	24397.607422
902.004883	24628.447266
900.837891	24588.496094
899.670898	24523.574219
898.503906	24639.771484
897.335938	24612.324219
896.167969	24495.410156
895.000000	24280.755859
893.832031	24582.035156
892.663086	24839.527344
891.495117	24496.009766
890.326172	24659.871094
889.156250	24588.798828
887.987305	24598.796875
886.817383	24733.455078
885.648438	24647.863281
884.478516	24601.763672
883.307617	24935.697266
882.137695	24762.910156
880.966797	24714.736328
879.795898	24809.785156
878.625000	24892.345703
877.454102	24858.693359
876.282227	25092.636719
875.110352	25015.406250
873.938477	25037.730469
872.766602	25254.921875
871.593750	25366.320313
870.421875	25336.755859
869.249023	25120.722656
868.076172	25404.023438
866.902344	25475.955078
865.729492	25442.246094
864.555664	25553.480469
863.381836	25474.224609
862.207031	25579.199219
861.033203	25920.035156
859.858398	25789.029297
858.683594	26024.203125
857.508789	26033.857422
856.333984	25902.902344
855.158203	25891.900391
853.982422	25496.439453
852.806641	25869.906250
851.630859	25953.958984
850.454102	25746.697266
849.278320	25863.787109
848.101563	25904.425781
846.924805	26215.523438
845.747070	25735.871094
844.570313	26036.562500
843.392578	26167.929688
842.214844	26136.255859
841.036133	26036.521484
839.858398	26330.744141
838.679688	26435.148438
837.500977	26467.355469
836.322266	26219.216797
835.143555	26607.982422
833.963867	26792.611328
832.784180	26657.855469
831.604492	26232.724609
830.424805	26610.896484
829.244141	26661.552734
828.063477	26232.537109
826.882813	26408.791016
825.702148	25986.152344
824.521484	25960.755859
823.339844	26307.695313
822.158203	26045.726563
820.976563	26156.044922
819.794922	26122.408203
818.612305	25969.560547
817.430664	26299.728516
816.248047	25883.892578
815.064453	25890.814453
813.881836	25897.730469
812.698242	25904.654297
811.514648	25911.576172
810.331055	25918.498047
809.147461	25925.419922
807.962891	25932.347656
806.778320	25972.667969
805.593750	26193.490234
804.409180	26022.496094
803.224609	26048.419922
802.039063	25785.255859
800.853516	25852.208984
799.667969	25621.966797
798.482422	25973.740234
797.295898	25800.921875
796.109375	25761.306641
794.922852	25852.769531
793.736328	25835.679688
792.548828	25912.761719
791.362305	25693.035156
790.174805	25753.742188
788.986328	25757.138672
787.798828	25603.017578
786.610352	25336.466797
785.421875	25444.222656
784.233398	25506.958984
783.044922	25628.949219
781.856445	25481.121094
780.666992	25462.078125
779.477539	25261.216797
778.288086	25628.267578
777.097656	25466.250000
775.907227	25236.912109
774.717773	25534.349609
773.526367	25582.666016
772.335938	25184.052734
771.144531	25422.162109
769.954102	25248.117188
768.762695	25492.242188
767.570313	25091.900391
766.378906	25439.939453
765.186523	25427.048828
763.994141	25340.794922
762.801758	25633.572266
761.609375	25693.992188
760.416016	25399.970703
759.222656	25358.582031
758.029297	25708.146484
756.835938	25862.146484
755.641602	25570.343750
754.447266	25821.988281
753.252930	26038.951172
752.058594	25714.726563
750.864258	25730.273438
749.668945	25902.392578
748.473633	25671.892578
747.278320	25563.439453
746.083008	25526.158203
744.886719	25431.996094
743.690430	25262.697266
742.494141	25418.455078
741.297852	25155.802734
740.100586	25737.912109
738.904297	25172.814453
737.707031	25233.072266
736.509766	24907.736328
735.311523	25067.435547
734.113281	25216.931641
732.916016	25070.257813
731.716797	25039.220703
730.518555	25223.099609
729.320313	24952.853516
728.121094	25043.453125
726.921875	25150.226563
725.721680	24965.228516
724.522461	25120.587891
723.322266	24858.707031
722.122070	24985.679688
720.921875	25001.261719
719.721680	25022.908203
718.520508	25076.923828
717.319336	25367.640625
716.118164	25162.640625
714.916992	25248.955078
713.714844	25015.742188
712.513672	25067.681641
711.311523	25103.429688
710.108398	25371.576172
708.906250	25364.818359
707.703125	25158.058594
706.500000	25193.757813
705.296875	25475.820313
704.093750	25376.164063
702.889648	25363.349609
701.685547	25594.759766
700.481445	25531.457031
699.277344	25508.529297
698.072266	25519.900391
696.868164	25414.291016
695.663086	25768.474609
694.457031	25531.808594
693.251953	25756.828125
692.045898	25558.542969
690.839844	25858.025391
689.633789	25877.367188
688.427734	26071.937500
687.220703	26139.562500
686.013672	26144.742188
684.806641	25896.271484
683.599609	25772.681641
682.391602	26055.625000
681.184570	25958.203125
679.976563	25989.556641
678.767578	26173.750000
677.559570	25953.697266
676.350586	26025.238281
675.141602	25905.796875
673.932617	25983.347656
672.723633	26199.513672
671.513672	26086.128906
670.303711	25761.886719
669.093750	26018.130859
667.883789	25926.925781
666.672852	26114.789063
665.462891	25732.572266
664.251953	25799.998047
663.040039	26080.066406
661.829102	25862.554688
660.617188	25376.378906
659.405273	25985.214844
658.193359	25880.109375
656.981445	26061.675781
655.768555	25904.488281
654.555664	25987.798828
653.342773	26020.996094
652.129883	25681.632813
650.916016	25973.201172
649.702148	26254.650391
648.488281	26195.683594
647.274414	26146.744141
646.059570	26464.017578
644.845703	26473.064453
643.630859	26576.121094
642.416016	26355.148438
641.200195	26236.234375
639.984375	26315.283203
638.769531	26436.277344
637.552734	26353.382813
636.336914	26088.695313
635.120117	26093.794922
633.904297	26040.966797
632.687500	26201.832031
631.469727	26358.640625
630.252930	25836.685547
629.035156	25783.941406
627.817383	25803.052734
626.599609	26061.562500
625.380859	25749.492188
624.163086	26013.894531
622.944336	26042.914063
621.724609	26044.009766
620.505859	25714.232422
619.286133	26135.873047
618.066406	25694.623047
616.846680	25695.777344
615.626953	25941.910156
614.406250	26108.296875
613.186523	25940.138672
611.965820	26076.601563
610.744141	25998.070313
609.523438	26367.279297
608.301758	26209.142578
607.080078	26053.050781
605.858398	26169.472656
604.635742	26299.765625
603.414063	26016.511719
602.191406	26120.945313
600.968750	25998.794922
599.745117	26331.675781
598.522461	26124.109375
597.298828	26522.380859
596.075195	26185.783203
594.850586	26405.208984
593.626953	26396.279297
592.402344	26087.675781
591.177734	26435.968750
589.953125	26363.548828
588.727539	26459.753906
587.501953	26530.140625
586.276367	26616.361328
585.050781	26383.386719
583.825195	26770.863281
582.598633	26821.316406
581.372070	26705.324219
580.145508	26731.998047
578.917969	26687.363281
577.691406	27215.001953
576.463867	27126.734375
575.236328	27182.994141
574.007813	27270.896484
572.780273	27400.316406
571.551758	27278.445313
570.323242	26960.806641
569.094727	27616.230469
567.865234	27183.968750
566.635742	27014.781250
565.406250	26800.199219
564.176758	27188.388672
562.947266	27228.714844
561.716797	27033.960938
560.486328	26947.902344
559.255859	26786.839844
558.024414	26655.451172
556.793945	27029.406250
555.562500	26554.638672
554.331055	26374.037109
553.098633	26739.939453
551.867188	26594.871094
550.634766	26499.152344
549.402344	26576.970703
548.168945	26351.189453
546.936523	26815.287109
545.703125	26695.949219
544.469727	26210.216797
543.236328	26471.193359
542.001953	26558.767578
540.767578	26482.880859
539.533203	26720.031250
538.298828	26777.982422
537.064453	26664.703125
535.829102	26740.345703
534.593750	26676.292969
533.358398	26254.312500
532.122070	26900.240234
530.886719	26922.695313
529.650391	26982.486328
528.414063	26806.419922
527.176758	26891.753906
525.940430	26788.457031
524.703125	27042.675781
523.465820	27080.781250
522.227539	27164.029297
520.990234	26956.710938
519.751953	26778.910156
518.513672	26919.072266
517.275391	27322.080078
516.036133	27140.384766
514.796875	26892.074219
513.557617	27161.519531
512.318359	27074.054688
511.079102	26861.175781
509.838867	27042.281250
508.598633	27182.171875
507.358398	27141.781250
506.117188	26966.257813
504.876953	27098.246094
503.635742	27110.751953
502.394531	26896.181641
501.152344	27077.033203
499.911133	27334.128906
498.668945	27131.371094
497.425781	27310.115234
496.183594	27430.121094
494.941406	27284.160156
493.698242	27204.720703
492.455078	27293.400391
491.210938	27344.917969
489.967773	27476.519531
488.723633	27135.335938
487.479492	27348.955078
486.235352	27369.173828
484.990234	27401.097656
483.745117	27876.105469
482.500000	27414.162109
481.254883	27791.423828
480.008789	27795.925781
478.763672	28089.097656
477.517578	27752.267578
476.271484	27776.267578
475.024414	28061.476563
473.777344	27882.708984
472.530273	27982.664063
471.283203	28100.115234
470.036133	27915.593750
468.788086	28184.919922
467.540039	28014.080078
466.291992	28158.685547
465.043945	27956.769531
463.794922	28188.902344
462.545898	28138.820313
461.296875	28259.943359
460.047852	28209.863281
458.797852	28605.115234
457.547852	28827.177734
456.297852	28522.367188
455.047852	29049.488281
453.796875	28410.531250
452.545898	28939.414063
451.294922	28797.968750
450.043945	28848.835938
448.792969	29025.890625
447.541016	29117.460938
446.289063	29117.771484
445.036133	29050.160156
443.784180	29498.666016
442.531250	29341.773438
441.278320	29376.945313
440.025391	29557.535156
438.771484	29195.210938
437.518555	29040.427734
436.264648	28947.718750
435.010742	29079.804688
433.755859	28706.218750
432.500977	28524.523438
431.246094	28602.388672
429.991211	28759.605469
428.736328	28461.853516
427.480469	29050.632813
426.224609	28925.154297
424.968750	28660.423828
423.712891	28625.976563
422.456055	28446.494141
421.199219	28704.068359
419.942383	28408.644531
418.685547	28530.826172
417.427734	28502.226563
416.169922	28520.007813
414.912109	28470.169922
413.654297	28350.818359
412.395508	28469.027344
411.136719	28571.744141
409.877930	28489.113281
408.619141	28576.343750
407.359375	29124.705078
406.099609	28694.757813
404.839844	28616.019531
403.580078	28375.316406
402.319336	28603.232422
401.059570	28443.585938
