#Wave		#Intensity
2001.242188	29469.199219
2000.272461	29619.589844
1999.302734	29499.140625
1998.333008	29471.439453
1997.363281	29553.976563
1996.392578	29380.998047
1995.422852	29318.267578
1994.452148	29573.554688
1993.481445	29272.982422
1992.510742	29037.591797
1991.540039	29127.619141
1990.568359	29590.435547
1989.596680	29350.105469
1988.625977	29084.847656
1987.654297	29307.343750
1986.681641	29329.728516
1985.709961	29522.103516
1984.738281	29591.931641
1983.765625	29036.960938
1982.792969	29346.718750
1981.820313	29106.759766
1980.847656	29306.492188
1979.874023	29059.128906
1978.901367	29413.605469
1977.927734	29233.712891
1976.954102	29757.763672
1975.980469	29350.771484
1975.006836	29106.105469
1974.032227	29021.187500
1973.058594	29098.425781
1972.083984	29230.501953
1971.109375	29138.121094
1970.134766	29070.703125
1969.160156	29195.234375
1968.184570	29075.492188
1967.209961	29100.308594
1966.234375	29443.994141
1965.258789	29354.158203
1964.283203	29080.064453
1963.306641	28905.664063
1962.331055	29037.531250
1961.354492	28875.640625
1960.377930	29019.908203
1959.401367	29037.226563
1958.424805	29064.488281
1957.447266	29213.617188
1956.470703	28773.300781
1955.493164	29136.263672
1954.515625	29195.800781
1953.538086	29305.029297
1952.560547	29088.664063
1951.582031	28986.671875
1950.604492	29359.208984
1949.625977	28916.914063
1948.647461	29189.996094
1947.668945	29058.255859
1946.689453	28802.431641
1945.710938	29043.119141
1944.731445	29117.449219
1943.751953	28849.341797
1942.772461	29367.740234
1941.792969	28851.642578
1940.813477	28908.589844
1939.833008	29310.166016
1938.852539	29200.912109
1937.873047	28957.851563
1936.891602	29007.300781
1935.911133	29346.628906
1934.930664	29036.779297
1933.949219	29271.951172
1932.967773	29001.843750
1931.986328	29150.277344
1931.004883	28999.111328
1930.023438	28724.238281
1929.041016	28795.923828
1928.059570	29293.160156
1927.077148	29156.914063
1926.094727	28822.839844
1925.112305	29248.089844
1924.128906	29000.654297
1923.146484	29119.177734
1922.163086	28923.753906
1921.179688	28851.960938
1920.196289	28837.021484
1919.212891	29056.773438
1918.228516	29192.466797
1917.245117	28804.574219
1916.260742	29103.222656
1915.276367	29140.087891
1914.291992	29418.826172
1913.307617	28932.447266
1912.322266	29028.537109
1911.336914	28956.839844
1910.352539	28529.990234
1909.367188	28729.669922
1908.380859	29165.980469
1907.395508	28985.835938
1906.409180	29106.457031
1905.423828	28721.843750
1904.437500	28697.093750
1903.451172	28866.966797
1902.463867	29029.388672
1901.477539	29255.781250
1900.490234	29046.289063
1899.503906	28932.875000
1898.516602	28721.048828
1897.528320	29087.601563
1896.541016	28701.128906
1895.553711	28954.394531
1894.565430	28769.763672
1893.577148	28703.234375
1892.588867	28826.050781
1891.600586	28754.617188
1890.611328	28830.679688
1889.623047	28737.150391
1888.633789	28931.123047
1887.644531	29112.742188
1886.655273	28967.632813
1885.666016	29001.837891
1884.675781	28962.371094
1883.686523	29065.298828
1882.696289	28640.490234
1881.706055	29050.183594
1880.715820	28745.750000
1879.724609	28941.855469
1878.734375	28897.529297
1877.743164	28912.072266
1876.751953	29066.363281
1875.760742	28992.617188
1874.769531	28840.466797
1873.778320	28953.025391
1872.786133	28859.734375
1871.793945	28536.207031
1870.801758	28511.599609
1869.809570	28839.626953
1868.817383	28704.794922
1867.824219	28792.773438
1866.832031	28959.039063
1865.838867	28748.394531
1864.845703	28924.394531
1863.851563	28596.408203
1862.858398	28845.744141
1861.865234	28789.322266
1860.871094	29089.876953
1859.876953	28784.087891
1858.882813	28620.162109
1857.887695	28810.623047
1856.893555	28768.908203
1855.898438	28920.189453
1854.904297	28734.369141
1853.909180	28812.339844
1852.913086	28724.261719
1851.917969	28748.503906
1850.922852	29221.812500
1849.926758	28755.472656
1848.930664	28577.189453
1847.934570	28947.824219
1846.938477	28857.369141
1845.941406	28718.173828
1844.945313	28769.197266
1843.948242	29015.212891
1842.951172	28578.720703
1841.954102	29048.863281
1840.956055	28968.224609
1839.958984	29016.716797
1838.960938	28777.802734
1837.962891	28633.939453
1836.964844	29011.136719
1835.966797	29008.464844
1834.968750	29005.794922
1833.969727	29003.121094
1832.970703	29000.447266
1831.971680	28997.773438
1830.972656	28995.099609
1829.973633	28992.425781
1828.973633	29317.966797
1827.974609	29191.263672
1826.974609	29205.566406
1825.974609	28947.710938
1824.974609	29187.992188
1823.973633	29170.705078
1822.973633	29255.427734
1821.972656	28839.906250
1820.971680	28939.220703
1819.970703	29036.070313
1818.968750	29030.955078
1817.967773	28897.236328
1816.965820	29328.837891
1815.964844	28986.505859
1814.961914	28969.271484
1813.959961	28881.724609
1812.958008	28937.242188
1811.955078	28815.794922
1810.953125	28905.232422
1809.950195	29188.484375
1808.947266	28984.681641
1807.943359	29199.996094
1806.940430	28906.654297
1805.936523	29071.054688
1804.932617	28990.878906
1803.928711	29239.921875
1802.924805	29084.720703
1801.920898	29287.683594
1800.916016	29113.173828
1799.911133	29178.183594
1798.907227	29264.937500
1797.901367	29109.863281
1796.896484	29435.931641
1795.891602	29411.402344
1794.885742	29611.632813
1793.879883	28987.845703
1792.874023	29444.156250
1791.868164	29477.609375
1790.862305	29112.576172
1789.855469	29288.531250
1788.848633	29430.625000
1787.842773	29044.066406
1786.834961	29420.238281
1785.828125	29096.550781
1784.821289	29327.833984
1783.813477	29489.085938
1782.805664	29245.134766
1781.797852	29401.519531
1780.790039	29126.328125
1779.782227	29335.703125
1778.773438	29537.773438
1777.764648	29351.849609
1776.755859	29226.216797
1775.747070	29553.441406
1774.738281	29659.000000
1773.729492	29463.550781
1772.719727	29585.935547
1771.709961	29234.117188
1770.700195	29467.195313
1769.690430	29526.394531
1768.680664	29585.593750
1767.669922	29644.849609
1766.659180	29704.105469
1765.648438	29763.361328
1764.637695	29611.462891
1763.626953	29935.509766
1762.615234	29692.318359
1761.604492	29595.771484
1760.592773	29869.199219
1759.581055	29712.607422
1758.569336	30180.425781
1757.556641	29514.832031
1756.544922	29927.306641
1755.532227	29701.207031
1754.519531	30082.304688
1753.506836	29887.447266
1752.494141	29898.955078
1751.480469	29732.976563
1750.466797	29893.179688
1749.454102	30130.048828
1748.440430	30220.605469
1747.425781	30208.072266
1746.412109	30284.203125
1745.397461	30185.410156
1744.383789	30148.929688
1743.369141	30215.449219
1742.353516	30617.183594
1741.338867	30312.498047
1740.324219	30773.916016
1739.308594	30608.119141
1738.292969	30700.812500
1737.277344	30487.236328
1736.261719	30613.406250
1735.245117	30359.259766
1734.229492	30958.861328
1733.212891	30774.076172
1732.196289	31100.888672
1731.179688	31124.064453
1730.162109	30870.046875
1729.145508	31249.224609
1728.127930	31140.982422
1727.110352	31359.964844
1726.092773	31258.900391
1725.075195	31284.402344
1724.056641	31882.767578
1723.039063	31915.308594
1722.020508	32229.398438
1721.001953	32514.746094
1719.983398	32189.361328
1718.963867	32209.894531
1717.945313	32259.033203
1716.925781	32444.041016
1715.906250	32829.203125
1714.886719	32504.044922
1713.867188	33082.058594
1712.846680	32980.906250
1711.826172	32682.089844
1710.806641	32662.011719
1709.786133	32868.136719
1708.764648	32805.179688
1707.744141	33011.207031
1706.722656	33071.992188
1705.701172	32830.574219
1704.679688	33017.449219
1703.658203	33368.378906
1702.636719	33343.437500
1701.614258	32990.386719
1700.592773	33117.664063
1699.570313	33140.316406
1698.547852	33134.441406
1697.524414	33487.343750
1696.501953	33117.945313
1695.478516	33468.347656
1694.456055	33386.421875
1693.432617	33375.750000
1692.408203	33654.699219
1691.384766	33335.433594
1690.360352	33673.613281
1689.336914	33582.226563
1688.312500	34010.386719
1687.288086	33857.300781
1686.262695	33863.152344
1685.238281	33921.160156
1684.212891	33706.539063
1683.187500	34155.617188
1682.162109	34398.375000
1681.136719	34115.066406
1680.110352	34424.070313
1679.084961	34235.593750
1678.058594	34070.863281
1677.032227	34327.617188
1676.005859	34951.191406
1674.978516	34514.238281
1673.952148	34470.253906
1672.924805	34279.593750
1671.897461	34950.035156
1670.870117	34853.960938
1669.842773	35105.519531
1668.814453	34747.015625
1667.787109	35064.687500
1666.758789	35086.824219
1665.730469	34969.531250
1664.701172	35057.824219
1663.672852	34898.062500
1662.643555	35054.820313
1661.615234	35362.644531
1660.585938	35571.203125
1659.555664	35024.343750
1658.526367	35799.289063
1657.497070	35523.933594
1656.466797	35574.246094
1655.436523	35440.550781
1654.406250	35601.695313
1653.375977	35338.355469
1652.344727	35108.113281
1651.313477	35608.648438
1650.282227	35409.074219
1649.250977	35593.636719
1648.219727	35450.671875
1647.188477	35639.871094
1646.156250	35463.976563
1645.124023	35999.226563
1644.091797	35790.367188
1643.059570	36153.542969
1642.027344	35991.796875
1640.994141	36223.042969
1639.961914	35915.480469
1638.928711	36097.261719
1637.895508	36027.347656
1636.861328	35849.300781
1635.828125	35972.218750
1634.793945	35911.761719
1633.759766	36248.472656
1632.725586	36392.394531
1631.691406	36726.546875
1630.656250	36292.546875
1629.622070	36206.246094
1628.586914	36988.699219
1627.551758	36789.625000
1626.516602	36841.753906
1625.480469	36687.359375
1624.445313	37457.429688
1623.409180	37765.101563
1622.373047	37397.191406
1621.336914	38124.511719
1620.300781	38202.128906
1619.263672	38544.605469
1618.227539	38840.082031
1617.190430	39625.203125
1616.153320	40297.585938
1615.115234	40702.687500
1614.078125	41049.089844
1613.040039	41599.085938
1612.001953	41589.339844
1610.963867	41848.785156
1609.925781	42241.535156
1608.887695	42035.117188
1607.848633	41328.105469
1606.809570	41061.101563
1605.770508	40487.816406
1604.731445	39800.160156
1603.692383	39026.246094
1602.652344	39005.269531
1601.613281	38542.593750
1600.573242	38129.152344
1599.533203	37928.453125
1598.492188	37206.941406
1597.452148	37506.246094
1596.411133	36985.867188
1595.370117	36948.929688
1594.329102	36708.929688
1593.288086	36641.710938
1592.247070	36434.515625
1591.205078	36281.046875
1590.163086	36293.238281
1589.121094	36498.984375
1588.079102	36009.828125
1587.036133	36089.664063
1585.994141	35614.738281
1584.951172	35650.332031
1583.908203	35879.304688
1582.865234	35686.539063
1581.822266	35687.164063
1580.778320	35608.605469
1579.734375	35918.906250
1578.691406	35591.250000
1577.646484	35729.203125
1576.602539	35732.136719
1575.558594	35790.910156
1574.513672	35772.894531
1573.468750	36189.808594
1572.423828	36176.375000
1571.378906	36169.921875
1570.333008	36040.265625
1569.288086	35887.410156
1568.242188	36176.121094
1567.196289	35451.753906
1566.150391	35610.351563
1565.103516	35285.812500
1564.057617	35188.953125
1563.010742	34671.902344
1561.963867	35074.253906
1560.916992	34513.308594
1559.869141	34532.671875
1558.822266	33978.980469
1557.774414	34325.496094
1556.726563	34254.425781
1555.678711	34245.992188
1554.630859	34562.128906
1553.582031	33832.753906
1552.534180	34429.269531
1551.485352	34423.121094
1550.436523	34067.148438
1549.386719	34146.765625
1548.337891	34068.871094
1547.288086	33652.949219
1546.238281	33677.031250
1545.188477	33835.351563
1544.138672	33692.765625
1543.088867	33749.218750
1542.038086	33421.625000
1540.987305	33505.859375
1539.936523	33652.500000
1538.885742	33653.421875
1537.834961	33541.062500
1536.783203	33625.210938
1535.731445	33658.484375
1534.679688	33375.207031
1533.627930	33124.371094
1532.576172	33176.187500
1531.523438	33498.171875
1530.471680	33586.843750
1529.418945	33386.929688
1528.366211	33297.871094
1527.312500	33402.679688
1526.259766	33399.011719
1525.206055	33582.195313
1524.152344	33202.554688
1523.098633	33148.191406
1522.044922	33458.121094
1520.990234	32795.167969
1519.936523	33001.335938
1518.881836	33085.300781
1517.827148	32577.128906
1516.772461	33015.871094
1515.716797	33102.085938
1514.662109	32753.066406
1513.606445	32979.730469
1512.550781	33006.054688
1511.495117	33214.179688
1510.438477	32925.207031
1509.382813	32979.128906
1508.326172	32849.015625
1507.269531	32817.835938
1506.212891	33124.675781
1505.155273	32907.238281
1504.098633	32922.031250
1503.041016	32773.652344
1501.983398	32809.144531
1500.925781	32761.916016
1499.867188	32466.638672
1498.809570	32796.109375
1497.750977	32771.867188
1496.692383	33066.726563
1495.633789	32916.203125
1494.575195	32937.843750
1493.515625	32764.449219
1492.457031	32818.222656
1491.397461	33041.703125
1490.337891	33136.683594
1489.277344	33210.992188
1488.217773	32634.238281
1487.157227	33050.109375
1486.096680	33163.347656
1485.036133	33070.339844
1483.975586	33114.808594
1482.915039	32836.324219
1481.853516	33267.808594
1480.791992	32753.576172
1479.730469	32823.242188
1478.668945	33119.464844
1477.606445	33408.710938
1476.544922	33059.542969
1475.482422	33465.351563
1474.419922	32704.628906
1473.357422	32835.960938
1472.293945	33483.929688
1471.231445	32863.039063
1470.167969	33001.125000
1469.104492	33342.523438
1468.041016	33188.042969
1466.976563	33106.710938
1465.913086	32936.339844
1464.848633	33135.933594
1463.784180	32993.011719
1462.719727	33655.871094
1461.655273	33378.257813
1460.589844	33401.929688
1459.524414	33865.882813
1458.458984	33659.085938
1457.393555	33356.582031
1456.328125	33697.164063
1455.261719	33221.503906
1454.196289	33744.324219
1453.129883	33337.191406
1452.063477	33802.839844
1450.996094	33994.957031
1449.929688	33626.710938
1448.862305	33693.542969
1447.794922	33689.769531
1446.727539	33947.781250
1445.660156	34103.277344
1444.591797	33906.003906
1443.524414	34150.179688
1442.456055	34116.750000
1441.387695	34449.496094
1440.318359	34284.132813
1439.250000	34757.687500
1438.180664	35244.707031
1437.111328	34988.375000
1436.041992	35113.882813
1434.972656	35243.882813
1433.903320	35301.152344
1432.833008	35367.480469
1431.762695	35379.289063
1430.692383	35490.984375
1429.622070	35838.699219
1428.550781	35775.523438
1427.480469	36005.070313
1426.409180	36463.664063
1425.337891	36602.273438
1424.266602	36940.398438
1423.194336	37092.476563
1422.122070	37097.140625
1421.050781	37387.390625
1419.978516	37484.910156
1418.905273	37210.808594
1417.833008	36839.390625
1416.759766	36943.746094
1415.687500	37274.519531
1414.614258	36733.472656
1413.540039	36353.347656
1412.466797	36455.449219
1411.392578	36342.531250
1410.319336	36313.367188
1409.245117	36037.640625
1408.169922	36135.191406
1407.095703	35751.054688
1406.020508	36339.230469
1404.946289	36000.398438
1403.871094	35835.714844
1402.794922	36574.953125
1401.719727	36267.886719
1400.643555	36186.816406
1399.568359	36539.394531
1398.492188	36268.621094
1397.415039	36171.785156
1396.338867	36384.222656
1395.261719	36438.605469
1394.185547	36729.890625
1393.108398	36662.363281
1392.031250	36845.230469
1390.953125	36879.183594
1389.875977	37075.472656
1388.797852	37404.695313
1387.719727	37364.148438
1386.641602	37494.882813
1385.562500	37436.304688
1384.484375	37517.417969
1383.405273	37240.375000
1382.326172	37260.687500
1381.247070	36652.808594
1380.166992	36855.558594
1379.087891	36938.945313
1378.007813	36691.503906
1376.927734	37134.871094
1375.847656	36275.613281
1374.767578	36520.972656
1373.686523	36761.746094
1372.605469	36238.007813
1371.524414	36233.722656
1370.443359	36422.718750
1369.362305	35843.148438
1368.280273	35975.976563
1367.199219	36216.578125
1366.117188	36120.210938
1365.034180	35714.003906
1363.952148	36253.109375
1362.870117	36756.105469
1361.787109	36733.765625
1360.704102	36837.085938
1359.621094	37005.425781
1358.537109	36940.429688
1357.454102	36953.949219
1356.370117	36781.355469
1355.286133	36393.609375
1354.202148	35943.242188
1353.118164	36138.445313
1352.033203	35551.605469
1350.948242	35840.894531
1349.863281	35493.976563
1348.778320	35346.488281
1347.693359	35181.140625
1346.607422	34545.746094
1345.521484	34825.996094
1344.435547	34873.414063
1343.349609	34616.531250
1342.263672	35106.886719
1341.176758	35006.609375
1340.090820	34832.574219
1339.003906	35119.167969
1337.916016	35088.234375
1336.829102	34885.222656
1335.741211	35223.039063
1334.654297	35402.109375
1333.566406	34870.785156
1332.478516	35049.851563
1331.389648	35336.031250
1330.301758	35441.269531
1329.212891	35530.847656
1328.124023	35187.437500
1327.035156	35602.796875
1325.945313	35752.523438
1324.856445	36002.570313
1323.766602	36422.011719
1322.676758	36513.531250
1321.586914	36825.722656
1320.496094	36792.316406
1319.406250	37821.910156
1318.315430	37886.371094
1317.224609	38509.953125
1316.133789	39405.039063
1315.041992	39306.609375
1313.951172	40446.136719
1312.859375	40525.636719
1311.767578	40522.757813
1310.675781	40533.230469
1309.583008	39938.535156
1308.491211	39186.113281
1307.398438	39025.566406
1306.305664	38653.824219
1305.212891	38631.265625
1304.119141	37961.867188
1303.026367	37970.554688
1301.932617	38274.769531
1300.838867	37830.179688
1299.744141	37925.507813
1298.650391	38027.464844
1297.555664	38282.593750
1296.461914	38484.347656
1295.366211	39123.292969
1294.271484	39244.925781
1293.176758	39437.515625
1292.081055	39019.964844
1290.985352	38478.355469
1289.889648	38420.382813
1288.793945	38331.386719
1287.697266	38020.738281
1286.601563	37758.964844
1285.504883	37169.312500
1284.408203	37271.144531
1283.311523	37437.179688
1282.213867	36759.308594
1281.116211	36413.843750
1280.018555	36613.148438
1278.920898	36252.335938
1277.823242	36334.296875
1276.725586	36009.066406
1275.626953	35874.222656
1274.528320	35493.890625
1273.429688	35801.507813
1272.330078	35434.589844
1271.231445	34928.527344
1270.131836	35059.238281
1269.032227	35145.703125
1267.932617	34553.785156
1266.833008	34801.582031
1265.732422	34706.917969
1264.632813	34632.164063
1263.532227	34776.027344
1262.430664	34513.640625
1261.330078	34542.695313
1260.228516	34366.507813
1259.127930	34340.417969
1258.026367	34232.710938
1256.924805	34083.136719
1255.822266	34006.386719
1254.720703	34090.617188
1253.618164	33941.144531
1252.515625	33474.351563
1251.413086	34001.546875
1250.309570	33971.140625
1249.207031	34079.523438
1248.103516	33809.050781
1247.000000	34042.933594
1245.895508	33776.964844
1244.791992	34136.230469
1243.687500	33852.734375
1242.583008	34361.484375
1241.478516	33756.843750
1240.374023	33946.480469
1239.269531	34001.894531
1238.164063	34044.093750
1237.058594	33892.816406
1235.953125	34091.078125
1234.847656	34291.460938
1233.741211	33788.664063
1232.635742	34127.425781
1231.529297	34108.046875
1230.422852	34418.078125
1229.315430	33876.097656
1228.208984	33946.773438
1227.101563	34232.515625
1225.994141	33971.746094
1224.886719	34511.882813
1223.779297	34525.351563
1222.670898	33887.433594
1221.562500	34396.585938
1220.454102	33940.886719
1219.345703	34000.480469
1218.237305	33974.574219
1217.127930	33788.718750
1216.018555	33754.093750
1214.909180	33618.722656
1213.799805	33658.601563
1212.690430	33781.671875
1211.580078	33504.062500
1210.469727	33493.593750
1209.359375	33975.523438
1208.249023	34146.574219
1207.138672	34398.507813
1206.027344	34099.160156
1204.916016	34232.914063
1203.804688	34287.910156
1202.693359	34224.832031
1201.581055	34651.367188
1200.469727	34223.308594
1199.357422	34619.093750
1198.245117	34475.175781
1197.131836	34661.097656
1196.019531	34781.445313
1194.906250	34700.882813
1193.792969	34725.128906
1192.679688	35098.558594
1191.566406	34823.773438
1190.452148	34893.792969
1189.337891	34510.078125
1188.223633	34379.484375
1187.109375	34357.960938
1185.995117	34196.921875
1184.879883	34075.167969
1183.764648	34282.535156
1182.649414	33862.300781
1181.534180	33978.132813
1180.418945	33854.324219
1179.302734	33595.542969
1178.186523	33661.277344
1177.070313	33426.566406
1175.954102	33398.714844
1174.837891	33299.054688
1173.720703	33458.343750
1172.603516	33299.972656
1171.486328	33574.472656
1170.369141	33159.542969
1169.250977	33136.105469
1168.132813	32982.250000
1167.015625	32832.800781
1165.896484	33161.449219
1164.778320	32957.703125
1163.660156	32801.816406
1162.541016	33108.570313
1161.421875	33172.015625
1160.302734	32703.550781
1159.182617	33318.375000
1158.063477	32991.113281
1156.943359	32974.246094
1155.823242	33078.871094
1154.703125	32888.476563
1153.582031	32648.267578
1152.461914	32416.820313
1151.340820	32454.261719
1150.219727	33141.914063
1149.097656	33164.039063
1147.976563	32739.830078
1146.854492	32675.369141
1145.732422	32898.984375
1144.610352	32940.621094
1143.488281	33460.714844
1142.365234	33177.535156
1141.243164	33377.082031
1140.120117	33481.347656
1138.996094	33431.968750
1137.873047	33521.039063
1136.750000	33545.199219
1135.625977	33906.660156
1134.501953	34038.832031
1133.377930	33548.441406
1132.252930	33747.621094
1131.127930	33518.906250
1130.003906	33977.250000
1128.878906	33927.847656
1127.752930	33440.078125
1126.627930	33824.773438
1125.501953	33630.785156
1124.375977	33680.757813
1123.250000	33864.503906
1122.124023	33280.097656
1120.997070	33608.375000
1119.871094	33751.050781
1118.744141	33796.636719
1117.617188	33484.312500
1116.489258	33391.968750
1115.362305	33174.660156
1114.234375	33196.609375
1113.106445	33408.136719
1111.978516	33130.625000
1110.849609	33400.230469
1109.721680	33656.816406
1108.592773	33446.144531
1107.463867	32972.953125
1106.333984	33343.531250
1105.205078	33429.953125
1104.075195	33565.824219
1102.945313	33673.679688
1101.815430	33366.457031
1100.685547	33592.562500
1099.554688	33702.500000
1098.424805	34098.250000
1097.293945	33498.917969
1096.162109	33898.855469
1095.031250	33536.070313
1093.899414	33454.765625
1092.768555	33455.085938
1091.636719	33262.183594
1090.503906	33262.535156
1089.372070	33333.707031
1088.239258	33087.285156
1087.106445	33029.742188
1085.973633	33126.652344
1084.840820	33028.371094
1083.708008	33211.011719
1082.574219	33129.902344
1081.440430	33486.066406
1080.306641	33428.503906
1079.171875	33182.414063
1078.038086	33510.519531
1076.903320	33191.679688
1075.768555	33275.539063
1074.633789	33040.355469
1073.498047	33603.714844
1072.363281	33235.855469
1071.227539	33302.523438
1070.091797	33330.656250
1068.956055	33407.972656
1067.819336	33076.773438
1066.682617	33184.042969
1065.546875	33432.371094
1064.409180	33400.593750
1063.272461	33657.335938
1062.135742	33608.433594
1060.998047	33489.050781
1059.860352	33713.593750
1058.722656	33408.437500
1057.583984	33504.800781
1056.446289	33259.562500
1055.307617	33676.070313
1054.168945	33386.078125
1053.029297	33578.378906
1051.890625	33139.183594
1050.750977	33662.042969
1049.611328	33510.867188
1048.471680	33114.558594
1047.332031	33293.937500
1046.191406	33324.062500
1045.051758	33586.437500
1043.911133	33659.101563
1042.769531	33625.238281
1041.628906	33216.558594
1040.487305	33483.011719
1039.346680	33653.566406
1038.205078	33434.542969
1037.062500	33300.718750
1035.920898	33428.656250
1034.778320	33273.605469
1033.635742	33054.804688
1032.493164	33295.417969
1031.350586	33276.546875
1030.207031	33453.257813
1029.063477	33070.921875
1027.919922	33757.597656
1026.776367	33281.863281
1025.632813	33662.355469
1024.488281	33583.964844
1023.343750	33616.019531
1022.199219	33639.570313
1021.054688	33111.218750
1019.910156	33355.562500
1018.764648	33674.082031
1017.619141	33430.292969
1016.473633	33627.773438
1015.327148	33685.218750
1014.181641	33460.636719
1013.035156	33501.125000
1011.888672	33745.074219
1010.742188	33465.503906
1009.594727	33787.761719
1008.448242	33609.964844
1007.300781	33654.617188
1006.153320	33752.195313
1005.005859	33758.691406
1003.857422	34070.007813
1002.708984	34192.847656
1001.560547	34387.582031
1000.412109	34205.660156
999.263672	34673.187500
998.114258	34926.941406
996.965820	35000.867188
995.816406	34869.699219
994.666016	35045.062500
993.516602	35137.941406
992.366211	35025.832031
991.215820	34858.839844
990.065430	34970.707031
988.915039	34516.582031
987.763672	34607.351563
986.613281	34717.089844
985.461914	34689.593750
984.309570	34337.136719
983.158203	34744.339844
982.005859	34619.820313
980.854492	34588.140625
979.701172	34723.050781
978.548828	34691.359375
977.396484	34537.425781
976.243164	34935.703125
975.089844	34697.488281
973.936523	34524.671875
972.783203	34217.113281
971.628906	34554.078125
970.474609	34118.183594
969.320313	34145.582031
968.166016	34469.742188
967.010742	34513.898438
965.856445	34097.261719
964.701172	33960.558594
963.545898	34282.402344
962.390625	34494.781250
961.234375	34515.757813
960.078125	34429.519531
958.921875	34229.820313
957.765625	34616.453125
956.609375	34622.679688
955.452148	34723.425781
954.294922	34601.515625
953.137695	34614.039063
951.980469	34284.359375
950.822266	33988.382813
949.665039	34414.421875
948.506836	34508.789063
947.347656	34745.769531
946.189453	34584.156250
945.030273	34235.964844
943.872070	34758.000000
942.712891	34246.394531
941.552734	34414.035156
940.393555	34870.789063
939.233398	34927.207031
938.073242	34562.570313
936.913086	34813.796875
935.752930	34746.648438
934.591797	34951.687500
933.430664	34823.835938
932.269531	34848.800781
931.108398	34978.375000
929.947266	34852.675781
928.785156	34854.609375
927.623047	34831.445313
926.460938	34954.648438
925.298828	34841.582031
924.135742	34937.562500
922.972656	34958.281250
921.810547	35348.792969
920.646484	35300.488281
919.483398	35172.835938
918.319336	35400.210938
917.155273	35293.460938
915.991211	35349.562500
914.827148	35612.253906
913.662109	35841.464844
912.498047	35805.636719
911.333008	35884.539063
910.167969	36349.218750
909.001953	36369.609375
907.836914	36275.335938
906.670898	36647.972656
905.504883	36326.531250
904.337891	36236.476563
903.171875	36508.917969
902.004883	35869.015625
900.837891	36368.402344
899.670898	36417.890625
898.503906	36219.652344
897.335938	36310.773438
896.167969	35937.835938
895.000000	35760.597656
893.832031	35872.546875
892.663086	36196.582031
891.495117	35913.343750
890.326172	36266.351563
889.156250	36178.582031
887.987305	36165.656250
886.817383	35872.238281
885.648438	35973.625000
884.478516	36226.589844
883.307617	36358.308594
882.137695	36489.921875
880.966797	36621.640625
879.795898	36753.359375
878.625000	36885.082031
877.454102	37016.800781
876.282227	37148.632813
875.110352	37280.460938
873.938477	37254.898438
872.766602	36976.421875
871.593750	37425.582031
870.421875	37138.886719
869.249023	37473.886719
868.076172	37334.367188
866.902344	37988.171875
865.729492	37668.441406
864.555664	37955.468750
863.381836	37936.019531
862.207031	38378.113281
861.033203	38596.558594
859.858398	38728.027344
858.683594	38938.046875
857.508789	38438.617188
856.333984	38162.683594
855.158203	38265.183594
853.982422	38382.113281
852.806641	38091.875000
851.630859	37907.121094
850.454102	37862.910156
849.278320	37765.011719
848.101563	37861.265625
846.924805	38046.265625
845.747070	38181.652344
844.570313	37838.152344
843.392578	37971.457031
842.214844	38195.492188
841.036133	38429.757813
839.858398	38602.062500
838.679688	39211.449219
837.500977	39416.527344
836.322266	39582.359375
835.143555	39579.140625
833.963867	39633.613281
832.784180	39764.289063
831.604492	39237.863281
830.424805	38812.535156
829.244141	38552.082031
828.063477	38625.210938
826.882813	37980.003906
825.702148	37542.871094
824.521484	37974.136719
823.339844	38086.398438
822.158203	38011.460938
820.976563	37605.484375
819.794922	37606.726563
818.612305	37994.406250
817.430664	37699.632813
816.248047	37448.117188
815.064453	37679.472656
813.881836	37161.031250
812.698242	37384.132813
811.514648	37440.843750
810.331055	37327.140625
809.147461	37406.410156
807.962891	37641.609375
806.778320	38075.738281
805.593750	37855.328125
804.409180	38092.355469
803.224609	37986.851563
802.039063	37608.710938
800.853516	37618.121094
799.667969	37270.925781
798.482422	37087.781250
797.295898	36906.750000
796.109375	36863.023438
794.922852	37312.855469
793.736328	36638.425781
792.548828	36736.019531
791.362305	36524.511719
790.174805	36798.078125
788.986328	36643.921875
787.798828	36508.234375
786.610352	36654.839844
785.421875	36351.519531
784.233398	36371.335938
783.044922	36387.058594
781.856445	35900.015625
780.666992	35889.250000
779.477539	35866.230469
778.288086	36290.542969
777.097656	35967.250000
775.907227	35923.804688
774.717773	35884.457031
773.526367	36065.558594
772.335938	36379.234375
771.144531	36105.183594
769.954102	36127.023438
768.762695	36279.382813
767.570313	36341.960938
766.378906	36404.515625
765.186523	36285.625000
763.994141	36138.246094
762.801758	36665.382813
761.609375	37084.343750
760.416016	36763.757813
759.222656	36836.335938
758.029297	37014.761719
756.835938	37083.191406
755.641602	37228.937500
754.447266	37466.203125
753.252930	37335.113281
752.058594	37324.085938
750.864258	37026.292969
749.668945	36795.710938
748.473633	36579.449219
747.278320	37088.941406
746.083008	36805.632813
744.886719	36353.773438
743.690430	36452.640625
742.494141	36429.597656
741.297852	36292.835938
740.100586	36267.796875
738.904297	36234.644531
737.707031	36394.324219
736.509766	35797.007813
735.311523	36017.574219
734.113281	35996.656250
732.916016	35929.101563
731.716797	36035.957031
730.518555	35850.824219
729.320313	35937.378906
728.121094	36216.437500
726.921875	36084.050781
725.721680	35864.597656
724.522461	35784.988281
723.322266	35922.097656
722.122070	35883.000000
720.921875	35766.988281
719.721680	35555.886719
718.520508	36202.886719
717.319336	35686.269531
716.118164	36055.863281
714.916992	36004.640625
713.714844	35684.488281
712.513672	35877.980469
711.311523	36251.300781
710.108398	36230.382813
708.906250	36688.363281
707.703125	36770.402344
706.500000	36616.085938
705.296875	37154.507813
704.093750	36424.730469
702.889648	37049.789063
701.685547	36968.187500
700.481445	37114.648438
699.277344	37347.812500
698.072266	37213.750000
696.868164	37202.761719
695.663086	37080.871094
694.457031	37394.503906
693.251953	37452.015625
692.045898	37275.730469
690.839844	37442.050781
689.633789	37384.687500
688.427734	37254.832031
687.220703	37362.656250
686.013672	37383.859375
684.806641	36978.281250
683.599609	36840.542969
682.391602	37205.933594
681.184570	36929.375000
679.976563	37055.234375
678.767578	36730.535156
677.559570	36721.656250
676.350586	36927.894531
675.141602	36838.574219
673.932617	37072.847656
672.723633	36846.894531
671.513672	36926.386719
670.303711	36720.628906
669.093750	36774.003906
667.883789	37130.539063
666.672852	37133.628906
665.462891	36775.441406
664.251953	36686.285156
663.040039	36669.386719
661.829102	36662.523438
660.617188	36627.582031
659.405273	36959.601563
658.193359	36886.523438
656.981445	36639.085938
655.768555	36648.257813
654.555664	36561.246094
653.342773	37039.203125
652.129883	36829.968750
650.916016	37568.023438
649.702148	37300.703125
648.488281	37195.628906
647.274414	37697.023438
646.059570	38016.136719
644.845703	38341.128906
643.630859	38806.015625
642.416016	38786.746094
641.200195	38937.441406
639.984375	38896.160156
638.769531	39114.738281
637.552734	38260.070313
636.336914	38240.910156
635.120117	37926.097656
633.904297	38146.679688
632.687500	37358.726563
631.469727	37401.636719
630.252930	37332.742188
629.035156	37283.832031
627.817383	37189.039063
626.599609	37158.125000
625.380859	37067.378906
624.163086	37144.187500
622.944336	36858.070313
621.724609	36865.113281
620.505859	36854.210938
619.286133	36934.980469
618.066406	36922.074219
616.846680	36901.199219
615.626953	36868.386719
614.406250	36825.621094
613.186523	37067.582031
611.965820	37207.929688
610.744141	36816.835938
609.523438	36770.128906
608.301758	36940.289063
607.080078	36995.015625
605.858398	37099.437500
604.635742	37392.710938
603.414063	37316.113281
602.191406	37406.496094
600.968750	37031.835938
599.745117	36911.632813
598.522461	37433.101563
597.298828	37575.027344
596.075195	37276.070313
594.850586	37819.011719
593.626953	37462.550781
592.402344	37886.171875
591.177734	37888.976563
589.953125	37955.257813
588.727539	37843.003906
587.501953	38180.953125
586.276367	38149.984375
585.050781	38313.300781
583.825195	38686.640625
582.598633	38715.039063
581.372070	38800.882813
580.145508	39476.992188
578.917969	39115.058594
577.691406	39315.617188
576.463867	39458.687500
575.236328	39370.113281
574.007813	39627.898438
572.780273	39301.882813
571.551758	39357.796875
570.323242	39211.941406
569.094727	39936.253906
567.865234	39367.226563
566.635742	39579.246094
565.406250	39069.789063
564.176758	38833.214844
562.947266	38772.566406
561.716797	38759.343750
560.486328	38511.109375
559.255859	38306.406250
558.024414	38236.023438
556.793945	37830.117188
555.562500	38132.824219
554.331055	37944.125000
553.098633	38146.085938
551.867188	37870.667969
550.634766	38131.726563
549.402344	37694.738281
548.168945	37758.605469
546.936523	37714.046875
545.703125	37669.507813
544.469727	37682.113281
543.236328	37546.984375
542.001953	37663.980469
540.767578	37491.488281
539.533203	37590.730469
538.298828	37841.492188
537.064453	37549.019531
535.829102	37793.785156
534.593750	37741.417969
533.358398	37952.617188
532.122070	38149.968750
530.886719	37781.031250
529.650391	38131.656250
528.414063	37992.796875
527.176758	38343.246094
525.940430	38326.195313
524.703125	38322.898438
523.465820	38254.792969
522.227539	38131.738281
520.990234	38099.027344
519.751953	38476.531250
518.513672	38055.222656
517.275391	38414.929688
516.036133	38513.609375
514.796875	38471.042969
513.557617	38936.347656
512.318359	38732.953125
511.079102	38790.328125
509.838867	38688.945313
508.598633	38530.773438
507.358398	38543.089844
506.117188	38498.605469
504.876953	38211.308594
503.635742	38282.410156
502.394531	38455.277344
501.152344	38440.187500
499.911133	38585.558594
498.668945	38398.285156
497.425781	38707.914063
496.183594	38358.363281
494.941406	38662.011719
493.698242	38478.765625
492.455078	38453.910156
491.210938	38814.031250
489.967773	38806.699219
488.723633	38752.488281
487.479492	38866.257813
486.235352	38800.332031
484.990234	39095.617188
483.745117	38906.695313
482.500000	39057.421875
481.254883	38936.871094
480.008789	39218.242188
478.763672	39442.937500
477.517578	39373.078125
476.271484	39897.921875
475.024414	39697.390625
473.777344	40153.750000
472.530273	39908.425781
471.283203	40033.363281
470.036133	39895.281250
468.788086	39866.316406
467.540039	39802.308594
466.291992	39578.683594
465.043945	39610.128906
463.794922	39902.332031
462.545898	40231.390625
461.296875	40208.218750
460.047852	40272.574219
458.797852	40272.734375
457.547852	40535.363281
456.297852	40589.894531
455.047852	40658.011719
453.796875	40551.218750
452.545898	40741.707031
451.294922	41330.308594
450.043945	41009.820313
448.792969	41537.957031
447.541016	41881.464844
446.289063	41663.917969
445.036133	41733.652344
443.784180	42463.023438
442.531250	42024.339844
441.278320	42200.628906
440.025391	41731.136719
438.771484	41882.207031
437.518555	41393.562500
436.264648	41114.402344
435.010742	40916.726563
433.755859	40562.207031
432.500977	40473.175781
431.246094	40649.476563
429.991211	40492.687500
428.736328	40388.226563
427.480469	40078.648438
426.224609	39867.871094
424.968750	40071.195313
423.712891	39943.671875
422.456055	39816.195313
421.199219	39882.125000
419.942383	39714.105469
418.685547	39901.792969
417.427734	40272.996094
416.169922	39836.429688
414.912109	39755.468750
413.654297	39686.125000
412.395508	39860.113281
411.136719	39756.019531
409.877930	39648.105469
408.619141	39920.421875
407.359375	39874.257813
406.099609	39841.613281
404.839844	40050.082031
403.580078	40011.625000
402.319336	39890.277344
401.059570	39848.007813
