#Wave		#Intensity
2001.182617	28248.220703
2000.212891	28245.712891
1999.243164	28253.312500
1998.273438	28158.179688
1997.303711	28478.937500
1996.333008	28163.376953
1995.363281	28165.972656
1994.392578	28386.402344
1993.421875	28561.693359
1992.451172	28363.974609
1991.479492	28456.621094
1990.508789	28188.929688
1989.537109	28524.236328
1988.566406	28266.626953
1987.594727	28751.849609
1986.622070	28496.789063
1985.650391	28554.310547
1984.677734	28674.296875
1983.706055	28331.914063
1982.733398	28284.488281
1981.760742	28446.925781
1980.788086	28479.421875
1979.814453	28279.654297
1978.841797	28609.294922
1977.868164	28576.833984
1976.894531	28307.263672
1975.920898	28437.076172
1974.947266	28427.117188
1973.972656	28591.787109
1972.999023	28601.755859
1972.024414	28903.496094
1971.049805	28442.152344
1970.075195	28484.546875
1969.099609	28549.357422
1968.125000	28596.699219
1967.149414	28377.417969
1966.173828	28452.175781
1965.198242	28384.929688
1964.222656	28155.835938
1963.247070	28098.623047
1962.270508	28790.761719
1961.294922	28599.048828
1960.318359	28258.085938
1959.341797	28586.556641
1958.364258	28372.587891
1957.387695	28511.886719
1956.410156	28394.990234
1955.433594	28114.029297
1954.456055	28253.298828
1953.478516	28206.099609
1952.500000	28536.656250
1951.522461	28571.417969
1950.543945	28119.251953
1949.565430	28419.841797
1948.586914	28121.828125
1947.608398	28273.332031
1946.629883	28159.152344
1945.650391	28226.205078
1944.671875	28335.419922
1943.692383	28208.878906
1942.712891	28248.595703
1941.733398	28389.990234
1940.752930	28476.775391
1939.773438	28330.460938
1938.792969	28459.367188
1937.812500	28246.181641
1936.832031	28199.105469
1935.851563	28275.933594
1934.870117	28456.779297
1933.888672	28481.517578
1932.908203	28397.283203
1931.926758	28129.853516
1930.945313	28216.521484
1929.962891	28191.777344
1928.981445	28441.732422
1927.999023	28387.263672
1927.016602	28191.804688
1926.034180	28355.056641
1925.051758	28402.021484
1924.069336	28424.242188
1923.085938	28397.011719
1922.102539	28488.431641
1921.119141	28288.210938
1920.135742	28545.158203
1919.152344	28797.072266
1918.168945	28478.343750
1917.184570	28488.167969
1916.200195	28567.123047
1915.215820	28278.220703
1914.231445	28613.875000
1913.247070	28418.839844
1912.261719	28532.291016
1911.276367	28709.837891
1910.291992	28463.089844
1909.306641	28504.953125
1908.320313	28692.271484
1907.334961	28642.867188
1906.348633	28660.025391
1905.363281	28482.496094
1904.376953	28413.439453
1903.390625	28130.085938
1902.403320	28558.642578
1901.416992	28794.964844
1900.429688	28787.451172
1899.443359	28989.185547
1898.456055	28794.580078
1897.467773	28590.197266
1896.480469	28467.080078
1895.493164	28813.863281
1894.504883	28818.644531
1893.516602	29020.154297
1892.528320	28806.072266
1891.540039	28815.765625
1890.550781	28555.091797
1889.562500	28702.439453
1888.573242	29186.337891
1887.583984	28687.449219
1886.594727	28891.181641
1885.605469	28606.162109
1884.615234	28834.386719
1883.625000	28574.023438
1882.635742	28706.451172
1881.645508	28681.779297
1880.654297	28794.511719
1879.664063	28774.734375
1878.673828	28595.542969
1877.682617	28553.736328
1876.691406	28580.593750
1875.700195	28935.923828
1874.708984	28823.000000
1873.716797	29040.931641
1872.725586	29182.833984
1871.733398	28766.167969
1870.741211	28795.402344
1869.749023	28812.380859
1868.755859	28584.517578
1867.763672	28792.464844
1866.770508	28772.718750
1865.777344	29073.544922
1864.784180	28884.937500
1863.791016	29214.990234
1862.797852	29041.095703
1861.803711	28666.744141
1860.809570	29118.904297
1859.815430	29018.449219
1858.821289	28959.578125
1857.827148	29035.126953
1856.832031	29066.667969
1855.837891	28761.097656
1854.842773	28951.427734
1853.847656	29083.082031
1852.852539	28911.947266
1851.856445	29490.271484
1850.861328	29094.585938
1849.865234	28889.373047
1848.869141	29123.388672
1847.873047	28925.558594
1846.876953	29257.037109
1845.879883	29134.843750
1844.883789	29232.115234
1843.886719	29170.906250
1842.889648	29085.347656
1841.892578	29350.708984
1840.895508	29260.271484
1839.897461	29547.429688
1838.899414	29081.927734
1837.901367	29478.589844
1836.903320	29261.589844
1835.905273	29295.386719
1834.907227	29307.265625
1833.908203	29448.105469
1832.909180	29452.652344
1831.910156	29350.169922
1830.911133	29432.554688
1829.912109	29544.089844
1828.912109	29157.191406
1827.913086	29370.826172
1826.913086	29433.703125
1825.913086	29491.697266
1824.913086	29270.279297
1823.912109	29544.464844
1822.912109	29310.970703
1821.911133	29674.892578
1820.910156	29463.304688
1819.909180	29538.216797
1818.908203	29496.609375
1817.906250	29600.603516
1816.904297	29736.099609
1815.903320	29733.285156
1814.900391	29320.613281
1813.898438	29747.054688
1812.896484	29877.576172
1811.893555	29668.701172
1810.891602	29840.386719
1809.888672	29556.474609
1808.885742	29878.320313
1807.881836	29764.054688
1806.878906	29591.705078
1805.875000	29869.787109
1804.871094	29656.320313
1803.867188	29980.279297
1802.863281	29626.503906
1801.859375	30030.199219
1800.854492	29867.654297
1799.849609	29794.662109
1798.844727	30265.824219
1797.839844	30151.679688
1796.834961	29759.560547
1795.830078	29940.425781
1794.824219	30275.894531
1793.818359	30432.441406
1792.812500	29811.041016
1791.806641	30315.427734
1790.799805	30179.671875
1789.793945	30473.748047
1788.787109	30294.554688
1787.780273	30096.115234
1786.773438	29921.876953
1785.766602	29865.927734
1784.758789	30468.580078
1783.751953	30149.646484
1782.744141	30559.111328
1781.736328	30375.294922
1780.728516	30567.609375
1779.719727	30656.214844
1778.711914	30342.341797
1777.703125	30426.132813
1776.694336	30382.216797
1775.685547	30639.386719
1774.676758	30891.648438
1773.666992	30606.898438
1772.657227	30676.119141
1771.648438	31067.833984
1770.638672	30884.271484
1769.627930	30638.214844
1768.618164	31003.263672
1767.607422	31108.425781
1766.597656	30840.812500
1765.586914	31258.523438
1764.576172	31195.308594
1763.564453	31177.779297
1762.553711	30900.726563
1761.541992	30669.421875
1760.530273	30913.830078
1759.518555	30769.064453
1758.506836	31399.982422
1757.495117	31483.267578
1756.482422	31124.830078
1755.469727	31349.736328
1754.457031	31430.582031
1753.444336	31816.099609
1752.431641	31649.755859
1751.417969	31466.679688
1750.405273	31499.484375
1749.391602	31767.232422
1748.377930	31636.966797
1747.364258	32125.087891
1746.349609	31659.326172
1745.335938	31864.560547
1744.321289	31964.324219
1743.306641	32272.414063
1742.291992	32266.705078
1741.276367	32239.451172
1740.261719	32585.623047
1739.246094	31924.097656
1738.230469	32531.023438
1737.214844	32769.296875
1736.199219	32383.169922
1735.182617	33111.660156
1734.166992	33230.140625
1733.150391	33033.000000
1732.133789	33498.050781
1731.117188	33427.593750
1730.099609	33803.996094
1729.083008	33800.402344
1728.065430	33799.195313
1727.047852	33958.000000
1726.030273	33997.355469
1725.012695	34339.894531
1723.994141	34185.824219
1722.976563	34635.597656
1721.958008	34436.191406
1720.939453	35026.511719
1719.920898	35328.007813
1718.901367	35443.378906
1717.882813	35129.511719
1716.863281	35561.945313
1715.843750	35453.152344
1714.824219	35704.253906
1713.803711	35504.929688
1712.784180	35867.894531
1711.763672	35590.007813
1710.743164	35748.023438
1709.722656	36113.128906
1708.702148	35882.953125
1707.681641	36457.363281
1706.660156	36193.886719
1705.638672	35521.257813
1704.617188	36057.355469
1703.595703	36455.312500
1702.574219	35954.210938
1701.551758	35748.113281
1700.529297	36338.464844
1699.507813	36210.804688
1698.484375	36308.949219
1697.461914	36644.652344
1696.439453	36367.339844
1695.416016	36679.160156
1694.392578	36525.425781
1693.369141	36856.097656
1692.345703	36654.906250
1691.322266	36814.546875
1690.297852	36715.468750
1689.273438	36739.800781
1688.249023	37385.636719
1687.224609	37172.660156
1686.200195	37000.074219
1685.174805	37470.066406
1684.150391	37503.714844
1683.125000	37390.410156
1682.099609	37812.683594
1681.073242	37779.914063
1680.047852	37908.230469
1679.021484	37894.398438
1677.995117	38411.000000
1676.968750	38330.789063
1675.942383	37928.671875
1674.916016	38487.585938
1673.888672	38423.964844
1672.862305	38291.753906
1671.834961	38630.312500
1670.806641	38528.851563
1669.779297	38685.171875
1668.751953	38978.554688
1667.723633	39014.183594
1666.695313	38993.074219
1665.666992	38773.488281
1664.638672	39156.417969
1663.609375	39059.703125
1662.581055	39007.894531
1661.551758	39520.445313
1660.522461	39135.691406
1659.493164	39355.339844
1658.462891	39251.585938
1657.433594	39428.660156
1656.403320	39357.960938
1655.373047	39433.523438
1654.342773	39626.972656
1653.312500	39631.722656
1652.281250	39997.164063
1651.250977	40044.269531
1650.219727	39935.816406
1649.188477	39975.843750
1648.156250	40178.406250
1647.125000	39803.824219
1646.092773	39938.046875
1645.060547	39815.574219
1644.028320	39956.804688
1642.996094	39808.480469
1641.963867	40274.414063
1640.930664	40107.257813
1639.898438	40452.996094
1638.865234	40172.964844
1637.832031	40504.457031
1636.797852	40560.734375
1635.764648	40849.722656
1634.730469	41251.421875
1633.696289	41406.230469
1632.662109	41105.175781
1631.627930	40959.265625
1630.592773	41236.171875
1629.558594	41623.347656
1628.523438	41669.941406
1627.488281	41831.542969
1626.453125	42340.449219
1625.416992	42311.792969
1624.381836	42977.621094
1623.345703	43047.386719
1622.309570	43609.648438
1621.273438	44021.628906
1620.237305	44349.062500
1619.200195	45053.777344
1618.163086	45924.640625
1617.125977	46577.269531
1616.088867	47330.406250
1615.051758	48518.964844
1614.014648	49362.824219
1612.976563	50093.980469
1611.938477	50717.183594
1610.900391	51106.082031
1609.862305	51171.871094
1608.823242	50650.312500
1607.785156	50816.753906
1606.746094	49860.367188
1605.707031	48894.960938
1604.667969	47946.265625
1603.628906	47119.476563
1602.588867	46248.566406
1601.548828	45730.855469
1600.508789	45540.453125
1599.468750	44763.730469
1598.428711	44608.601563
1597.387695	44642.687500
1596.347656	44312.511719
1595.306641	43683.628906
1594.265625	43773.875000
1593.224609	43416.019531
1592.182617	43254.285156
1591.140625	43524.183594
1590.099609	42891.332031
1589.057617	43165.859375
1588.014648	42897.023438
1586.972656	42777.476563
1585.929688	42560.078125
1584.887695	42680.660156
1583.844727	42384.132813
1582.800781	42411.519531
1581.757813	42650.839844
1580.714844	42966.925781
1579.670898	42891.738281
1578.626953	42967.894531
1577.583008	43206.937500
1576.538086	43552.941406
1575.494141	43540.519531
1574.449219	43858.417969
1573.404297	44341.335938
1572.359375	44231.109375
1571.314453	44588.234375
1570.269531	44566.332031
1569.223633	44416.605469
1568.177734	44048.500000
1567.131836	43652.648438
1566.085938	43512.449219
1565.040039	43137.730469
1563.993164	43424.933594
1562.946289	43191.980469
1561.899414	42390.406250
1560.852539	42067.207031
1559.805664	42194.277344
1558.757813	42548.664063
1557.709961	42123.542969
1556.662109	41858.593750
1555.614258	42011.109375
1554.566406	41852.914063
1553.517578	41509.339844
1552.469727	41907.492188
1551.420898	41522.320313
1550.372070	41373.582031
1549.322266	42049.492188
1548.273438	41518.597656
1547.223633	41756.613281
1546.173828	41469.035156
1545.124023	41003.332031
1544.074219	41139.484375
1543.024414	40898.441406
1541.973633	41855.808594
1540.922852	41496.757813
1539.872070	41357.527344
1538.821289	41498.109375
1537.770508	41518.433594
1536.718750	41252.144531
1535.666992	41540.562500
1534.615234	41327.503906
1533.563477	41370.937500
1532.511719	41157.980469
1531.458984	41226.824219
1530.407227	41184.820313
1529.354492	40736.546875
1528.300781	40803.117188
1527.248047	40661.980469
1526.195313	40490.898438
1525.141602	40287.582031
1524.087891	40453.351563
1523.034180	40529.128906
1521.980469	40473.460938
1520.925781	40549.203125
1519.871094	40037.218750
1518.817383	40338.828125
1517.762695	40764.738281
1516.707031	40529.402344
1515.652344	40033.902344
1514.596680	40326.082031
1513.541016	40208.355469
1512.485352	39950.261719
1511.429688	40569.089844
1510.374023	39726.570313
1509.317383	40032.335938
1508.260742	40103.375000
1507.204102	40006.503906
1506.147461	40075.218750
1505.090820	40022.066406
1504.033203	39943.644531
1502.975586	39830.777344
1501.917969	40071.796875
1500.860352	39531.648438
1499.802734	40082.710938
1498.744141	40130.644531
1497.686523	40190.042969
1496.627930	40212.683594
1495.569336	39367.722656
1494.509766	39686.535156
1493.451172	40039.644531
1492.391602	39738.839844
1491.332031	39607.867188
1490.272461	39880.535156
1489.212891	39653.281250
1488.152344	39543.019531
1487.092773	39361.746094
1486.032227	39668.628906
1484.971680	39837.937500
1483.910156	39526.128906
1482.849609	39303.757813
1481.788086	39344.796875
1480.726563	39424.746094
1479.665039	39330.691406
1478.603516	39499.863281
1477.541992	39055.726563
1476.479492	39389.609375
1475.416992	39849.179688
1474.354492	39494.410156
1473.291992	39443.878906
1472.229492	39578.546875
1471.166016	39692.593750
1470.102539	39573.492188
1469.039063	39861.152344
1467.975586	39435.929688
1466.912109	39734.925781
1465.847656	39440.046875
1464.783203	40113.402344
1463.718750	39740.937500
1462.654297	39585.441406
1461.589844	39573.773438
1460.524414	40143.937500
1459.458984	39696.445313
1458.393555	39978.988281
1457.328125	39839.546875
1456.262695	39775.394531
1455.196289	39852.601563
1454.130859	40089.324219
1453.064453	40075.289063
1451.998047	39904.046875
1450.930664	40309.199219
1449.864258	40044.593750
1448.796875	40000.964844
1447.729492	40289.761719
1446.662109	40091.312500
1445.594727	40341.292969
1444.526367	40386.386719
1443.458008	40695.375000
1442.390625	40854.117188
1441.321289	41140.167969
1440.252930	41000.886719
1439.184570	41573.265625
1438.115234	41154.363281
1437.045898	41662.867188
1435.976563	41746.273438
1434.907227	41681.972656
1433.836914	41692.652344
1432.767578	42427.792969
1431.697266	41634.523438
1430.626953	42251.355469
1429.555664	42404.917969
1428.485352	42460.835938
1427.414063	42652.875000
1426.342773	42862.992188
1425.271484	43215.929688
1424.200195	43473.488281
1423.128906	43715.085938
1422.056641	43741.226563
1420.984375	43910.152344
1419.912109	44396.277344
1418.839844	44327.117188
1417.767578	44001.996094
1416.694336	43962.371094
1415.621094	44495.683594
1414.547852	44093.722656
1413.474609	43897.898438
1412.400391	43521.082031
1411.327148	43164.765625
1410.252930	43480.535156
1409.178711	42748.843750
1408.104492	42716.269531
1407.029297	43013.855469
1405.955078	42599.156250
1404.879883	43129.476563
1403.804688	43474.281250
1402.729492	43622.371094
1401.653320	43544.480469
1400.578125	43913.867188
1399.501953	43693.667969
1398.425781	43769.347656
1397.349609	43648.585938
1396.272461	43575.265625
1395.196289	43969.128906
1394.119141	44101.105469
1393.041992	43964.570313
1391.964844	44310.777344
1390.886719	44429.085938
1389.809570	44892.328125
1388.731445	44796.320313
1387.653320	44991.105469
1386.575195	45163.281250
1385.497070	45258.789063
1384.417969	45455.632813
1383.338867	45136.621094
1382.259766	45574.367188
1381.180664	45586.414063
1380.101563	45193.261719
1379.021484	44966.796875
1377.941406	44981.195313
1376.861328	44937.085938
1375.781250	44663.546875
1374.701172	44511.554688
1373.620117	44292.152344
1372.539063	44389.835938
1371.458008	44055.890625
1370.376953	44034.460938
1369.295898	43720.921875
1368.213867	43802.902344
1367.132813	43444.589844
1366.050781	43798.332031
1364.967773	43536.699219
1363.885742	44042.957031
1362.802734	43898.089844
1361.720703	44336.769531
1360.637695	44155.996094
1359.554688	44269.171875
1358.470703	44182.679688
1357.387695	43970.632813
1356.303711	44301.269531
1355.219727	43620.738281
1354.135742	43413.378906
1353.050781	43313.664063
1351.966797	43211.742188
1350.881836	42641.660156
1349.796875	42730.273438
1348.711914	42292.601563
1347.626953	42255.859375
1346.541016	41753.507813
1345.455078	42081.691406
1344.369141	42170.316406
1343.283203	42109.003906
1342.197266	41913.496094
1341.110352	42143.000000
1340.023438	42388.070313
1338.936523	42183.671875
1337.849609	42039.699219
1336.762695	41846.605469
1335.674805	42567.496094
1334.586914	42282.777344
1333.499023	42395.757813
1332.411133	42644.925781
1331.323242	42389.371094
1330.234375	42636.214844
1329.145508	42570.476563
1328.056641	42361.929688
1326.967773	43077.210938
1325.878906	42977.957031
1324.789063	43023.722656
1323.699219	43528.859375
1322.609375	43652.542969
1321.519531	43952.289063
1320.429688	44399.031250
1319.338867	45313.589844
1318.248047	45583.902344
1317.157227	45869.710938
1316.066406	46242.277344
1314.975586	47055.625000
1313.883789	47610.406250
1312.791992	47330.214844
1311.700195	47424.035156
1310.608398	47738.117188
1309.516602	47215.542969
1308.423828	47262.609375
1307.331055	46571.281250
1306.238281	46322.703125
1305.145508	45809.648438
1304.051758	46325.945313
1302.958984	45813.074219
1301.865234	45647.019531
1300.771484	45396.601563
1299.677734	45741.558594
1298.583008	46612.722656
1297.489258	46544.332031
1296.394531	47086.468750
1295.299805	47284.371094
1294.204102	47650.855469
1293.109375	47686.605469
1292.013672	47806.636719
1290.917969	47298.929688
1289.822266	47139.566406
1288.726563	47113.292969
1287.630859	46752.289063
1286.534180	46351.519531
1285.437500	46052.828125
1284.340820	45947.000000
1283.244141	45500.070313
1282.146484	45609.210938
1281.048828	45042.921875
1279.951172	44567.605469
1278.853516	44506.406250
1277.755859	44535.964844
1276.658203	43810.953125
1275.559570	44183.542969
1274.460938	43755.257813
1273.362305	43588.093750
1272.262695	43438.679688
1271.164063	43156.667969
1270.064453	43168.738281
1268.964844	43057.042969
1267.865234	43069.121094
1266.765625	42570.875000
1265.665039	42717.773438
1264.564453	42778.484375
1263.463867	42260.687500
1262.363281	42374.437500
1261.262695	42402.066406
1260.161133	42003.777344
1259.059570	42373.449219
1257.958008	41962.070313
1256.856445	41941.226563
1255.754883	41933.617188
1254.652344	41652.617188
1253.549805	41691.351563
1252.447266	41269.441406
1251.344727	41621.132813
1250.242188	41358.011719
1249.138672	41381.347656
1248.035156	41318.777344
1246.931641	41099.886719
1245.828125	41645.023438
1244.724609	41197.230469
1243.620117	41462.648438
1242.515625	41474.921875
1241.411133	41284.796875
1240.306641	41686.421875
1239.201172	41568.894531
1238.096680	41429.417969
1236.991211	42107.789063
1235.885742	41642.964844
1234.779297	41325.542969
1233.673828	41577.304688
1232.567383	41356.664063
1231.460938	41634.683594
1230.354492	41613.941406
1229.248047	41801.789063
1228.140625	41256.375000
1227.033203	41883.171875
1225.926758	41739.511719
1224.818359	41459.871094
1223.710938	41750.667969
1222.602539	41433.839844
1221.495117	42018.363281
1220.386719	41559.093750
1219.278320	41461.667969
1218.168945	41458.515625
1217.060547	41282.253906
1215.951172	41789.589844
1214.841797	41192.773438
1213.731445	41167.761719
1212.622070	41344.207031
1211.511719	40990.792969
1210.402344	41298.527344
1209.291992	41483.597656
1208.180664	41607.335938
1207.070313	41545.078125
1205.958984	41843.730469
1204.847656	41755.207031
1203.736328	41679.832031
1202.625000	41558.578125
1201.512695	41706.195313
1200.401367	41792.574219
1199.289063	41953.199219
1198.176758	41923.722656
1197.063477	42079.898438
1195.951172	42768.820313
1194.837891	42902.949219
1193.724609	42585.175781
1192.611328	42786.941406
1191.498047	42992.992188
1190.383789	42601.195313
1189.269531	42829.015625
1188.155273	42328.343750
1187.041016	42052.441406
1185.926758	42315.109375
1184.811523	42433.828125
1183.696289	41931.406250
1182.581055	42104.617188
1181.465820	41927.027344
1180.350586	41586.144531
1179.234375	41689.628906
1178.118164	41436.003906
1177.001953	41282.601563
1175.885742	41031.316406
1174.768555	41308.910156
1173.652344	41347.070313
1172.535156	41411.324219
1171.417969	41229.785156
1170.299805	41039.613281
1169.182617	41160.406250
1168.064453	41142.035156
1166.946289	41058.472656
1165.828125	40909.746094
1164.709961	41215.136719
1163.590820	40699.339844
1162.471680	40663.687500
1161.352539	40734.445313
1160.233398	40870.300781
1159.114258	40930.136719
1157.994141	40772.929688
1156.874023	40665.687500
1155.753906	40820.972656
1154.633789	41067.296875
1153.513672	41328.710938
1152.392578	40649.035156
1151.271484	40689.312500
1150.150391	40846.613281
1149.029297	40498.941406
1147.907227	40745.046875
1146.786133	40362.859375
1145.664063	40799.484375
1144.541992	41248.941406
1143.418945	41395.128906
1142.296875	41292.332031
1141.173828	41371.367188
1140.050781	41688.390625
1138.927734	41721.886719
1137.803711	41722.921875
1136.680664	41964.007813
1135.556641	41811.476563
1134.432617	41553.070313
1133.308594	41636.261719
1132.183594	41239.667969
1131.059570	41407.152344
1129.934570	41589.695313
1128.809570	41495.703125
1127.684570	41701.914063
1126.558594	41171.796875
1125.432617	41649.984375
1124.307617	41327.265625
1123.180664	41356.398438
1122.054688	41547.335938
1120.928711	40819.265625
1119.801758	40928.269531
1118.674805	40638.312500
1117.547852	41176.339844
1116.419922	41190.371094
1115.292969	40876.808594
1114.165039	41052.492188
1113.037109	40999.750000
1111.909180	40608.847656
1110.780273	41325.027344
1109.652344	41056.937500
1108.523438	40722.207031
1107.394531	40835.296875
1106.264648	40692.253906
1105.135742	40615.960938
1104.005859	40668.765625
1102.875977	40820.492188
1101.746094	40789.371094
1100.616211	41188.269531
1099.485352	40849.687500
1098.355469	41085.082031
1097.224609	40980.867188
1096.092773	40997.003906
1094.961914	41071.128906
1093.830078	40636.226563
1092.699219	40959.472656
1091.567383	40831.753906
1090.434570	40388.542969
1089.302734	40668.730469
1088.169922	40850.109375
1087.037109	40201.179688
1085.904297	40288.199219
1084.771484	40278.679688
1083.637695	40309.902344
1082.504883	40396.847656
1081.371094	40102.242188
1080.236328	40379.914063
1079.102539	40826.746094
1077.968750	40472.234375
1076.833984	40338.457031
1075.699219	40311.796875
1074.564453	40664.105469
1073.428711	40436.171875
1072.292969	40514.375000
1071.158203	40650.320313
1070.022461	40903.886719
1068.885742	40607.621094
1067.750000	40946.644531
1066.613281	40654.753906
1065.476563	40709.300781
1064.339844	40907.039063
1063.203125	40711.480469
1062.065430	41122.808594
1060.927734	41091.773438
1059.790039	41015.894531
1058.652344	40794.824219
1057.514648	40915.453125
1056.375977	40805.484375
1055.237305	40706.226563
1054.098633	40572.859375
1052.959961	40541.953125
1051.820313	40833.160156
1050.681641	40791.550781
1049.541992	40920.542969
1048.402344	41128.367188
1047.261719	40958.824219
1046.122070	40418.503906
1044.981445	40980.023438
1043.840820	40987.417969
1042.700195	40950.078125
1041.558594	40836.082031
1040.417969	41269.347656
1039.276367	40912.640625
1038.134766	40739.109375
1036.992188	40540.105469
1035.850586	40811.394531
1034.708008	40503.953125
1033.565430	40875.109375
1032.422852	40469.949219
1031.280273	40373.222656
1030.136719	40674.042969
1028.994141	40500.796875
1027.850586	40631.484375
1026.706055	40743.000000
1025.562500	40531.597656
1024.417969	40859.714844
1023.273438	40915.914063
1022.128906	40908.398438
1020.984375	40903.007813
1019.839844	40855.171875
1018.694336	40446.640625
1017.548828	41028.972656
1016.403320	40892.050781
1015.256836	41132.656250
1014.111328	41067.851563
1012.964844	41297.734375
1011.818359	40991.296875
1010.671875	41305.871094
1009.524414	40923.261719
1008.377930	41256.792969
1007.230469	41314.867188
1006.083008	41267.039063
1004.934570	41496.578125
1003.787109	41774.714844
1002.638672	41426.296875
1001.490234	42015.394531
1000.341797	42274.234375
999.193359	42342.609375
998.043945	42468.058594
996.894531	42576.542969
995.745117	42936.558594
994.595703	43068.164063
993.446289	42620.679688
992.295898	42426.906250
991.145508	42201.515625
989.995117	42274.011719
988.844727	41970.589844
987.693359	42315.460938
986.541992	42280.234375
985.390625	42367.429688
984.239258	42245.683594
983.087891	42185.164063
981.935547	41979.117188
980.783203	42523.953125
979.630859	41906.734375
978.478516	42537.812500
977.325195	41922.921875
976.172852	42328.265625
975.019531	42493.253906
973.865234	42102.011719
972.711914	41944.714844
971.557617	42048.601563
970.404297	41958.746094
969.250000	42159.425781
968.094727	42166.394531
966.940430	41853.496094
965.785156	41948.878906
964.629883	42079.988281
963.474609	41996.523438
962.319336	42464.019531
961.163086	42538.187500
960.007813	42124.660156
958.851563	42219.878906
957.694336	41896.910156
956.538086	42836.679688
955.380859	42053.707031
954.223633	42113.160156
953.066406	42361.562500
951.909180	42500.703125
950.751953	42337.546875
949.593750	42252.097656
948.435547	42110.023438
947.277344	41944.929688
946.118164	42029.480469
944.959961	42078.347656
943.800781	42596.835938
942.641602	41932.863281
941.482422	42402.980469
940.322266	42112.273438
939.162109	42290.964844
938.001953	42308.300781
936.841797	42241.855469
935.681641	42527.207031
934.520508	42835.484375
933.360352	42362.902344
932.198242	42821.769531
931.037109	42665.308594
929.875977	42720.195313
928.713867	42624.464844
927.551758	42629.144531
926.389648	43012.257813
925.227539	42759.738281
924.064453	42781.105469
922.901367	42572.597656
921.738281	42876.039063
920.575195	42868.125000
919.412109	43016.843750
918.248047	43198.921875
917.083984	43247.312500
915.919922	42949.183594
914.755859	43126.988281
913.590820	43770.035156
912.426758	43739.000000
911.261719	43547.371094
910.095703	43839.625000
908.930664	44204.746094
907.764648	44288.304688
906.598633	44173.824219
905.432617	44788.738281
904.266602	44026.238281
903.099609	44380.562500
901.933594	44382.773438
900.766602	43772.773438
899.599609	43841.714844
898.431641	43748.265625
897.264648	43931.648438
896.096680	43451.187500
894.928711	43476.437500
893.759766	43576.562500
892.591797	43560.183594
891.422852	43751.738281
890.253906	43749.882813
889.084961	43619.160156
887.916016	43694.218750
886.746094	43796.253906
885.576172	43977.191406
884.406250	43505.894531
883.236328	44023.218750
882.065430	43969.398438
880.895508	43815.957031
879.724609	44212.554688
878.552734	44079.871094
877.381836	44333.117188
876.209961	44490.855469
875.039063	44627.792969
873.866211	44721.132813
872.694336	44669.320313
871.522461	44992.687500
870.349609	44808.207031
869.176758	44644.515625
868.003906	44679.750000
866.830078	45069.148438
865.657227	45524.664063
864.483398	45456.191406
863.309570	45737.578125
862.135742	45689.781250
860.960938	46407.636719
859.786133	46343.179688
858.611328	46574.542969
857.436523	46241.218750
856.261719	46639.996094
855.085938	46443.222656
853.910156	45855.867188
852.734375	45679.972656
851.558594	46097.148438
850.382813	45830.378906
849.206055	45921.023438
848.029297	45834.039063
846.852539	45957.683594
845.674805	46415.695313
844.498047	46574.269531
843.320313	46346.898438
842.142578	46695.230469
840.963867	47229.082031
839.786133	47443.058594
838.607422	47745.625000
837.428711	48450.089844
836.250000	48360.714844
835.070313	48506.308594
833.891602	48381.925781
832.711914	48294.667969
831.532227	48254.812500
830.352539	47813.402344
829.171875	46945.953125
827.991211	46834.316406
826.810547	46465.441406
825.629883	46609.097656
824.449219	45750.734375
823.267578	46003.488281
822.085938	45260.726563
820.904297	45418.882813
819.722656	45453.625000
818.540039	45488.351563
817.357422	45190.132813
816.174805	45350.234375
814.992188	44976.136719
813.809570	44569.312500
812.625977	44735.593750
811.442383	45068.121094
810.258789	44961.214844
809.074219	45073.957031
807.890625	44640.804688
806.706055	45264.433594
805.521484	45321.667969
804.336914	45352.214844
803.151367	45151.593750
801.966797	44951.136719
800.781250	44750.515625
799.594727	44549.726563
798.409180	44349.105469
797.222656	44320.375000
796.037109	44238.402344
794.849609	43941.425781
793.663086	44271.097656
792.476563	43890.292969
791.289063	43865.757813
790.101563	43652.968750
788.914063	43773.746094
787.725586	43677.648438
786.538086	43448.640625
785.349609	43446.695313
784.161133	43127.859375
782.971680	43636.988281
781.783203	43062.769531
780.593750	42844.296875
779.404297	43214.269531
778.214844	42869.210938
777.024414	42822.433594
775.834961	43112.566406
774.644531	42628.894531
773.454102	42588.304688
772.262695	43233.390625
771.072266	42974.390625
769.880859	42723.644531
768.689453	43078.726563
767.497070	43127.804688
766.305664	43374.621094
765.113281	43044.484375
763.920898	43297.332031
762.728516	43582.691406
761.536133	43690.699219
760.342773	44173.445313
759.149414	43776.250000
757.956055	44366.714844
756.762695	43847.484375
755.568359	44103.910156
754.374023	44105.871094
753.179688	44716.171875
751.985352	43945.011719
750.791016	44374.097656
749.595703	43863.570313
748.400391	43629.726563
747.205078	43623.628906
746.009766	44019.929688
744.813477	43519.996094
743.617188	43664.253906
742.420898	43235.660156
741.224609	43345.386719
740.027344	43203.300781
738.830078	42927.281250
737.632813	42679.777344
736.435547	43197.406250
735.238281	42834.292969
734.040039	42881.074219
732.841797	42796.007813
731.643555	42753.554688
730.445313	42607.718750
729.246094	42774.093750
728.046875	42547.242188
726.847656	42735.851563
725.648438	42547.574219
724.449219	42286.449219
723.249023	42784.839844
722.048828	42296.992188
720.848633	42426.757813
719.647461	42655.648438
718.447266	42512.105469
717.246094	42607.355469
716.044922	42645.929688
714.842773	42563.136719
713.641602	42617.878906
712.439453	42935.417969
711.237305	43022.406250
710.035156	42779.941406
708.832031	43176.074219
707.629883	42976.089844
706.426758	43505.343750
705.223633	42891.378906
704.019531	43581.972656
702.815430	43485.007813
701.612305	43426.429688
700.408203	43168.089844
699.203125	43494.945313
697.999023	43216.511719
696.793945	43559.367188
695.588867	43593.574219
694.383789	43720.503906
693.177734	43944.140625
691.971680	43992.355469
690.766602	44078.835938
689.559570	44312.343750
688.353516	44163.070313
687.146484	44261.546875
685.939453	44396.226563
684.732422	43777.968750
683.525391	44035.457031
682.318359	44017.164063
681.110352	44284.566406
679.902344	43707.015625
678.693359	44060.851563
677.485352	43740.937500
676.276367	44000.144531
675.067383	43855.230469
673.858398	44001.773438
672.649414	43947.328125
671.439453	43647.812500
670.229492	43649.687500
669.019531	43713.816406
667.809570	43745.789063
666.598633	43348.164063
665.387695	43159.417969
664.176758	43671.070313
662.965820	43193.421875
661.754883	42711.941406
660.542969	43040.878906
659.331055	43076.933594
658.119141	43303.429688
656.906250	43758.339844
655.694336	43126.890625
654.481445	43251.058594
653.268555	43523.417969
652.054688	43250.882813
650.841797	43030.515625
649.627930	43408.871094
648.414063	43542.867188
647.200195	43536.710938
645.985352	44014.808594
644.770508	44258.644531
643.555664	44672.414063
642.340820	44738.039063
641.125977	44903.617188
639.910156	44747.265625
638.694336	44644.937500
637.478516	44140.960938
636.262695	44358.464844
635.045898	44158.375000
633.829102	43908.425781
632.612305	43826.308594
631.395508	43636.406250
630.177734	43230.988281
628.959961	42967.421875
627.742188	42638.101563
626.524414	43352.312500
625.306641	42939.261719
624.087891	42795.597656
622.869141	42548.300781
621.650391	42823.402344
620.430664	43016.679688
619.211914	43060.421875
617.992188	43145.988281
616.772461	42956.617188
615.551758	43105.898438
614.332031	43073.914063
613.111328	43352.527344
611.890625	43232.917969
610.669922	42749.148438
609.448242	42838.628906
608.226563	43327.945313
607.004883	43186.542969
605.783203	42898.031250
604.561523	43076.878906
603.338867	42941.562500
602.116211	43026.914063
600.893555	43505.699219
599.669922	42853.796875
598.447266	43044.394531
597.223633	42911.187500
596.000000	43034.183594
594.775391	43403.312500
593.551758	43178.800781
592.327148	43325.484375
591.102539	43134.796875
589.877930	43360.785156
588.652344	43790.984375
587.426758	43544.785156
586.201172	43937.109375
584.975586	43839.648438
583.750000	44233.750000
582.523438	44017.367188
581.296875	44482.605469
580.070313	44894.187500
578.842773	44766.917969
577.616211	44790.183594
576.388672	45227.203125
575.161133	45315.687500
573.932617	45313.101563
572.705078	45227.414063
571.476563	44880.628906
570.248047	45352.812500
569.018555	45273.089844
567.790039	45096.515625
566.560547	44659.074219
565.331055	44646.718750
564.101563	44239.164063
562.871094	44189.351563
561.641602	44060.542969
560.411133	43915.984375
559.179688	43897.847656
557.949219	43500.675781
556.717773	43587.230469
555.486328	43555.343750
554.254883	43245.269531
553.023438	43321.953125
551.791016	43355.214844
550.558594	43047.316406
549.326172	42723.761719
548.093750	43040.964844
546.860352	42851.542969
545.627930	43237.562500
544.393555	43059.992188
543.160156	42782.031250
541.926758	42716.863281
540.692383	42913.585938
539.458008	42801.167969
538.223633	42769.484375
536.988281	42942.468750
535.752930	42932.410156
534.517578	42989.234375
533.282227	42926.062500
532.046875	43224.726563
530.810547	43483.957031
529.574219	43082.632813
528.337891	43184.566406
527.101563	43027.093750
525.864258	43590.656250
524.626953	43391.917969
523.389648	43130.410156
522.152344	43185.105469
520.914063	43665.757813
519.675781	43665.371094
518.437500	43415.773438
517.199219	43429.167969
515.959961	43479.820313
514.721680	43665.777344
513.482422	43759.503906
512.242188	43390.523438
511.002930	43347.054688
509.762695	43521.128906
508.522461	43320.902344
507.282227	43739.781250
506.041016	43290.843750
504.800781	43423.664063
503.559570	43068.929688
502.318359	43469.914063
501.076172	43035.054688
499.833984	43064.109375
498.592773	43316.175781
497.349609	43096.750000
496.107422	43395.648438
494.864258	43397.230469
493.622070	43512.191406
492.377930	43177.566406
491.134766	43296.433594
489.891602	43882.207031
488.647461	43551.605469
487.403320	43719.152344
486.158203	43726.515625
484.914063	44005.242188
483.668945	43815.398438
482.423828	43625.621094
481.178711	43980.300781
479.932617	43975.894531
478.686523	44433.746094
477.440430	44323.941406
476.194336	44264.871094
474.948242	44513.820313
473.701172	44421.597656
472.454102	44448.273438
471.207031	44332.714844
469.958984	44092.531250
468.711914	44892.417969
467.463867	44301.730469
466.215820	44577.582031
464.966797	44631.437500
463.718750	45076.425781
462.469727	45188.531250
461.220703	45080.769531
459.970703	44941.929688
458.721680	45262.062500
457.471680	45309.878906
456.221680	45480.140625
454.970703	45273.300781
453.720703	45872.925781
452.469727	46353.812500
451.218750	46211.015625
449.966797	46153.718750
448.715820	46473.121094
447.463867	46458.500000
446.211914	47476.441406
444.959961	47308.328125
443.707031	47371.156250
442.454102	47627.937500
441.201172	47178.667969
439.948242	47163.917969
438.695313	46980.500000
437.441406	46915.390625
436.187500	46245.656250
434.933594	45700.183594
433.678711	45617.910156
432.424805	45198.652344
431.169922	44909.296875
429.914063	44749.769531
428.659180	44812.914063
427.403320	44396.050781
426.147461	44430.207031
424.891602	44294.097656
423.635742	44780.882813
422.378906	44261.835938
421.122070	44334.656250
419.865234	44390.046875
418.608398	44458.945313
417.350586	44195.429688
416.092773	44331.957031
414.834961	44300.367188
413.577148	44098.832031
412.318359	44142.601563
411.059570	44097.546875
409.800781	43954.066406
408.541992	44239.070313
407.282227	44402.406250
406.022461	44129.687500
404.762695	44132.886719
403.502930	44273.003906
402.242188	43969.609375
400.981445	44287.046875
