#Wave		#Intensity
2001.248047	22937.222656
2000.278320	22917.169922
1999.308594	22617.451172
1998.338867	22771.359375
1997.369141	22842.541016
1996.398438	22800.980469
1995.428711	22959.781250
1994.458008	22757.964844
1993.487305	22899.191406
1992.516602	22772.544922
1991.545898	23071.380859
1990.574219	22331.718750
1989.603516	22535.460938
1988.631836	22639.080078
1987.660156	22680.142578
1986.688477	22736.189453
1985.715820	22492.220703
1984.744141	22778.238281
1983.771484	22574.330078
1982.798828	22597.873047
1981.826172	22488.998047
1980.853516	22495.060547
1979.880859	22853.246094
1978.907227	22462.230469
1977.933594	22458.304688
1976.959961	22454.380859
1975.986328	22345.640625
1975.012695	22616.205078
1974.039063	22432.630859
1973.064453	22318.960938
1972.089844	22312.564453
1971.115234	22483.205078
1970.140625	22411.962891
1969.166016	22552.613281
1968.190430	22227.187500
1967.215820	22280.609375
1966.240234	22448.609375
1965.264648	22252.892578
1964.289063	22139.423828
1963.312500	22329.767578
1962.336914	22607.175781
1961.360352	22095.453125
1960.383789	22375.291016
1959.407227	22274.337891
1958.430664	22312.734375
1957.454102	22535.177734
1956.476563	22406.890625
1955.499023	22383.078125
1954.521484	22152.935547
1953.543945	22024.779297
1952.566406	22627.302734
1951.587891	22514.015625
1950.610352	22142.402344
1949.631836	22267.687500
1948.653320	22683.486328
1947.674805	22279.757813
1946.696289	22486.875000
1945.716797	22353.869141
1944.737305	22409.515625
1943.758789	22157.468750
1942.779297	22458.728516
1941.798828	22181.957031
1940.819336	22091.275391
1939.838867	22146.916016
1938.859375	22366.154297
1937.878906	22307.707031
1936.898438	22219.541016
1935.916992	22188.394531
1934.936523	22246.443359
1933.955078	22235.115234
1932.974609	22288.179688
1931.993164	22041.625000
1931.010742	22292.750000
1930.029297	22155.185547
1929.047852	22124.083984
1928.065430	22065.773438
1927.083008	22200.443359
1926.100586	22003.625000
1925.118164	22402.869141
1924.135742	22386.580078
1923.152344	22266.466797
1922.168945	22131.564453
1921.185547	22184.525391
1920.202148	22012.621094
1919.218750	21986.529297
1918.235352	22148.162109
1917.250977	22408.519531
1916.266602	22199.656250
1915.282227	22450.037109
1914.297852	22063.525391
1913.313477	22232.404297
1912.328125	22319.798828
1911.343750	22232.007813
1910.358398	22388.433594
1909.373047	22219.279297
1908.387695	22205.521484
1907.401367	22046.318359
1906.416016	22311.111328
1905.429688	22092.800781
1904.443359	22081.535156
1903.457031	21754.945313
1902.470703	21748.666016
1901.483398	22161.033203
1900.497070	22073.429688
1899.509766	21815.998047
1898.522461	22018.919922
1897.535156	22108.570313
1896.546875	21838.962891
1895.559570	22218.892578
1894.571289	22040.363281
1893.583008	22302.083984
1892.594727	22194.902344
1891.606445	22149.216797
1890.618164	21877.421875
1889.628906	21974.335938
1888.639648	22167.037109
1887.650391	21868.359375
1886.661133	21950.484375
1885.671875	22008.023438
1884.682617	21822.468750
1883.692383	22172.132813
1882.702148	21937.525391
1881.711914	21909.132813
1880.721680	21875.843750
1879.731445	21884.267578
1878.740234	21831.369141
1877.749023	21856.960938
1876.757813	22007.587891
1875.766602	21672.783203
1874.775391	22122.404297
1873.784180	22059.705078
1872.791992	21933.324219
1871.799805	21829.033203
1870.807617	22052.978516
1869.815430	22000.126953
1868.823242	21949.742188
1867.830078	22149.064453
1866.837891	21905.314453
1865.844727	21916.146484
1864.851563	22249.935547
1863.858398	21891.320313
1862.864258	21887.472656
1861.871094	21834.716797
1860.876953	21997.134766
1859.882813	21968.822266
1858.888672	21876.972656
1857.894531	21929.330078
1856.899414	22167.353516
1855.905273	21872.763672
1854.910156	22120.480469
1853.915039	22253.337891
1852.919922	21975.976563
1851.923828	21708.476563
1850.928711	22314.818359
1849.932617	22020.507813
1848.936523	22250.853516
1847.940430	21995.685547
1846.944336	22321.072266
1845.947266	22163.519531
1844.951172	22001.144531
1843.954102	22426.298828
1842.957031	22200.566406
1841.959961	22403.787109
1840.962891	22380.353516
1839.964844	21972.050781
1838.966797	22194.685547
1837.969727	22300.357422
1836.970703	22320.779297
1835.972656	22195.138672
1834.974609	22025.734375
1833.975586	22119.191406
1832.976563	22300.199219
1831.978516	22337.626953
1830.978516	22214.521484
1829.979492	22339.488281
1828.980469	22177.525391
1827.980469	22334.050781
1826.980469	22434.623047
1825.980469	22284.876953
1824.980469	22297.958984
1823.979492	22340.183594
1822.979492	22207.531250
1821.978516	22349.312500
1820.977539	22418.208984
1819.976563	22552.619141
1818.975586	22390.894531
1817.973633	22697.542969
1816.972656	22293.240234
1815.970703	22466.384766
1814.968750	22244.156250
1813.966797	22487.566406
1812.963867	22197.527344
1811.961914	22123.320313
1810.958984	22344.808594
1809.956055	22396.601563
1808.953125	22327.242188
1807.950195	22364.484375
1806.946289	22372.650391
1805.943359	22467.982422
1804.939453	22713.378906
1803.935547	22392.287109
1802.930664	22410.119141
1801.926758	22505.373047
1800.922852	22232.869141
1799.917969	22323.283203
1798.913086	22435.427734
1797.908203	22325.082031
1796.903320	22775.640625
1795.897461	22498.490234
1794.891602	22443.771484
1793.886719	22507.466797
1792.880859	22653.277344
1791.874023	22429.480469
1790.868164	22425.523438
1789.862305	22404.664063
1788.855469	22354.841797
1787.848633	22698.470703
1786.841797	22677.572266
1785.833984	22709.763672
1784.827148	22276.343750
1783.819336	22795.816406
1782.812500	22712.210938
1781.804688	22975.839844
1780.795898	22754.818359
1779.788086	22789.365234
1778.779297	22963.673828
1777.771484	22786.138672
1776.762695	22965.201172
1775.753906	23018.953125
1774.744141	22925.785156
1773.735352	22668.923828
1772.725586	22835.841797
1771.715820	23074.904297
1770.706055	22912.001953
1769.696289	23025.851563
1768.686523	22774.005859
1767.675781	22661.750000
1766.666016	22693.818359
1765.655273	23072.099609
1764.644531	23248.318359
1763.632813	22888.492188
1762.622070	22925.300781
1761.610352	22745.857422
1760.598633	23039.712891
1759.586914	23134.115234
1758.575195	23432.599609
1757.563477	22866.636719
1756.550781	23018.628906
1755.538086	23252.169922
1754.525391	23380.042969
1753.512695	23236.753906
1752.500000	22841.636719
1751.486328	23089.431641
1750.473633	23250.808594
1749.459961	23354.587891
1748.446289	23410.386719
1747.432617	23428.123047
1746.417969	23445.876953
1745.404297	23463.615234
1744.389648	23481.369141
1743.375000	23499.123047
1742.360352	23516.876953
1741.344727	23534.648438
1740.330078	23614.265625
1739.314453	23736.935547
1738.298828	23665.734375
1737.283203	23529.960938
1736.267578	23882.212891
1735.251953	24043.009766
1734.235352	24043.539063
1733.218750	24139.697266
1732.202148	23872.486328
1731.185547	24150.273438
1730.168945	24263.083984
1729.151367	24363.910156
1728.133789	24419.314453
1727.117188	24735.015625
1726.098633	24542.000000
1725.081055	25072.431641
1724.063477	24908.066406
1723.044922	24944.228516
1722.026367	24679.722656
1721.007813	25068.994141
1719.989258	25059.785156
1718.970703	25103.044922
1717.951172	25148.671875
1716.931641	25084.617188
1715.912109	25208.888672
1714.892578	25609.562500
1713.873047	25252.380859
1712.853516	25257.435547
1711.833008	25322.037109
1710.812500	25524.740234
1709.791992	25734.513672
1708.771484	25798.992188
1707.750000	25684.931641
1706.729492	25632.785156
1705.708008	25673.449219
1704.686523	25480.962891
1703.665039	25709.542969
1702.642578	26270.976563
1701.621094	25871.625000
1700.598633	26071.482422
1699.576172	25955.150391
1698.553711	26014.712891
1697.531250	26181.173828
1696.507813	26150.400391
1695.485352	26447.408203
1694.461914	26283.611328
1693.438477	26383.421875
1692.415039	26447.585938
1691.390625	26440.521484
1690.367188	26606.693359
1689.342773	26670.781250
1688.318359	26772.798828
1687.293945	26986.255859
1686.269531	27128.494141
1685.244141	26919.779297
1684.218750	27235.025391
1683.194336	27187.531250
1682.168945	27374.652344
1681.142578	27348.472656
1680.117188	27476.275391
1679.090820	27528.242188
1678.064453	27914.078125
1677.038086	28041.708984
1676.011719	27861.562500
1674.985352	27577.341797
1673.958008	27861.138672
1672.931641	28168.492188
1671.904297	28146.933594
1670.876953	27839.208984
1669.848633	28188.962891
1668.821289	28287.984375
1667.792969	28351.511719
1666.764648	28599.359375
1665.736328	28121.687500
1664.708008	28506.515625
1663.679688	28664.439453
1662.650391	28749.093750
1661.621094	28828.994141
1660.591797	28540.568359
1659.562500	28639.359375
1658.533203	28924.554688
1657.502930	28676.376953
1656.472656	28857.658203
1655.442383	28732.234375
1654.412109	29271.910156
1653.381836	29104.009766
1652.351563	29030.470703
1651.320313	29218.593750
1650.289063	28937.669922
1649.257813	28906.607422
1648.226563	29172.392578
1647.194336	29365.062500
1646.163086	29633.023438
1645.130859	29239.250000
1644.098633	29422.384766
1643.066406	29605.453125
1642.033203	29680.203125
1641.000977	29227.873047
1639.967773	29373.236328
1638.934570	29525.601563
1637.901367	29588.548828
1636.868164	29611.501953
1635.833984	29594.482422
1634.800781	29669.132813
1633.766602	29473.505859
1632.732422	29538.750000
1631.697266	29712.031250
1630.663086	29730.232422
1629.627930	29494.808594
1628.593750	29557.650391
1627.558594	30075.878906
1626.522461	29526.009766
1625.487305	29368.224609
1624.451172	29904.974609
1623.416016	29937.187500
1622.379883	29465.126953
1621.343750	29448.156250
1620.306641	29780.531250
1619.270508	29969.792969
1618.233398	29669.150391
1617.196289	30099.722656
1616.159180	30680.085938
1615.122070	30402.896484
1614.083984	30807.343750
1613.046875	31045.386719
1612.008789	31273.980469
1610.970703	31558.671875
1609.932617	31101.357422
1608.893555	30819.701172
1607.855469	31001.376953
1606.816406	30953.750000
1605.777344	30531.945313
1604.738281	30701.878906
1603.698242	29901.529297
1602.659180	30001.388672
1601.619141	29750.652344
1600.579102	29759.371094
1599.539063	29632.585938
1598.499023	29209.197266
1597.458008	29502.921875
1596.417969	29331.880859
1595.376953	29074.521484
1594.335938	28607.179688
1593.294922	28674.425781
1592.252930	28778.980469
1591.210938	28580.220703
1590.169922	28771.052734
1589.127930	28584.023438
1588.084961	28805.097656
1587.042969	28296.416016
1586.000000	28111.898438
1584.958008	28565.972656
1583.915039	28125.173828
1582.872070	28460.273438
1581.828125	28464.513672
1580.785156	28326.699219
1579.741211	28645.283203
1578.697266	28933.490234
1577.653320	28604.806641
1576.609375	28972.035156
1575.564453	29243.740234
1574.520508	29064.054688
1573.475586	28882.105469
1572.430664	28825.792969
1571.384766	29469.322266
1570.339844	29024.718750
1569.293945	29054.400391
1568.249023	28833.107422
1567.202148	28855.839844
1566.156250	28878.564453
1565.110352	28624.902344
1564.063477	28041.589844
1563.017578	28094.626953
1561.970703	27634.642578
1560.922852	27218.919922
1559.875977	27661.902344
1558.829102	27360.001953
1557.781250	27406.146484
1556.733398	27570.552734
1555.685547	27389.402344
1554.636719	27166.583984
1553.588867	26939.208984
1552.540039	26783.757813
1551.491211	26825.316406
1550.442383	26839.058594
1549.393555	26514.615234
1548.344727	26366.292969
1547.294922	26613.968750
1546.245117	26507.349609
1545.195313	26377.623047
1544.145508	26315.054688
1543.094727	26349.685547
1542.044922	26416.691406
1540.994141	26566.941406
1539.943359	26511.316406
1538.892578	26497.328125
1537.840820	26000.191406
1536.790039	26143.466797
1535.738281	26247.406250
1534.686523	26323.582031
1533.634766	26272.673828
1532.583008	26016.220703
1531.530273	26145.505859
1530.477539	26152.375000
1529.424805	25842.984375
1528.372070	25882.214844
1527.319336	26145.269531
1526.265625	25736.832031
1525.212891	26029.804688
1524.159180	25646.902344
1523.105469	25642.314453
1522.051758	25612.365234
1520.997070	25614.699219
1519.942383	25845.199219
1518.888672	25570.968750
1517.833984	25527.226563
1516.778320	25128.761719
1515.723633	25640.154297
1514.667969	25301.679688
1513.612305	25216.572266
1512.556641	25209.755859
1511.500977	25509.033203
1510.445313	25410.125000
1509.388672	25499.900391
1508.332031	25120.404297
1507.275391	25219.396484
1506.218750	25224.078125
1505.162109	25297.726563
1504.104492	25352.958984
1503.047852	25382.890625
1501.990234	25088.832031
1500.931641	25123.392578
1499.874023	24990.265625
1498.816406	24953.638672
1497.757813	25036.419922
1496.699219	24816.142578
1495.640625	24834.648438
1494.582031	24678.740234
1493.522461	24660.552734
1492.462891	24832.773438
1491.403320	24805.386719
1490.343750	24929.361328
1489.284180	24963.871094
1488.224609	24750.791016
1487.164063	24771.566406
1486.103516	24393.603516
1485.042969	24437.343750
1483.982422	24611.640625
1482.920898	24554.550781
1481.860352	24657.775391
1480.798828	24552.617188
1479.737305	24639.777344
1478.675781	24552.966797
1477.613281	24289.990234
1476.550781	24589.919922
1475.489258	24278.992188
1474.426758	24505.628906
1473.363281	24382.328125
1472.300781	24780.330078
1471.237305	24629.591797
1470.174805	24734.873047
1469.111328	24586.482422
1468.046875	24563.794922
1466.983398	24760.394531
1465.919922	24322.037109
1464.855469	24712.691406
1463.791016	24596.394531
1462.726563	24678.716797
1461.661133	24573.873047
1460.596680	24560.335938
1459.531250	24382.548828
1458.465820	24585.734375
1457.400391	24499.222656
1456.334961	24367.140625
1455.268555	24483.587891
1454.202148	24486.031250
1453.135742	24636.595703
1452.069336	24607.109375
1451.002930	24552.574219
1449.935547	24541.332031
1448.869141	24764.646484
1447.801758	24516.580078
1446.734375	24662.419922
1445.666016	24792.271484
1444.598633	24969.865234
1443.530273	24801.568359
1442.461914	24956.345703
1441.393555	24788.107422
1440.325195	25045.158203
1439.256836	25281.652344
1438.187500	25383.945313
1437.118164	25568.019531
1436.048828	25152.138672
1434.979492	25108.996094
1433.909180	25274.843750
1432.839844	25561.000000
1431.769531	25426.976563
1430.699219	25787.917969
1429.627930	25535.869141
1428.557617	25513.121094
1427.486328	25694.595703
1426.416016	25780.722656
1425.343750	25737.527344
1424.272461	25626.310547
1423.201172	25918.732422
1422.128906	25925.406250
1421.056641	25943.410156
1419.984375	26006.730469
1418.912109	26015.646484
1417.839844	25777.634766
1416.766602	25698.253906
1415.693359	25877.058594
1414.620117	25895.044922
1413.546875	25514.605469
1412.473633	25586.968750
1411.399414	25500.898438
1410.325195	25566.447266
1409.250977	25265.509766
1408.176758	25514.273438
1407.102539	25629.531250
1406.027344	25855.529297
1404.952148	25746.892578
1403.876953	26038.328125
1402.801758	26142.103516
1401.726563	25913.730469
1400.650391	26225.304688
1399.574219	26234.134766
1398.498047	26046.509766
1397.421875	25953.771484
1396.345703	25994.242188
1395.268555	25481.775391
1394.191406	25502.007813
1393.114258	25659.845703
1392.037109	25822.138672
1390.959961	25517.546875
1389.881836	25001.113281
1388.804688	25747.318359
1387.726563	25418.107422
1386.647461	25474.373047
1385.569336	25593.707031
1384.491211	25904.482422
1383.412109	25656.560547
1382.333008	25960.453125
1381.253906	25741.878906
1380.173828	25703.472656
1379.094727	25777.615234
1378.014648	25817.974609
1376.934570	25856.068359
1375.854492	25513.980469
1374.773438	25792.769531
1373.693359	25529.517578
1372.612305	25524.914063
1371.531250	25117.939453
1370.450195	25502.224609
1369.369141	24983.044922
1368.287109	25261.621094
1367.205078	25270.542969
1366.123047	25133.478516
1365.041016	24920.117188
1363.958984	24551.921875
1362.875977	24848.277344
1361.793945	24769.734375
1360.710938	24801.166016
1359.626953	24466.906250
1358.543945	24444.546875
1357.460938	24653.185547
1356.376953	24662.191406
1355.292969	24579.277344
1354.208984	24126.558594
1353.124023	24158.060547
1352.040039	24465.142578
1350.955078	24503.291016
1349.870117	24183.056641
1348.785156	24183.169922
1347.700195	24257.167969
1346.614258	24416.205078
1345.528320	24302.125000
1344.442383	24107.527344
1343.356445	24344.808594
1342.270508	24195.009766
1341.183594	24436.662109
1340.096680	24519.458984
1339.009766	24193.082031
1337.922852	24164.123047
1336.835938	24132.937500
1335.748047	24376.613281
1334.661133	24499.554688
1333.573242	24383.441406
1332.484375	24466.134766
1331.396484	24457.248047
1330.307617	24370.226563
1329.219727	24198.414063
1328.130859	24285.541016
1327.041992	24622.541016
1325.952148	24524.392578
1324.863281	24450.814453
1323.773438	24370.572266
1322.683594	24511.095703
1321.593750	24439.785156
1320.502930	24299.404297
1319.413086	24319.525391
1318.322266	24326.267578
1317.231445	24170.386719
1316.140625	24335.289063
1315.048828	24301.939453
1313.958008	24635.968750
1312.866211	24406.677734
1311.774414	24457.906250
1310.682617	24402.300781
1309.589844	24019.658203
1308.498047	24420.166016
1307.405273	24413.523438
1306.312500	24504.724609
1305.218750	24820.439453
1304.125977	24693.691406
1303.032227	25322.621094
1301.939453	25309.150391
1300.845703	25677.806641
1299.750977	25655.388672
1298.657227	26148.214844
1297.562500	26145.701172
1296.467773	26727.058594
1295.373047	26404.812500
1294.278320	26957.060547
1293.183594	26739.171875
1292.087891	26743.203125
1290.992188	26878.095703
1289.896484	26462.968750
1288.800781	26369.486328
1287.704102	26165.197266
1286.608398	25794.748047
1285.511719	25829.962891
1284.415039	25617.015625
1283.317383	25047.494141
1282.220703	25007.519531
1281.123047	24797.048828
1280.025391	24673.000000
1278.927734	24741.578125
1277.830078	24473.722656
1276.731445	24652.951172
1275.633789	24402.906250
1274.535156	24121.980469
1273.436523	24020.298828
1272.336914	24261.388672
1271.238281	24462.595703
1270.138672	24119.970703
1269.039063	23775.255859
1267.939453	23627.322266
1266.839844	23985.347656
1265.739258	23581.205078
1264.638672	23758.017578
1263.538086	23541.742188
1262.437500	23616.945313
1261.336914	23524.375000
1260.235352	23085.367188
1259.134766	23348.156250
1258.033203	23500.546875
1256.930664	23370.564453
1255.829102	23558.177734
1254.726563	23176.882813
1253.625000	23318.167969
1252.522461	23435.156250
1251.418945	23228.171875
1250.316406	23160.064453
1249.212891	23426.806641
1248.110352	23305.828125
1247.006836	23429.314453
1245.902344	23222.513672
1244.798828	23213.896484
1243.694336	23240.494141
1242.589844	23130.656250
1241.485352	23174.855469
1240.380859	23353.214844
1239.276367	22882.744141
1238.170898	23120.457031
1237.065430	22977.759766
1235.959961	23147.228516
1234.854492	22870.521484
1233.748047	22993.806641
1232.642578	22653.517578
1231.536133	22884.419922
1230.429688	23145.980469
1229.322266	23194.470703
1228.215820	23372.458984
1227.108398	23100.445313
1226.000977	23173.052734
1224.893555	23427.736328
1223.786133	23263.343750
1222.677734	23614.417969
1221.569336	23544.341797
1220.460938	23329.589844
1219.352539	23327.542969
1218.244141	23450.416016
1217.134766	23384.798828
1216.025391	23091.357422
1214.916016	23435.439453
1213.806641	23177.134766
1212.697266	23080.955078
1211.586914	23004.513672
1210.476563	23230.158203
1209.366211	23105.570313
1208.255859	22913.195313
1207.145508	23029.349609
1206.034180	23038.283203
1204.922852	23053.775391
1203.811523	22835.308594
1202.700195	23021.341797
1201.587891	22805.144531
1200.476563	23168.119141
1199.364258	23297.179688
1198.251953	23085.417969
1197.138672	23262.494141
1196.026367	22983.119141
1194.913086	22965.835938
1193.799805	23389.500000
1192.686523	23160.447266
1191.573242	23245.697266
1190.458984	23446.542969
1189.344727	23248.140625
1188.230469	23233.003906
1187.116211	23625.623047
1186.001953	23056.677734
1184.886719	23174.541016
1183.772461	23026.488281
1182.657227	23148.669922
1181.541016	23018.101563
1180.425781	23142.417969
1179.309570	22922.609375
1178.193359	23225.435547
1177.077148	23142.835938
1175.960938	23055.912109
1174.844727	23023.421875
1173.727539	23003.996094
1172.610352	22943.246094
1171.493164	22834.667969
1170.375977	22402.123047
1169.257813	22908.964844
1168.139648	22739.583984
1167.022461	22802.814453
1165.903320	22418.390625
1164.785156	22655.458984
1163.666992	22583.992188
1162.547852	22445.224609
1161.428711	22486.730469
1160.309570	22862.552734
1159.189453	22517.603516
1158.070313	22684.941406
1156.950195	22611.371094
1155.830078	22923.978516
1154.709961	22646.503906
1153.588867	22681.408203
1152.468750	22475.628906
1151.347656	22651.457031
1150.226563	22471.763672
1149.104492	22378.816406
1147.983398	22509.064453
1146.861328	22879.716797
1145.739258	22448.871094
1144.617188	22873.533203
1143.495117	22761.105469
1142.372070	22378.138672
1141.250000	22620.779297
1140.126953	22744.318359
1139.003906	22707.714844
1137.879883	22904.736328
1136.756836	22621.570313
1135.632813	22846.640625
1134.508789	22710.595703
1133.384766	22851.267578
1132.259766	22806.035156
1131.135742	22715.443359
1130.010742	22624.882813
1128.885742	22825.941406
1127.759766	22642.533203
1126.634766	22560.669922
1125.508789	22880.357422
1124.382813	22636.603516
1123.256836	22466.306641
1122.130859	22807.410156
1121.003906	22619.884766
1119.877930	22697.708984
1118.750977	22553.398438
1117.624023	22588.083984
1116.496094	22482.644531
1115.369141	22685.431641
1114.241211	22446.414063
1113.113281	22694.375000
1111.985352	22479.134766
1110.856445	22595.628906
1109.728516	22281.435547
1108.599609	22559.380859
1107.470703	22408.890625
1106.340820	22415.554688
1105.211914	22611.558594
1104.082031	22573.003906
1102.952148	23065.722656
1101.822266	22455.074219
1100.692383	22500.417969
1099.561523	23063.816406
1098.431641	22533.025391
1097.300781	22846.937500
1096.169922	22453.880859
1095.038086	22426.144531
1093.907227	22505.800781
1092.775391	22428.675781
1091.643555	22398.808594
1090.511719	22373.244141
1089.378906	22459.287109
1088.246094	22350.035156
1087.114258	22257.986328
1085.980469	22382.609375
1084.847656	22629.425781
1083.714844	22029.203125
1082.581055	22128.072266
1081.447266	22066.148438
1080.313477	22357.841797
1079.179688	22321.609375
1078.044922	22197.558594
1076.910156	22324.144531
1075.775391	22189.429688
1074.640625	22258.160156
1073.505859	22609.429688
1072.370117	22333.476563
1071.234375	22303.707031
1070.098633	22774.582031
1068.962891	22417.462891
1067.826172	22672.136719
1066.690430	22347.238281
1065.553711	22477.832031
1064.416992	22576.312500
1063.279297	22390.521484
1062.142578	22221.890625
1061.004883	22602.357422
1059.867188	22623.845703
1058.729492	22265.197266
1057.590820	22359.333984
1056.453125	22331.751953
1055.314453	22263.626953
1054.175781	22568.972656
1053.037109	22498.691406
1051.897461	22400.707031
1050.757813	22132.130859
1049.618164	22096.085938
1048.478516	22324.423828
1047.338867	22141.271484
1046.199219	22100.980469
1045.058594	22028.738281
1043.917969	22291.003906
1042.777344	22308.216797
1041.635742	22150.787109
1040.495117	22265.962891
1039.353516	22481.154297
1038.211914	22513.212891
1037.069336	22560.156250
1035.927734	22400.691406
1034.785156	22373.179688
1033.642578	22349.931641
1032.500000	22471.294922
1031.357422	22369.367188
1030.213867	22110.167969
1029.071289	22220.878906
1027.927734	22318.798828
1026.783203	22187.224609
1025.639648	22316.976563
1024.495117	22442.431641
1023.351563	22259.941406
1022.207031	22308.929688
1021.061523	22306.955078
1019.916992	22228.578125
1018.771484	22309.371094
1017.625977	22549.242188
1016.480469	22542.978516
1015.334961	22182.558594
1014.188477	22801.855469
1013.041992	22443.638672
1011.895508	22496.742188
1010.749023	22566.777344
1009.602539	22585.937500
1008.455078	22581.787109
1007.307617	22579.753906
1006.160156	22668.777344
1005.012695	22819.166016
1003.864258	23100.740234
1002.716797	23134.589844
1001.568359	23293.269531
1000.419922	23377.843750
999.270508	23589.300781
998.122070	23468.646484
996.972656	23525.650391
995.823242	23741.187500
994.673828	23730.480469
993.523438	23652.150391
992.373047	23592.863281
991.222656	23624.437500
990.072266	23227.232422
988.921875	23438.357422
987.771484	23400.263672
986.620117	23300.964844
985.468750	23549.947266
984.317383	23349.365234
983.165039	23484.314453
982.013672	23646.636719
980.861328	23243.677734
979.708984	23770.779297
978.555664	23218.255859
977.403320	23561.779297
976.250000	23591.162109
975.096680	23576.283203
973.943359	23262.255859
972.790039	23477.029297
971.635742	23382.152344
970.481445	23390.478516
969.327148	23323.017578
968.172852	23249.263672
967.018555	23196.580078
965.863281	23341.691406
964.708008	23375.255859
963.552734	22996.578125
962.397461	23290.943359
961.241211	23385.466797
960.084961	23458.933594
958.929688	23511.355469
957.772461	23109.880859
956.616211	23479.582031
955.458984	23130.771484
954.301758	23456.226563
953.144531	23689.171875
951.987305	23390.898438
950.830078	23592.283203
949.671875	23394.865234
948.513672	23493.363281
947.355469	23361.066406
946.196289	23518.259766
945.038086	23589.414063
943.878906	23260.085938
942.719727	23704.394531
941.560547	23295.519531
940.400391	23697.746094
939.241211	23576.048828
938.081055	23626.162109
936.919922	23646.935547
935.759766	23831.027344
934.599609	23847.566406
933.438477	23943.636719
932.277344	23907.828125
931.116211	23907.599609
929.954102	23700.263672
928.791992	24185.328125
927.630859	23689.425781
926.467773	23931.771484
925.305664	24171.937500
924.143555	23791.261719
922.980469	24064.798828
921.817383	23918.283203
920.654297	23936.845703
919.490234	23792.494141
918.327148	23715.015625
917.163086	23946.552734
915.999023	24090.332031
914.833984	24131.796875
913.669922	23910.333984
912.504883	24318.986328
911.339844	24243.576172
910.174805	24514.375000
909.008789	24228.363281
907.843750	24465.708984
906.677734	24496.621094
905.511719	24473.339844
904.345703	24275.050781
903.178711	24285.146484
902.011719	24522.255859
900.844727	24382.369141
899.677734	24398.683594
898.510742	24552.373047
897.342773	24387.582031
896.174805	24426.769531
895.006836	24141.394531
893.838867	24492.619141
892.670898	24115.830078
891.501953	24038.595703
890.333008	24310.644531
889.164063	24601.296875
887.994141	24476.214844
886.825195	24367.800781
885.655273	24440.156250
884.485352	24506.251953
883.315430	24304.441406
882.144531	24681.966797
880.973633	24793.646484
879.803711	24851.322266
878.631836	24819.748047
877.460938	25138.802734
876.289063	24918.423828
875.118164	25125.351563
873.945313	24929.935547
872.773438	24935.687500
871.601563	25094.818359
870.428711	25307.771484
869.255859	25371.460938
868.083008	25165.818359
866.910156	25041.029297
865.736328	25226.908203
864.562500	25423.070313
863.388672	25325.208984
862.214844	25643.388672
861.040039	25818.667969
859.866211	25486.998047
858.691406	25709.814453
857.516602	25750.550781
856.340820	25718.900391
855.166016	26071.791016
853.990234	25787.916016
852.814453	25892.667969
851.637695	26148.214844
850.461914	25655.828125
849.285156	25822.507813
848.108398	25935.431641
846.931641	25881.070313
845.754883	25822.601563
844.577148	26187.259766
843.399414	26042.082031
842.221680	26212.623047
841.043945	26015.923828
839.865234	26392.644531
838.687500	26476.417969
837.508789	26644.685547
836.329102	26647.990234
835.150391	26772.882813
833.970703	26823.550781
832.791992	26717.628906
831.611328	26739.449219
830.431641	26153.751953
829.251953	26301.261719
828.071289	26240.800781
826.890625	26149.486328
825.709961	25877.117188
824.528320	26168.587891
823.347656	26081.447266
822.166016	26105.400391
820.984375	25750.984375
819.801758	25832.552734
818.620117	25901.757813
817.437500	25765.417969
816.254883	25649.677734
815.072266	25930.474609
813.888672	25861.986328
812.706055	25731.912109
811.522461	25969.416016
810.338867	26032.337891
809.154297	25992.611328
807.970703	26051.398438
806.786133	26251.730469
805.601563	25861.203125
804.416992	25856.398438
803.231445	25894.656250
802.045898	25598.718750
800.861328	26182.257813
799.674805	25890.472656
798.489258	26053.683594
797.302734	25776.367188
796.117188	25683.500000
794.930664	25349.013672
793.743164	25618.669922
792.556641	25417.382813
791.369141	25406.517578
790.181641	25598.246094
788.994141	25552.566406
787.805664	25304.386719
786.618164	25248.550781
785.429688	25483.103516
784.241211	25320.939453
783.052734	25528.816406
781.863281	25423.925781
780.673828	25347.679688
779.484375	25302.105469
778.294922	25383.187500
777.105469	25472.406250
775.915039	25541.171875
774.724609	25115.882813
773.534180	25213.261719
772.343750	25420.800781
771.152344	24918.236328
769.960938	25135.951172
768.769531	25365.820313
767.578125	25458.978516
766.385742	25531.712891
765.194336	25584.035156
764.001953	25397.888672
762.808594	25607.111328
761.616211	25133.773438
760.422852	25646.462891
759.230469	25328.064453
758.037109	25390.539063
756.842773	25485.562500
755.649414	25458.425781
754.455078	25732.478516
753.260742	25424.527344
752.066406	25501.160156
750.871094	25543.189453
749.676758	25174.437500
748.481445	25513.339844
747.286133	25565.501953
746.089844	25487.574219
744.894531	25614.902344
743.698242	24888.916016
742.501953	25128.021484
741.304688	25054.289063
740.108398	25065.863281
738.911133	25530.136719
737.713867	24963.152344
736.516602	25047.787109
735.319336	25146.593750
734.121094	25133.789063
732.922852	25090.568359
731.724609	24919.609375
730.526367	25322.472656
729.327148	25013.693359
728.127930	25448.814453
726.928711	25026.652344
725.729492	24983.490234
724.530273	24806.660156
723.330078	25253.640625
722.129883	24726.537109
720.929688	24640.947266
719.728516	25215.218750
718.528320	24908.990234
717.327148	24752.597656
716.125977	25324.500000
714.923828	25164.039063
713.722656	24947.017578
712.520508	25219.341797
711.318359	25271.232422
710.116211	25260.451172
708.913086	25154.703125
707.710938	25016.669922
706.507813	25389.712891
705.304688	25140.613281
704.100586	25277.255859
702.897461	25543.044922
701.693359	25257.722656
700.489258	25757.500000
699.284180	25669.966797
698.080078	25806.376953
696.875000	25732.982422
695.669922	25931.837891
694.464844	25767.720703
693.258789	25970.523438
692.053711	26229.681641
690.847656	26255.003906
689.641602	26558.328125
688.434570	26438.554688
687.228516	26624.925781
686.021484	26559.544922
684.814453	26729.718750
683.607422	26362.433594
682.399414	26450.072266
681.191406	26485.365234
679.983398	26538.748047
678.775391	26326.630859
677.567383	26661.537109
676.358398	26210.230469
675.149414	26470.658203
673.940430	26805.343750
672.730469	26637.574219
671.521484	26654.689453
670.311523	26663.763672
669.101563	26287.257813
667.890625	26593.550781
666.680664	26678.910156
665.469727	26274.509766
664.258789	26153.205078
663.047852	25947.677734
661.835938	25692.080078
660.625000	25945.988281
659.413086	25983.240234
658.201172	25900.187500
656.988281	26071.728516
655.776367	26020.753906
654.563477	25817.515625
653.350586	25916.853516
652.136719	25781.808594
650.923828	25710.896484
649.709961	25980.380859
648.496094	26283.792969
647.282227	25852.562500
646.067383	25631.605469
644.852539	25744.843750
643.637695	25521.986328
642.422852	26153.183594
641.208008	25920.333984
639.992188	25727.552734
638.776367	26150.476563
637.560547	26243.500000
636.344727	26072.742188
635.127930	26103.812500
633.911133	26096.921875
632.694336	26002.167969
631.477539	25941.388672
630.259766	25994.414063
629.042969	25899.728516
627.825195	25541.677734
626.606445	25933.908203
625.388672	25831.304688
624.169922	25962.072266
622.951172	26110.738281
621.732422	25890.533203
620.513672	26254.417969
619.293945	25892.777344
618.074219	25955.664063
616.854492	26098.207031
615.634766	26129.160156
614.414063	26118.283203
613.193359	26027.771484
611.972656	26154.265625
610.751953	26101.591797
609.530273	26210.113281
608.309570	26376.287109
607.087891	26277.847656
605.866211	26251.039063
604.643555	26234.179688
603.420898	26388.292969
602.198242	26484.705078
600.975586	26523.451172
599.752930	26460.851563
598.529297	26416.152344
597.305664	26395.300781
596.082031	26350.628906
594.858398	26583.921875
593.633789	26511.439453
592.410156	26849.796875
591.185547	26674.107422
589.959961	26829.789063
588.735352	27221.445313
587.509766	27117.173828
586.284180	27183.457031
585.058594	27547.070313
583.832031	27395.224609
582.606445	27520.863281
581.379883	27804.953125
580.153320	27902.732422
578.925781	27905.408203
577.699219	28161.539063
576.471680	28209.699219
575.244141	28851.656250
574.015625	28705.720703
572.788086	28298.656250
571.559570	28833.402344
570.331055	28588.654297
569.101563	28330.152344
567.873047	28107.333984
566.643555	27957.742188
565.414063	28213.369141
564.184570	28142.851563
562.954102	27880.718750
561.724609	27701.644531
560.494141	27512.763672
559.263672	27187.707031
558.032227	27253.660156
556.800781	27260.375000
555.570313	27265.109375
554.337891	27242.220703
553.106445	26799.152344
551.874023	27145.181641
550.642578	27151.902344
549.409180	27278.886719
548.176758	26739.548828
546.944336	27083.353516
545.710938	26881.205078
544.477539	26882.052734
543.243164	26999.113281
542.009766	26789.212891
540.775391	27034.228516
539.541016	26865.740234
538.306641	26787.853516
537.071289	26948.107422
535.836914	26948.933594
534.601563	27187.779297
533.366211	27168.888672
532.129883	26807.851563
530.894531	27357.216797
529.658203	26837.058594
528.421875	26969.570313
527.184570	26883.923828
525.948242	27053.701172
524.710938	27321.619141
523.473633	27328.250000
522.235352	27148.353516
520.998047	27329.724609
519.759766	27098.861328
518.521484	27158.505859
517.283203	27588.935547
516.043945	27605.310547
514.804688	27592.257813
513.565430	27598.818359
512.326172	27871.998047
511.085938	27762.853516
509.846680	27730.177734
508.606445	27736.703125
507.366211	27768.689453
506.125000	27751.697266
504.883789	27660.294922
503.643555	27958.546875
502.401367	27829.945313
501.160156	27740.535156
499.917969	27627.675781
498.675781	27857.228516
497.433594	27965.417969
496.191406	27811.507813
494.948242	27919.662109
493.705078	27787.320313
492.461914	27846.572266
491.218750	27845.220703
489.975586	27855.591797
488.731445	28035.908203
487.487305	27723.978516
486.242188	27554.712891
484.998047	27715.455078
483.752930	28135.750000
482.507813	28060.175781
481.262695	28011.945313
480.016602	27975.437500
478.771484	28102.785156
477.525391	28218.380859
476.278320	27990.773438
475.032227	28260.347656
473.785156	28258.902344
472.538086	28477.656250
471.291016	28517.082031
470.043945	28275.992188
468.795898	28630.941406
467.547852	28637.210938
466.299805	28353.400391
465.051758	28531.003906
463.802734	28547.013672
462.553711	28724.511719
461.304688	28794.945313
460.055664	29040.400391
458.805664	29034.904297
457.555664	28924.421875
456.305664	28835.363281
455.055664	29111.714844
453.804688	28995.447266
452.553711	29337.714844
451.302734	29400.144531
450.051758	29062.494141
448.799805	29297.757813
447.548828	29596.996094
446.296875	29709.789063
445.043945	29609.076172
443.791992	29671.376953
442.539063	29976.130859
441.286133	29632.988281
440.033203	29576.958984
438.779297	29410.443359
437.526367	29433.949219
436.272461	29271.396484
435.017578	29229.035156
433.763672	29107.263672
432.508789	29171.476563
431.253906	29216.298828
429.999023	29361.783203
428.744141	29000.035156
427.488281	28951.958984
426.232422	29399.275391
424.976563	28797.820313
423.720703	29117.326172
422.463867	28970.628906
421.207031	29009.609375
419.950195	28915.181641
418.693359	28743.474609
417.435547	28937.070313
416.177734	29128.660156
414.919922	29154.042969
413.662109	28798.933594
412.403320	29110.158203
411.144531	29064.093750
409.885742	29045.068359
408.626953	29228.691406
407.367188	29132.457031
406.107422	29159.726563
404.847656	29044.251953
403.587891	28913.390625
402.327148	29393.783203
401.067383	29214.708984
