#Wave		#Intensity
2001.242188	24929.884766
2000.272461	25150.458984
1999.302734	25075.898438
1998.333008	24780.865234
1997.363281	24621.216797
1996.392578	24501.697266
1995.422852	24953.208984
1994.452148	25071.542969
1993.481445	24649.087891
1992.510742	24747.406250
1991.540039	24913.261719
1990.568359	24783.802734
1989.596680	24794.484375
1988.625977	24772.646484
1987.654297	24518.234375
1986.681641	24811.500000
1985.709961	24622.167969
1984.738281	24732.845703
1983.765625	24773.507813
1982.792969	24614.263672
1981.820313	24874.775391
1980.847656	24658.117188
1979.874023	24471.501953
1978.901367	24831.775391
1977.927734	24994.699219
1976.954102	24551.029297
1975.980469	24481.851563
1975.006836	24712.119141
1974.032227	24448.347656
1973.058594	24548.833984
1972.083984	24878.720703
1971.109375	24542.746094
1970.134766	24912.404297
1969.160156	24628.882813
1968.184570	24278.173828
1967.209961	24829.572266
1966.234375	24885.019531
1965.258789	24372.544922
1964.283203	24472.878906
1963.306641	24411.330078
1962.331055	24586.304688
1961.354492	24756.238281
1960.377930	24575.216797
1959.401367	24444.019531
1958.424805	24666.130859
1957.447266	24651.865234
1956.470703	24672.421875
1955.493164	24153.410156
1954.515625	24405.244141
1953.538086	24348.777344
1952.560547	24299.783203
1951.582031	24409.828125
1950.604492	24606.783203
1949.625977	24339.189453
1948.647461	24406.949219
1947.668945	24536.757813
1946.689453	24450.539063
1945.710938	24153.371094
1944.731445	24399.792969
1943.751953	24757.781250
1942.772461	24304.421875
1941.792969	24483.714844
1940.813477	24643.103516
1939.833008	24569.363281
1938.852539	24262.615234
1937.873047	24444.263672
1936.891602	24303.681641
1935.911133	24339.070313
1934.930664	24386.832031
1933.949219	24397.421875
1932.967773	24313.902344
1931.986328	24303.306641
1931.004883	24292.708984
1930.023438	24282.113281
1929.041016	24271.505859
1928.059570	24260.908203
1927.077148	24250.302734
1926.094727	24239.695313
1925.112305	24229.087891
1924.128906	24218.470703
1923.146484	24207.863281
1922.163086	24197.246094
1921.179688	24186.626953
1920.196289	24176.009766
1919.212891	24165.392578
1918.228516	23943.800781
1917.245117	24418.691406
1916.260742	24157.625000
1915.276367	24321.259766
1914.291992	24415.724609
1913.307617	24196.746094
1912.322266	24503.390625
1911.336914	24385.615234
1910.352539	24753.781250
1909.367188	23970.164063
1908.380859	24417.169922
1907.395508	24269.906250
1906.409180	24206.496094
1905.423828	24443.753906
1904.437500	24565.126953
1903.451172	24841.652344
1902.463867	24123.013672
1901.477539	24493.097656
1900.490234	24606.986328
1899.503906	24570.666016
1898.516602	24411.291016
1897.528320	24404.546875
1896.541016	24405.185547
1895.553711	24511.603516
1894.565430	24214.611328
1893.577148	24298.892578
1892.588867	24643.765625
1891.600586	24216.613281
1890.611328	24463.064453
1889.623047	24203.199219
1888.633789	24257.917969
1887.644531	24177.505859
1886.655273	24553.960938
1885.666016	24046.230469
1884.675781	24145.130859
1883.686523	24138.435547
1882.696289	24480.269531
1881.706055	24431.798828
1880.715820	24174.792969
1879.724609	24408.498047
1878.734375	24551.373047
1877.743164	24076.228516
1876.751953	24363.765625
1875.760742	24241.818359
1874.769531	24387.068359
1873.778320	24056.865234
1872.786133	24515.707031
1871.793945	24234.585938
1870.801758	24284.210938
1869.809570	24316.677734
1868.817383	24434.822266
1867.824219	24577.406250
1866.832031	23848.621094
1865.838867	24140.527344
1864.845703	24082.457031
1863.851563	24440.265625
1862.858398	24140.029297
1861.865234	24277.617188
1860.871094	24197.556641
1859.876953	24166.412109
1858.882813	24267.257813
1857.887695	24434.046875
1856.893555	24273.384766
1855.898438	24168.962891
1854.904297	24416.275391
1853.909180	24233.720703
1852.913086	24505.347656
1851.917969	23780.921875
1850.922852	24267.308594
1849.926758	24106.867188
1848.930664	24331.964844
1847.934570	24093.507813
1846.938477	24116.097656
1845.941406	24167.939453
1844.945313	24424.560547
1843.948242	24239.878906
1842.951172	24233.175781
1841.954102	24226.474609
1840.956055	24370.828125
1839.958984	24561.414063
1838.960938	24196.638672
1837.962891	24440.755859
1836.964844	24217.335938
1835.966797	24193.599609
1834.968750	24169.871094
1833.969727	24238.617188
1832.970703	24480.074219
1831.971680	24242.246094
1830.972656	24228.250000
1829.973633	24508.484375
1828.973633	24394.765625
1827.974609	24533.884766
1826.974609	24488.248047
1825.974609	24508.236328
1824.974609	24365.437500
1823.973633	24548.185547
1822.973633	24198.994141
1821.972656	24219.013672
1820.971680	24292.435547
1819.970703	24567.302734
1818.968750	24189.226563
1817.967773	24502.837891
1816.965820	24593.136719
1815.964844	24331.685547
1814.961914	24288.593750
1813.959961	24374.031250
1812.958008	24553.988281
1811.955078	24428.462891
1810.953125	24475.052734
1809.950195	24196.929688
1808.947266	24359.828125
1807.943359	24333.734375
1806.940430	24513.501953
1805.936523	24228.298828
1804.932617	24250.658203
1803.928711	24512.640625
1802.924805	24438.136719
1801.920898	24581.425781
1800.916016	24250.494141
1799.911133	24696.117188
1798.907227	24474.107422
1797.901367	24394.833984
1796.896484	24441.298828
1795.891602	24816.474609
1794.885742	24959.515625
1793.879883	24459.779297
1792.874023	24573.839844
1791.868164	24400.425781
1790.862305	24473.400391
1789.855469	24437.693359
1788.848633	24602.371094
1787.842773	24653.544922
1786.834961	24774.683594
1785.828125	24782.376953
1784.821289	24872.087891
1783.813477	24571.021484
1782.805664	24778.902344
1781.797852	24535.826172
1780.790039	24608.638672
1779.782227	24551.267578
1778.773438	24783.099609
1777.764648	24607.654297
1776.755859	24839.392578
1775.747070	24618.234375
1774.738281	24780.050781
1773.729492	24185.777344
1772.719727	24665.376953
1771.709961	24848.759766
1770.700195	24582.066406
1769.690430	24625.845703
1768.680664	24616.683594
1767.669922	24600.310547
1766.659180	24733.035156
1765.648438	24805.605469
1764.637695	24524.773438
1763.626953	24782.419922
1762.615234	24826.103516
1761.604492	25001.914063
1760.592773	24711.632813
1759.581055	24738.490234
1758.569336	25147.152344
1757.556641	24852.195313
1756.544922	24804.591797
1755.532227	24874.611328
1754.519531	24961.402344
1753.506836	25408.048828
1752.494141	24885.410156
1751.480469	25180.812500
1750.466797	25406.566406
1749.454102	24865.021484
1748.440430	25376.007813
1747.425781	25311.603516
1746.412109	25168.142578
1745.397461	25309.839844
1744.383789	25607.187500
1743.369141	25523.623047
1742.353516	25449.666016
1741.338867	25710.916016
1740.324219	25469.388672
1739.308594	25618.054688
1738.292969	25570.451172
1737.277344	25637.701172
1736.261719	25537.484375
1735.245117	25657.330078
1734.229492	25755.611328
1733.212891	25951.878906
1732.196289	26215.005859
1731.179688	26059.800781
1730.162109	26157.937500
1729.145508	26138.974609
1728.127930	26368.435547
1727.110352	26122.556641
1726.092773	26691.007813
1725.075195	26020.199219
1724.056641	26273.386719
1723.039063	26240.095703
1722.020508	26657.794922
1721.001953	26469.375000
1719.983398	26674.593750
1718.963867	27051.447266
1717.945313	27139.648438
1716.925781	26896.441406
1715.906250	27077.597656
1714.886719	27330.183594
1713.867188	27077.537109
1712.846680	26884.537109
1711.826172	27201.332031
1710.806641	27367.978516
1709.786133	27189.312500
1708.764648	27484.455078
1707.744141	27439.123047
1706.722656	27393.802734
1705.701172	27526.953125
1704.679688	27305.589844
1703.658203	27517.197266
1702.636719	27628.847656
1701.614258	27507.443359
1700.592773	28051.716797
1699.570313	27899.378906
1698.547852	27756.601563
1697.524414	27780.193359
1696.501953	27620.855469
1695.478516	28128.992188
1694.456055	27770.167969
1693.432617	27986.054688
1692.408203	28171.003906
1691.384766	27980.876953
1690.360352	28317.634766
1689.336914	28426.498047
1688.312500	28075.115234
1687.288086	28701.031250
1686.262695	28299.921875
1685.238281	28031.724609
1684.212891	28896.736328
1683.187500	28896.349609
1682.162109	28860.417969
1681.136719	28798.433594
1680.110352	28883.339844
1679.084961	28918.478516
1678.058594	29180.931641
1677.032227	28728.279297
1676.005859	29151.636719
1674.978516	28976.056641
1673.952148	29205.179688
1672.924805	29467.343750
1671.897461	29372.224609
1670.870117	29513.644531
1669.842773	29156.072266
1668.814453	29453.515625
1667.787109	29086.625000
1666.758789	29487.962891
1665.730469	29853.710938
1664.701172	29853.134766
1663.672852	29949.404297
1662.643555	29823.638672
1661.615234	29544.431641
1660.585938	29987.750000
1659.555664	30329.410156
1658.526367	30066.777344
1657.497070	30214.812500
1656.466797	30063.173828
1655.436523	30319.656250
1654.406250	30576.046875
1653.375977	30544.675781
1652.344727	30270.492188
1651.313477	30604.535156
1650.282227	30441.199219
1649.250977	30292.056641
1648.219727	30486.919922
1647.188477	30507.410156
1646.156250	30537.312500
1645.124023	30404.736328
1644.091797	30436.998047
1643.059570	30711.681641
1642.027344	30736.816406
1640.994141	30665.468750
1639.961914	31022.300781
1638.928711	30687.494141
1637.895508	31001.861328
1636.861328	30944.621094
1635.828125	31329.353516
1634.793945	30818.445313
1633.759766	31278.259766
1632.725586	31054.187500
1631.691406	31039.265625
1630.656250	31115.949219
1629.622070	31366.380859
1628.586914	31217.578125
1627.551758	31212.023438
1626.516602	31187.693359
1625.480469	31095.318359
1624.445313	31476.912109
1623.409180	31628.478516
1622.373047	31597.050781
1621.336914	31542.181641
1620.300781	31768.679688
1619.263672	32313.896484
1618.227539	32633.919922
1617.190430	32492.199219
1616.153320	33011.218750
1615.115234	33405.906250
1614.078125	33517.058594
1613.040039	33632.855469
1612.001953	34483.753906
1610.963867	34002.429688
1609.925781	33872.332031
1608.887695	33910.761719
1607.848633	34108.261719
1606.809570	33580.558594
1605.770508	33361.753906
1604.731445	32878.800781
1603.692383	32767.738281
1602.652344	32588.927734
1601.613281	32132.072266
1600.573242	32145.039063
1599.533203	31940.734375
1598.492188	31734.164063
1597.452148	31324.488281
1596.411133	31372.609375
1595.370117	31332.000000
1594.329102	31466.462891
1593.288086	31544.869141
1592.247070	31168.250000
1591.205078	31288.669922
1590.163086	31089.498047
1589.121094	31354.472656
1588.079102	31034.111328
1587.036133	31049.560547
1585.994141	30927.482422
1584.951172	30572.410156
1583.908203	30988.683594
1582.865234	31213.783203
1581.822266	30674.841797
1580.778320	30601.837891
1579.734375	31173.800781
1578.691406	31093.748047
1577.646484	30995.101563
1576.602539	30987.246094
1575.558594	31288.835938
1574.513672	31246.033203
1573.468750	31282.324219
1572.423828	31227.908203
1571.378906	30957.287109
1570.333008	31260.931641
1569.288086	31190.275391
1568.242188	31228.859375
1567.196289	31032.773438
1566.150391	30811.201172
1565.103516	30427.134766
1564.057617	30665.521484
1563.010742	30676.298828
1561.963867	30638.324219
1560.916992	30449.507813
1559.869141	30265.398438
1558.822266	30322.634766
1557.774414	30477.271484
1556.726563	30110.035156
1555.678711	30076.833984
1554.630859	30154.921875
1553.582031	29876.019531
1552.534180	29861.412109
1551.485352	29492.291016
1550.436523	29660.775391
1549.386719	29706.435547
1548.337891	29599.228516
1547.288086	29325.345703
1546.238281	29377.982422
1545.188477	28868.142578
1544.138672	29126.804688
1543.088867	28994.341797
1542.038086	28831.847656
1540.987305	29169.017578
1539.936523	28988.048828
1538.885742	28971.306641
1537.834961	28649.417969
1536.783203	28949.392578
1535.731445	29263.123047
1534.679688	28479.251953
1533.627930	28758.300781
1532.576172	28864.023438
1531.523438	28724.925781
1530.471680	28830.613281
1529.418945	28927.029297
1528.366211	28635.660156
1527.312500	28549.771484
1526.259766	28424.691406
1525.206055	28382.697266
1524.152344	28518.310547
1523.098633	28365.626953
1522.044922	28183.025391
1520.990234	28108.828125
1519.936523	28168.332031
1518.881836	28241.636719
1517.827148	28273.447266
1516.772461	28413.505859
1515.716797	28127.447266
1514.662109	28159.255859
1513.606445	27857.224609
1512.550781	28149.175781
1511.495117	28263.810547
1510.438477	27964.222656
1509.382813	28221.484375
1508.326172	28589.062500
1507.269531	28869.117188
1506.212891	28183.335938
1505.155273	28274.845703
1504.098633	28646.742188
1503.041016	28372.730469
1501.983398	28266.550781
1500.925781	28353.380859
1499.867188	28224.269531
1498.809570	28104.390625
1497.750977	27970.775391
1496.692383	27671.919922
1495.633789	27986.001953
1494.575195	28065.898438
1493.515625	27895.669922
1492.457031	27743.855469
1491.397461	27770.994141
1490.337891	27887.556641
1489.277344	28072.859375
1488.217773	27634.570313
1487.157227	27753.382813
1486.096680	27876.736328
1485.036133	27681.574219
1483.975586	27610.181641
1482.915039	27857.166016
1481.853516	27375.871094
1480.791992	27290.830078
1479.730469	27157.748047
1478.668945	27235.271484
1477.606445	27543.880859
1476.544922	27419.972656
1475.482422	27682.685547
1474.419922	27396.416016
1473.357422	27133.113281
1472.293945	26963.638672
1471.231445	26951.945313
1470.167969	27219.072266
1469.104492	26919.425781
1468.041016	26836.921875
1466.976563	26427.808594
1465.913086	26626.320313
1464.848633	26489.109375
1463.784180	26908.982422
1462.719727	27004.583984
1461.655273	26700.781250
1460.589844	26607.001953
1459.524414	26524.662109
1458.458984	26529.025391
1457.393555	26494.615234
1456.328125	26674.544922
1455.261719	26669.757813
1454.196289	26562.402344
1453.129883	26400.392578
1452.063477	26411.601563
1450.996094	26456.976563
1449.929688	26609.380859
1448.862305	26426.978516
1447.794922	26287.902344
1446.727539	26626.916016
1445.660156	26460.537109
1444.591797	26849.458984
1443.524414	26856.011719
1442.456055	26696.503906
1441.387695	26744.017578
1440.318359	27046.193359
1439.250000	27050.427734
1438.180664	27377.443359
1437.111328	27111.162109
1436.041992	27163.097656
1434.972656	27133.224609
1433.903320	27189.677734
1432.833008	27177.978516
1431.762695	27534.128906
1430.692383	27175.019531
1429.622070	27049.832031
1428.550781	27060.855469
1427.480469	27443.994141
1426.409180	27400.494141
1425.337891	27282.156250
1424.266602	27236.429688
1423.194336	27533.097656
1422.122070	27158.625000
1421.050781	27607.058594
1419.978516	27608.890625
1418.905273	27386.412109
1417.833008	27802.843750
1416.759766	27750.277344
1415.687500	27419.189453
1414.614258	27348.597656
1413.540039	27461.390625
1412.466797	27205.220703
1411.392578	27078.126953
1410.319336	27304.031250
1409.245117	26998.257813
1408.169922	27151.716797
1407.095703	27083.513672
1406.020508	27026.638672
1404.946289	27433.181641
1403.871094	27317.500000
1402.794922	27253.830078
1401.719727	27151.775391
1400.643555	27535.410156
1399.568359	27487.542969
1398.492188	27532.269531
1397.415039	27563.433594
1396.338867	27215.373047
1395.261719	27637.009766
1394.185547	28033.673828
1393.108398	27536.816406
1392.031250	27870.195313
1390.953125	27786.244141
1389.875977	27815.060547
1388.797852	27634.207031
1387.719727	27890.689453
1386.641602	27845.099609
1385.562500	27882.892578
1384.484375	27810.287109
1383.405273	27627.339844
1382.326172	27415.181641
1381.247070	27484.541016
1380.166992	27468.332031
1379.087891	27103.265625
1378.007813	27170.390625
1376.927734	27597.476563
1375.847656	27495.771484
1374.767578	27407.597656
1373.686523	26921.435547
1372.605469	27132.416016
1371.524414	27444.476563
1370.443359	26978.792969
1369.362305	27144.707031
1368.280273	26903.910156
1367.199219	27224.767578
1366.117188	27161.464844
1365.034180	27145.337891
1363.952148	27418.828125
1362.870117	27164.726563
1361.787109	27276.525391
1360.704102	27608.179688
1359.621094	27524.679688
1358.537109	27380.644531
1357.454102	27294.968750
1356.370117	27072.548828
1355.286133	27123.708984
1354.202148	27190.539063
1353.118164	26995.144531
1352.033203	26728.123047
1350.948242	26611.287109
1349.863281	26671.437500
1348.778320	26659.904297
1347.693359	26366.263672
1346.607422	26643.564453
1345.521484	26137.402344
1344.435547	26233.380859
1343.349609	26588.861328
1342.263672	26136.666016
1341.176758	26261.666016
1340.090820	26091.447266
1339.003906	26357.261719
1337.916016	26683.332031
1336.829102	26396.908203
1335.741211	26300.523438
1334.654297	26651.000000
1333.566406	26630.548828
1332.478516	26994.236328
1331.389648	26714.708984
1330.301758	26794.716797
1329.212891	26740.767578
1328.124023	26780.570313
1327.035156	26557.060547
1325.945313	26811.046875
1324.856445	27004.714844
1323.766602	27144.791016
1322.676758	26914.683594
1321.586914	26834.021484
1320.496094	26791.279297
1319.406250	26759.693359
1318.315430	27260.630859
1317.224609	27358.173828
1316.133789	27386.636719
1315.041992	27375.001953
1313.951172	27410.126953
1312.859375	28010.662109
1311.767578	27878.732422
1310.675781	27566.601563
1309.583008	27615.011719
1308.491211	27747.933594
1307.398438	27389.287109
1306.305664	27159.742188
1305.212891	27036.996094
1304.119141	27149.914063
1303.026367	26987.207031
1301.932617	26946.771484
1300.838867	27039.646484
1299.744141	26830.398438
1298.650391	27074.275391
1297.555664	27606.720703
1296.461914	27643.904297
1295.366211	27534.578125
1294.271484	27722.666016
1293.176758	27651.082031
1292.081055	27756.996094
1290.985352	27734.226563
1289.889648	27897.742188
1288.793945	27307.343750
1287.697266	27612.753906
1286.601563	27224.310547
1285.504883	27168.412109
1284.408203	27006.181641
1283.311523	26950.339844
1282.213867	27189.085938
1281.116211	26869.712891
1280.018555	26404.330078
1278.920898	26561.140625
1277.823242	26264.183594
1276.725586	26451.939453
1275.626953	26332.099609
1274.528320	26205.666016
1273.429688	26291.593750
1272.330078	26116.564453
1271.231445	26030.031250
1270.131836	25879.425781
1269.032227	26095.734375
1267.932617	25653.501953
1266.833008	25832.214844
1265.732422	25697.210938
1264.632813	25772.054688
1263.532227	25367.732422
1262.430664	25179.902344
1261.330078	25334.253906
1260.228516	25287.728516
1259.127930	25113.250000
1258.026367	25097.664063
1256.924805	25007.093750
1255.822266	24740.138672
1254.720703	25147.947266
1253.618164	24914.126953
1252.515625	24940.462891
1251.413086	24845.589844
1250.309570	25039.369141
1249.207031	24878.425781
1248.103516	24444.443359
1247.000000	24550.105469
1245.895508	24715.173828
1244.791992	24633.644531
1243.687500	24659.984375
1242.583008	24662.109375
1241.478516	24985.433594
1240.374023	24778.533203
1239.269531	24859.802734
1238.164063	24908.060547
1237.058594	24995.871094
1235.953125	24617.669922
1234.847656	24848.343750
1233.741211	24865.802734
1232.635742	24929.386719
1231.529297	24681.056641
1230.422852	24637.044922
1229.315430	24926.781250
1228.208984	25216.412109
1227.101563	24860.660156
1225.994141	24886.865234
1224.886719	24687.076172
1223.779297	24763.753906
1222.670898	25026.826172
1221.562500	24857.816406
1220.454102	24761.216797
1219.345703	24513.400391
1218.237305	24539.628906
1217.127930	24177.998047
1216.018555	24559.187500
1214.909180	24182.349609
1213.799805	24182.333984
1212.690430	23860.439453
1211.580078	24011.537109
1210.469727	24226.054688
1209.359375	24236.966797
1208.249023	24339.773438
1207.138672	24085.955078
1206.027344	24230.306641
1204.916016	24037.830078
1203.804688	24151.527344
1202.693359	24068.435547
1201.581055	24265.136719
1200.469727	24223.572266
1199.357422	24035.636719
1198.245117	24374.224609
1197.131836	24507.384766
1196.019531	24280.191406
1194.906250	24830.322266
1193.792969	24192.769531
1192.679688	24264.753906
1191.566406	24408.718750
1190.452148	24445.726563
1189.337891	24172.978516
1188.223633	24214.376953
1187.109375	24347.337891
1185.995117	24223.000000
1184.879883	24410.402344
1183.764648	24257.765625
1182.649414	24333.966797
1181.534180	24442.818359
1180.418945	24375.201172
1179.302734	24629.908203
1178.186523	24488.251953
1177.070313	24555.628906
1175.954102	24496.742188
1174.837891	24091.873047
1173.720703	24331.164063
1172.603516	24483.355469
1171.486328	24454.970703
1170.369141	24624.476563
1169.250977	24669.994141
1168.132813	24352.478516
1167.015625	24480.615234
1165.896484	24415.310547
1164.778320	24599.873047
1163.660156	24341.244141
1162.541016	24740.755859
1161.421875	24241.173828
1160.302734	24254.121094
1159.182617	24206.287109
1158.063477	24319.062500
1156.943359	24548.964844
1155.823242	23884.994141
1154.703125	24099.707031
1153.582031	24205.908203
1152.461914	24166.802734
1151.340820	24123.373047
1150.219727	23837.208984
1149.097656	23826.359375
1147.976563	23811.179688
1146.854492	23722.353516
1145.732422	23336.837891
1144.610352	23689.876953
1143.488281	23311.001953
1142.365234	23839.250000
1141.243164	24044.832031
1140.120117	23778.617188
1138.996094	23646.632813
1137.873047	23577.423828
1136.750000	23672.603516
1135.625977	23910.455078
1134.501953	23670.445313
1133.377930	23601.279297
1132.252930	23921.132813
1131.127930	23784.962891
1130.003906	23568.910156
1128.878906	23698.519531
1127.752930	23748.179688
1126.627930	23635.886719
1125.501953	23702.806641
1124.375977	23512.859375
1123.250000	23394.193359
1122.124023	23422.283203
1120.997070	23599.205078
1119.871094	23202.363281
1118.744141	23497.857422
1117.617188	23469.849609
1116.489258	23476.337891
1115.362305	23159.546875
1114.234375	23775.890625
1113.106445	23222.175781
1111.978516	23457.025391
1110.849609	23362.285156
1109.721680	23304.185547
1108.592773	23211.658203
1107.463867	23541.041016
1106.333984	23463.566406
1105.205078	23379.666016
1104.075195	23351.726563
1102.945313	23211.953125
1101.815430	23648.550781
1100.685547	23366.869141
1099.554688	23341.097656
1098.424805	23201.423828
1097.293945	23618.361328
1096.162109	23510.912109
1095.031250	23169.359375
1093.899414	23046.998047
1092.768555	23049.222656
1091.636719	23081.501953
1090.503906	23030.054688
1089.372070	23064.470703
1088.239258	23135.349609
1087.106445	23159.005859
1085.973633	22736.500000
1084.840820	22966.095703
1083.708008	22762.484375
1082.574219	23030.576172
1081.440430	23017.787109
1080.306641	22908.566406
1079.171875	23092.919922
1078.038086	22812.345703
1076.903320	22767.474609
1075.768555	23146.619141
1074.633789	23067.443359
1073.498047	22904.812500
1072.363281	22966.964844
1071.227539	23159.623047
1070.091797	23044.128906
1068.956055	23114.775391
1067.819336	23112.677734
1066.682617	22864.679688
1065.546875	22903.248047
1064.409180	22757.974609
1063.272461	22711.062500
1062.135742	23117.150391
1060.998047	22950.552734
1059.860352	23010.423828
1058.722656	23046.781250
1057.583984	22856.798828
1056.446289	22491.833984
1055.307617	22908.181641
1054.168945	22639.367188
1053.029297	23000.060547
1051.890625	22564.937500
1050.750977	22558.666016
1049.611328	23147.339844
1048.471680	22714.558594
1047.332031	22712.523438
1046.191406	22644.419922
1045.051758	22533.724609
1043.911133	22891.769531
1042.769531	22576.580078
1041.628906	22734.292969
1040.487305	22817.421875
1039.346680	22706.791016
1038.205078	22768.607422
1037.062500	22736.763672
1035.920898	22432.582031
1034.778320	22436.974609
1033.635742	22934.814453
1032.493164	22749.847656
1031.350586	22550.064453
1030.207031	22256.820313
1029.063477	22820.210938
1027.919922	22552.523438
1026.776367	22769.339844
1025.632813	22618.589844
1024.488281	22482.757813
1023.343750	22228.064453
1022.199219	22245.212891
1021.054688	22525.562500
1019.910156	22570.238281
1018.764648	22445.144531
1017.619141	22589.525391
1016.473633	22332.964844
1015.327148	22492.156250
1014.181641	22634.326172
1013.035156	22505.091797
1011.888672	22500.955078
1010.742188	22645.160156
1009.594727	22619.812500
1008.448242	22658.021484
1007.300781	22723.750000
1006.153320	22800.042969
1005.005859	22903.828125
1003.857422	22878.449219
1002.708984	23037.207031
1001.560547	23181.093750
1000.412109	23305.886719
999.263672	23589.275391
998.114258	23555.328125
996.965820	23293.031250
995.816406	23229.552734
994.666016	22895.544922
993.516602	23178.742188
992.366211	23085.736328
991.215820	23043.464844
990.065430	22973.750000
988.915039	23140.574219
987.763672	23121.537109
986.613281	23043.398438
985.461914	22904.080078
984.309570	23121.437500
983.158203	23235.332031
982.005859	22737.451172
980.854492	23043.292969
979.701172	23311.066406
978.548828	22739.654297
977.396484	22908.314453
976.243164	22708.101563
975.089844	23196.980469
973.936523	23266.443359
972.783203	22678.708984
971.628906	22872.490234
970.474609	22956.710938
969.320313	22712.496094
968.166016	22800.921875
967.010742	23120.796875
965.856445	22983.986328
964.701172	22668.419922
963.545898	23049.132813
962.390625	23265.683594
961.234375	23032.230469
960.078125	23126.783203
958.921875	22941.777344
957.765625	23303.171875
956.609375	23120.302734
955.452148	22859.779297
954.294922	22939.570313
953.137695	22918.544922
951.980469	22916.419922
950.822266	23002.451172
949.665039	22618.369141
948.506836	22956.203125
947.347656	22693.941406
946.189453	22937.250000
945.030273	23039.968750
943.872070	22807.187500
942.712891	22981.162109
941.552734	22819.734375
940.393555	23031.357422
939.233398	22731.703125
938.073242	22926.505859
936.913086	22918.087891
935.752930	22945.267578
934.591797	23014.308594
933.430664	23089.601563
932.269531	23160.681641
931.108398	22821.626953
929.947266	23124.937500
928.785156	23589.191406
927.623047	23446.816406
926.460938	22681.423828
925.298828	23101.597656
924.135742	23049.261719
922.972656	23187.105469
921.810547	23306.091797
920.646484	23354.011719
919.483398	23053.128906
918.319336	23382.974609
917.155273	23412.060547
915.991211	23382.687500
914.827148	23186.367188
913.662109	23227.988281
912.498047	23313.406250
911.333008	23113.031250
910.167969	23327.732422
909.001953	23160.789063
907.836914	23492.140625
906.670898	23450.283203
905.504883	23462.621094
904.337891	23643.718750
903.171875	23514.361328
902.004883	23307.988281
900.837891	23489.009766
899.670898	23363.914063
898.503906	23278.412109
897.335938	23423.957031
896.167969	23625.626953
895.000000	23585.890625
893.832031	23238.322266
892.663086	23323.451172
891.495117	23373.199219
890.326172	23400.060547
889.156250	23566.169922
887.987305	23545.185547
886.817383	23349.679688
885.648438	23850.158203
884.478516	23658.818359
883.307617	23631.597656
882.137695	23598.160156
880.966797	23901.015625
879.795898	23603.955078
878.625000	23900.470703
877.454102	23701.027344
876.282227	23692.494141
875.110352	23883.054688
873.938477	23847.531250
872.766602	24290.914063
871.593750	24033.542969
870.421875	23794.916016
869.249023	23929.332031
868.076172	24206.640625
866.902344	24222.869141
865.729492	24050.646484
864.555664	23950.953125
863.381836	24298.427734
862.207031	24298.066406
861.033203	24421.863281
859.858398	24698.710938
858.683594	24694.136719
857.508789	24449.656250
856.333984	24943.458984
855.158203	24490.214844
853.982422	24541.486328
852.806641	24555.537109
851.630859	24274.111328
850.454102	24709.638672
849.278320	24713.322266
848.101563	24489.841797
846.924805	24607.121094
845.747070	24654.166016
844.570313	24831.222656
843.392578	24607.882813
842.214844	24669.341797
841.036133	25110.330078
839.858398	24629.257813
838.679688	25061.839844
837.500977	25088.117188
836.322266	25369.978516
835.143555	25332.298828
833.963867	24734.177734
832.784180	25403.246094
831.604492	25153.425781
830.424805	24986.070313
829.244141	24526.404297
828.063477	25135.310547
826.882813	24708.716797
825.702148	24724.708984
824.521484	24493.802734
823.339844	24699.076172
822.158203	24622.507813
820.976563	24358.845703
819.794922	24736.722656
818.612305	24294.302734
817.430664	24211.697266
816.248047	24283.228516
815.064453	24438.962891
813.881836	24309.130859
812.698242	24154.701172
811.514648	24113.257813
810.331055	24291.484375
809.147461	24167.927734
807.962891	24198.326172
806.778320	24390.794922
805.593750	24328.826172
804.409180	24490.433594
803.224609	24446.923828
802.039063	24102.048828
800.853516	24357.896484
799.667969	24226.306641
798.482422	24059.929688
797.295898	24223.449219
796.109375	24018.214844
794.922852	24015.798828
793.736328	24031.808594
792.548828	24098.992188
791.362305	23797.730469
790.174805	23883.347656
788.986328	23993.482422
787.798828	24015.615234
786.610352	23636.869141
785.421875	23965.787109
784.233398	23593.322266
783.044922	23627.773438
781.856445	23788.919922
780.666992	23659.851563
779.477539	23706.523438
778.288086	23569.345703
777.097656	23660.945313
775.907227	23525.865234
774.717773	23793.000000
773.526367	23913.078125
772.335938	23675.990234
771.144531	23589.970703
769.954102	23197.996094
768.762695	23652.574219
767.570313	23862.285156
766.378906	23886.384766
765.186523	23533.371094
763.994141	23810.238281
762.801758	23864.896484
761.609375	23752.478516
760.416016	23984.333984
759.222656	23611.259766
758.029297	23987.619141
756.835938	23952.615234
755.641602	23667.273438
754.447266	24021.023438
753.252930	24002.304688
752.058594	24079.203125
750.864258	23580.492188
749.668945	23958.390625
748.473633	23815.675781
747.278320	23833.599609
746.083008	23455.207031
744.886719	23845.037109
743.690430	23676.033203
742.494141	23661.464844
741.297852	23281.353516
740.100586	23404.931641
738.904297	23518.312500
737.707031	23497.689453
736.509766	23261.966797
735.311523	23462.552734
734.113281	23541.347656
732.916016	23366.591797
731.716797	23329.789063
730.518555	23242.314453
729.320313	23098.113281
728.121094	23314.710938
726.921875	23504.884766
725.721680	23271.572266
724.522461	23212.541016
723.322266	23254.789063
722.122070	23205.906250
720.921875	23169.185547
719.721680	22950.316406
718.520508	23298.146484
717.319336	23239.169922
716.118164	23457.349609
714.916992	23489.376953
713.714844	23282.779297
712.513672	23373.455078
711.311523	23227.595703
710.108398	23318.244141
708.906250	23467.458984
707.703125	23519.642578
706.500000	23331.443359
705.296875	23220.052734
704.093750	23760.876953
702.889648	23336.542969
701.685547	23538.054688
700.481445	23555.855469
699.277344	23386.011719
698.072266	23538.986328
696.868164	23877.453125
695.663086	23786.283203
694.457031	24045.947266
693.251953	23662.498047
692.045898	24111.529297
690.839844	23724.179688
689.633789	23790.255859
688.427734	24178.580078
687.220703	23882.054688
686.013672	24082.962891
684.806641	24332.107422
683.599609	23959.234375
682.391602	23950.730469
681.184570	23968.382813
679.976563	23841.193359
678.767578	23969.474609
677.559570	23767.931641
676.350586	24107.271484
675.141602	24108.792969
673.932617	23839.003906
672.723633	23726.041016
671.513672	24272.052734
670.303711	23592.632813
669.093750	23776.988281
667.883789	24067.687500
666.672852	23946.753906
665.462891	23839.912109
664.251953	23815.382813
663.040039	23728.666016
661.829102	23814.492188
660.617188	23509.199219
659.405273	23667.218750
658.193359	23692.861328
656.981445	23746.552734
655.768555	23679.980469
654.555664	23549.314453
653.342773	23657.089844
652.129883	23754.808594
650.916016	24102.810547
649.702148	23842.017578
648.488281	23977.677734
647.274414	23979.191406
646.059570	23950.685547
644.845703	24188.281250
643.630859	24217.753906
642.416016	24467.208984
641.200195	24532.609375
639.984375	24963.833984
638.769531	24173.623047
637.552734	24346.953125
636.336914	24188.539063
635.120117	24040.171875
633.904297	24471.080078
632.687500	24053.125000
631.469727	23932.814453
630.252930	24092.015625
629.035156	24083.505859
627.817383	24126.880859
626.599609	24214.130859
625.380859	23878.470703
624.163086	24075.417969
622.944336	24156.640625
621.724609	24124.201172
620.505859	23872.517578
619.286133	23889.960938
618.066406	23947.244141
616.846680	24157.896484
615.626953	24147.388672
614.406250	23911.863281
613.186523	24210.000000
611.965820	23793.406250
610.744141	23800.882813
609.523438	23868.048828
608.301758	23881.474609
607.080078	24264.863281
605.858398	23723.355469
604.635742	24128.498047
603.414063	24110.052734
602.191406	23980.306641
600.968750	24071.191406
599.745117	24076.605469
598.522461	24244.906250
597.298828	24182.755859
596.075195	24339.056641
594.850586	24544.933594
593.626953	24349.763672
592.402344	24392.820313
591.177734	24681.904297
589.953125	24683.218750
588.727539	24706.349609
587.501953	24598.583984
586.276367	24588.013672
585.050781	24847.046875
583.825195	24558.951172
582.598633	25140.896484
581.372070	24763.695313
580.145508	24992.783203
578.917969	25285.162109
577.691406	25339.812500
576.463867	25257.835938
575.236328	24962.117188
574.007813	25285.939453
572.780273	25469.156250
571.551758	25460.410156
570.323242	25307.277344
569.094727	25389.529297
567.865234	25361.027344
566.635742	24986.597656
565.406250	25147.916016
564.176758	24989.052734
562.947266	25023.863281
561.716797	25005.328125
560.486328	25113.193359
559.255859	24808.333984
558.024414	24949.755859
556.793945	24834.525391
555.562500	24891.027344
554.331055	24927.777344
553.098633	24731.732422
551.867188	24807.941406
550.634766	24527.197266
549.402344	24735.509766
548.168945	24748.591797
546.936523	24818.824219
545.703125	24587.544922
544.469727	24768.103516
543.236328	24641.316406
542.001953	24674.091797
540.767578	24551.304688
539.533203	24580.146484
538.298828	24656.212891
537.064453	24704.699219
535.829102	24816.126953
534.593750	24294.095703
533.358398	24718.271484
532.122070	24825.697266
530.886719	24762.037109
529.650391	24757.369141
528.414063	24884.376953
527.176758	25117.439453
525.940430	24829.810547
524.703125	24666.031250
523.465820	24900.964844
522.227539	24682.255859
520.990234	25095.732422
519.751953	25024.267578
518.513672	25082.341797
517.275391	24787.244141
516.036133	25147.421875
514.796875	25134.833984
513.557617	25128.130859
512.318359	25129.271484
511.079102	24748.191406
509.838867	24961.050781
508.598633	25048.431641
507.358398	24763.568359
506.117188	25181.957031
504.876953	24993.128906
503.635742	25256.640625
502.394531	24870.158203
501.152344	25172.734375
499.911133	25232.556641
498.668945	25143.667969
497.425781	25295.402344
496.183594	25134.173828
494.941406	25364.062500
493.698242	25267.390625
492.455078	25147.300781
491.210938	25234.396484
489.967773	25264.798828
488.723633	25453.417969
487.479492	25411.501953
486.235352	25539.484375
484.990234	25501.470703
483.745117	25482.988281
482.500000	25396.205078
481.254883	25859.703125
480.008789	25659.728516
478.763672	25631.472656
477.517578	25862.593750
476.271484	25779.714844
475.024414	26030.212891
473.777344	25789.458984
472.530273	26039.857422
471.283203	25723.208984
470.036133	26248.177734
468.788086	25962.767578
467.540039	26101.949219
466.291992	25991.884766
465.043945	26140.738281
463.794922	26147.470703
462.545898	25965.464844
461.296875	26182.322266
460.047852	26344.634766
458.797852	26481.607422
457.547852	26381.330078
456.297852	26403.550781
455.047852	26544.318359
453.796875	26677.255859
452.545898	26604.210938
451.294922	26558.384766
450.043945	27167.039063
448.792969	27097.822266
447.541016	26741.318359
446.289063	26868.238281
445.036133	26737.015625
443.784180	27234.462891
442.531250	27262.281250
441.278320	27148.509766
440.025391	27343.093750
438.771484	27357.302734
437.518555	27408.333984
436.264648	26938.025391
435.010742	26859.292969
433.755859	26639.169922
432.500977	26639.933594
431.246094	26632.949219
429.991211	26614.349609
428.736328	26578.333984
427.480469	26416.527344
426.224609	26589.546875
424.968750	26619.330078
423.712891	26730.343750
422.456055	26553.156250
421.199219	26633.199219
419.942383	26891.068359
418.685547	26555.451172
417.427734	26451.859375
416.169922	26775.304688
414.912109	26917.041016
413.654297	26616.433594
412.395508	26547.662109
411.136719	26735.691406
409.877930	26885.042969
408.619141	26845.205078
407.359375	26624.001953
406.099609	26572.650391
404.839844	26847.287109
403.580078	26803.625000
402.319336	26852.525391
401.059570	26350.076172
