#Wave		#Intensity
2001.242188	30384.080078
2000.272461	30805.175781
1999.302734	30103.107422
1998.333008	30350.921875
1997.363281	30460.863281
1996.392578	30377.896484
1995.422852	30575.445313
1994.452148	30392.330078
1993.481445	30524.712891
1992.510742	30371.705078
1991.540039	30469.005859
1990.568359	30546.255859
1989.596680	30478.378906
1988.625977	30478.058594
1987.654297	30750.328125
1986.681641	30567.427734
1985.709961	30069.595703
1984.738281	30576.746094
1983.765625	30811.316406
1982.792969	30618.535156
1981.820313	30785.562500
1980.847656	30353.062500
1979.874023	30380.224609
1978.901367	30369.921875
1977.927734	30446.998047
1976.954102	30466.638672
1975.980469	30463.808594
1975.006836	30703.011719
1974.032227	30720.097656
1973.058594	30884.339844
1972.083984	30547.257813
1971.109375	30467.115234
1970.134766	30726.044922
1969.160156	30379.195313
1968.184570	30412.837891
1967.209961	30446.449219
1966.234375	30480.091797
1965.258789	30513.736328
1964.283203	30547.378906
1963.306641	30581.056641
1962.331055	30614.699219
1961.354492	30648.376953
1960.377930	30682.054688
1959.401367	30715.730469
1958.424805	30749.408203
1957.447266	30783.119141
1956.470703	30531.531250
1955.493164	30526.189453
1954.515625	30955.902344
1953.538086	30759.095703
1952.560547	30425.675781
1951.582031	30579.373047
1950.604492	30663.455078
1949.625977	30906.474609
1948.647461	30498.751953
1947.668945	30597.699219
1946.689453	30617.169922
1945.710938	30845.128906
1944.731445	30437.699219
1943.751953	30687.937500
1942.772461	30434.484375
1941.792969	30478.763672
1940.813477	30867.738281
1939.833008	30934.238281
1938.852539	30296.660156
1937.873047	30876.312500
1936.891602	30657.779297
1935.911133	30555.779297
1934.930664	30867.525391
1933.949219	30765.519531
1932.967773	30802.230469
1931.986328	30648.275391
1931.004883	30675.087891
1930.023438	30734.068359
1929.041016	30847.472656
1928.059570	30767.839844
1927.077148	30648.650391
1926.094727	30828.787109
1925.112305	30768.980469
1924.128906	30835.292969
1923.146484	30609.869141
1922.163086	31024.693359
1921.179688	30742.474609
1920.196289	30690.140625
1919.212891	30482.189453
1918.228516	30785.591797
1917.245117	30607.328125
1916.260742	30634.062500
1915.276367	30448.478516
1914.291992	30951.595703
1913.307617	30729.003906
1912.322266	30888.929688
1911.336914	30950.119141
1910.352539	30601.849609
1909.367188	30547.162109
1908.380859	30305.103516
1907.395508	30568.496094
1906.409180	30760.316406
1905.423828	30464.128906
1904.437500	30313.416016
1903.451172	30724.423828
1902.463867	31051.544922
1901.477539	30506.787109
1900.490234	30570.375000
1899.503906	30525.623047
1898.516602	30832.855469
1897.528320	30633.035156
1896.541016	30762.984375
1895.553711	30875.666016
1894.565430	30619.371094
1893.577148	30554.976563
1892.588867	30893.835938
1891.600586	30704.041016
1890.611328	30681.447266
1889.623047	30489.296875
1888.633789	30321.783203
1887.644531	31026.406250
1886.655273	30640.257813
1885.666016	30548.929688
1884.675781	30705.613281
1883.686523	30324.630859
1882.696289	30351.212891
1881.706055	30289.441406
1880.715820	30796.914063
1879.724609	30968.128906
1878.734375	30962.691406
1877.743164	30638.458984
1876.751953	30512.937500
1875.760742	30434.037109
1874.769531	30384.572266
1873.778320	30906.099609
1872.786133	29915.728516
1871.793945	30579.232422
1870.801758	30600.800781
1869.809570	30502.369141
1868.817383	30499.457031
1867.824219	30388.835938
1866.832031	30177.904297
1865.838867	30544.556641
1864.845703	30328.777344
1863.851563	30367.478516
1862.858398	30381.707031
1861.865234	30520.642578
1860.871094	30292.787109
1859.876953	30561.246094
1858.882813	30291.912109
1857.887695	30340.347656
1856.893555	30471.832031
1855.898438	30295.478516
1854.904297	30441.578125
1853.909180	30121.214844
1852.913086	30252.642578
1851.917969	30445.048828
1850.922852	30315.220703
1849.926758	30473.382813
1848.930664	30238.683594
1847.934570	30087.001953
1846.938477	30215.849609
1845.941406	30527.539063
1844.945313	30490.472656
1843.948242	30402.228516
1842.951172	30721.027344
1841.954102	30530.425781
1840.956055	30473.890625
1839.958984	30782.761719
1838.960938	30307.292969
1837.962891	30469.978516
1836.964844	30510.875000
1835.966797	30963.134766
1834.968750	30339.503906
1833.969727	30660.232422
1832.970703	30708.359375
1831.971680	30471.865234
1830.972656	30738.892578
1829.973633	30745.833984
1828.973633	30752.781250
1827.974609	30759.720703
1826.974609	30766.667969
1825.974609	30773.615234
1824.974609	30780.562500
1823.973633	30787.517578
1822.973633	30794.464844
1821.972656	30801.417969
1820.971680	30808.373047
1819.970703	30815.326172
1818.968750	30882.705078
1817.967773	30862.705078
1816.965820	30689.867188
1815.964844	31009.496094
1814.961914	30642.673828
1813.959961	30613.027344
1812.958008	30782.185547
1811.955078	30483.464844
1810.953125	30940.982422
1809.950195	30300.681641
1808.947266	30583.636719
1807.943359	31016.669922
1806.940430	30870.736328
1805.936523	31017.841797
1804.932617	31009.951172
1803.928711	30939.130859
1802.924805	31076.460938
1801.920898	30933.060547
1800.916016	30905.832031
1799.911133	31130.169922
1798.907227	31085.984375
1797.901367	30783.093750
1796.896484	31348.203125
1795.891602	30931.763672
1794.885742	31059.226563
1793.879883	31082.742188
1792.874023	31239.119141
1791.868164	31223.947266
1790.862305	31199.119141
1789.855469	31077.714844
1788.848633	31200.179688
1787.842773	31824.650391
1786.834961	31700.785156
1785.828125	31002.701172
1784.821289	31414.580078
1783.813477	31558.580078
1782.805664	31533.716797
1781.797852	31352.136719
1780.790039	31375.531250
1779.782227	31702.613281
1778.773438	31819.919922
1777.764648	31821.531250
1776.755859	31312.427734
1775.747070	31819.929688
1774.738281	31554.228516
1773.729492	31731.644531
1772.719727	31889.738281
1771.709961	31775.796875
1770.700195	31827.939453
1769.690430	31625.023438
1768.680664	32045.230469
1767.669922	31984.251953
1766.659180	31663.576172
1765.648438	31840.712891
1764.637695	31960.091797
1763.626953	31889.550781
1762.615234	31833.451172
1761.604492	32161.794922
1760.592773	32172.927734
1759.581055	32179.250000
1758.569336	32312.843750
1757.556641	32513.613281
1756.544922	32183.796875
1755.532227	32415.718750
1754.519531	32388.390625
1753.506836	32485.833984
1752.494141	32257.000000
1751.480469	32455.162109
1750.466797	32828.304688
1749.454102	32621.105469
1748.440430	32538.628906
1747.425781	32669.488281
1746.412109	32481.593750
1745.397461	32684.289063
1744.383789	33198.316406
1743.369141	32804.453125
1742.353516	32868.093750
1741.338867	33056.210938
1740.324219	32916.312500
1739.308594	33305.386719
1738.292969	32969.277344
1737.277344	33200.296875
1736.261719	33574.757813
1735.245117	33379.878906
1734.229492	33763.738281
1733.212891	33862.957031
1732.196289	34024.289063
1731.179688	34154.496094
1730.162109	34071.988281
1729.145508	33999.062500
1728.127930	34394.339844
1727.110352	34299.886719
1726.092773	34862.113281
1725.075195	34965.761719
1724.056641	34582.429688
1723.039063	35366.257813
1722.020508	35586.675781
1721.001953	35351.347656
1719.983398	35664.714844
1718.963867	35777.644531
1717.945313	35952.523438
1716.925781	35991.453125
1715.906250	35772.937500
1714.886719	36381.460938
1713.867188	35874.640625
1712.846680	35768.226563
1711.826172	36552.683594
1710.806641	36427.132813
1709.786133	36418.296875
1708.764648	36290.433594
1707.744141	36572.007813
1706.722656	36748.773438
1705.701172	36344.906250
1704.679688	36405.074219
1703.658203	36645.988281
1702.636719	36765.535156
1701.614258	36419.007813
1700.592773	36742.992188
1699.570313	36641.406250
1698.547852	36729.968750
1697.524414	36659.304688
1696.501953	36562.535156
1695.478516	36658.183594
1694.456055	37088.632813
1693.432617	36842.250000
1692.408203	36705.156250
1691.384766	36945.488281
1690.360352	37299.636719
1689.336914	37447.246094
1688.312500	37435.859375
1687.288086	37441.078125
1686.262695	37588.574219
1685.238281	37928.066406
1684.212891	37900.000000
1683.187500	38016.523438
1682.162109	37753.851563
1681.136719	38377.378906
1680.110352	38143.160156
1679.084961	38245.339844
1678.058594	38321.433594
1677.032227	38061.300781
1676.005859	38362.277344
1674.978516	38336.531250
1673.952148	38871.617188
1672.924805	38488.539063
1671.897461	38751.371094
1670.870117	38936.062500
1669.842773	39056.839844
1668.814453	39319.425781
1667.787109	39359.722656
1666.758789	39071.492188
1665.730469	39364.648438
1664.701172	39756.929688
1663.672852	39272.718750
1662.643555	39211.425781
1661.615234	39407.531250
1660.585938	39579.957031
1659.555664	39667.343750
1658.526367	39808.980469
1657.497070	39877.417969
1656.466797	39898.640625
1655.436523	39643.882813
1654.406250	39941.066406
1653.375977	39731.187500
1652.344727	39488.375000
1651.313477	39578.000000
1650.282227	39684.085938
1649.250977	40136.503906
1648.219727	40131.726563
1647.188477	40228.230469
1646.156250	40218.726563
1645.124023	40336.371094
1644.091797	40063.179688
1643.059570	40515.035156
1642.027344	40376.046875
1640.994141	40994.742188
1639.961914	40404.035156
1638.928711	40434.484375
1637.895508	40615.425781
1636.861328	40890.351563
1635.828125	41268.613281
1634.793945	41183.710938
1633.759766	41655.781250
1632.725586	41873.929688
1631.691406	41915.812500
1630.656250	42007.003906
1629.622070	42161.562500
1628.586914	42604.855469
1627.551758	42547.980469
1626.516602	43028.597656
1625.480469	43194.589844
1624.445313	43315.945313
1623.409180	43915.800781
1622.373047	44742.945313
1621.336914	44587.246094
1620.300781	45249.851563
1619.263672	45401.199219
1618.227539	46018.890625
1617.190430	46659.792969
1616.153320	47595.667969
1615.115234	48189.207031
1614.078125	48389.070313
1613.040039	48527.976563
1612.001953	49795.296875
1610.963867	49973.691406
1609.925781	49695.648438
1608.887695	49190.726563
1607.848633	49179.625000
1606.809570	48565.031250
1605.770508	48694.363281
1604.731445	47958.480469
1603.692383	47307.019531
1602.652344	46452.429688
1601.613281	46500.242188
1600.573242	45875.085938
1599.533203	45689.359375
1598.492188	44982.816406
1597.452148	45357.800781
1596.411133	44677.250000
1595.370117	44701.968750
1594.329102	44334.546875
1593.288086	43988.253906
1592.247070	44524.074219
1591.205078	44075.218750
1590.163086	44337.929688
1589.121094	43733.019531
1588.079102	43946.726563
1587.036133	44106.738281
1585.994141	43788.878906
1584.951172	43589.976563
1583.908203	44148.386719
1582.865234	43530.171875
1581.822266	43892.742188
1580.778320	43547.246094
1579.734375	44577.906250
1578.691406	43615.515625
1577.646484	44131.421875
1576.602539	44146.820313
1575.558594	44583.332031
1574.513672	44780.089844
1573.468750	44420.898438
1572.423828	45068.738281
1571.378906	44944.445313
1570.333008	45417.613281
1569.288086	44874.949219
1568.242188	45166.707031
1567.196289	45235.312500
1566.150391	44797.500000
1565.103516	44547.960938
1564.057617	44075.593750
1563.010742	43893.597656
1561.963867	43414.546875
1560.916992	43283.789063
1559.869141	42837.500000
1558.822266	42878.570313
1557.774414	42991.535156
1556.726563	42554.804688
1555.678711	42575.031250
1554.630859	41851.054688
1553.582031	41880.667969
1552.534180	41787.437500
1551.485352	41946.804688
1550.436523	41587.171875
1549.386719	41412.968750
1548.337891	41014.187500
1547.288086	41067.062500
1546.238281	41138.437500
1545.188477	40936.656250
1544.138672	40700.234375
1543.088867	40276.472656
1542.038086	40375.691406
1540.987305	40366.164063
1539.936523	39850.183594
1538.885742	40314.738281
1537.834961	39970.019531
1536.783203	39955.941406
1535.731445	39807.832031
1534.679688	39772.988281
1533.627930	40054.636719
1532.576172	39299.140625
1531.523438	39072.734375
1530.471680	39432.851563
1529.418945	39467.351563
1528.366211	39379.515625
1527.312500	39330.933594
1526.259766	39081.644531
1525.206055	38885.496094
1524.152344	39014.617188
1523.098633	39452.687500
1522.044922	38959.160156
1520.990234	39032.867188
1519.936523	38906.039063
1518.881836	39127.203125
1517.827148	38968.144531
1516.772461	38998.027344
1515.716797	38721.589844
1514.662109	38938.015625
1513.606445	38348.578125
1512.550781	38634.046875
1511.495117	38864.179688
1510.438477	38976.875000
1509.382813	38634.007813
1508.326172	39008.925781
1507.269531	38873.152344
1506.212891	38489.097656
1505.155273	38479.906250
1504.098633	38404.058594
1503.041016	38670.660156
1501.983398	38275.417969
1500.925781	38369.644531
1499.867188	38358.179688
1498.809570	38551.101563
1497.750977	38466.128906
1496.692383	38213.605469
1495.633789	38339.882813
1494.575195	38142.542969
1493.515625	37929.210938
1492.457031	38365.160156
1491.397461	38151.859375
1490.337891	37576.308594
1489.277344	37787.390625
1488.217773	37941.085938
1487.157227	38009.917969
1486.096680	38030.605469
1485.036133	37982.546875
1483.975586	38181.906250
1482.915039	37735.320313
1481.853516	38051.429688
1480.791992	37682.867188
1479.730469	38211.757813
1478.668945	37783.789063
1477.606445	37756.417969
1476.544922	37486.546875
1475.482422	37740.593750
1474.419922	37752.121094
1473.357422	37603.578125
1472.293945	37731.718750
1471.231445	37770.667969
1470.167969	37839.308594
1469.104492	38070.160156
1468.041016	37985.656250
1466.976563	37844.074219
1465.913086	38154.726563
1464.848633	37935.527344
1463.784180	38271.160156
1462.719727	38351.027344
1461.655273	38707.003906
1460.589844	38649.859375
1459.524414	38512.886719
1458.458984	38574.402344
1457.393555	39019.011719
1456.328125	38448.828125
1455.261719	38706.367188
1454.196289	38735.886719
1453.129883	38774.507813
1452.063477	38505.527344
1450.996094	39031.671875
1449.929688	38901.671875
1448.862305	38710.230469
1447.794922	38735.152344
1446.727539	39058.273438
1445.660156	39622.527344
1444.591797	39301.382813
1443.524414	39264.746094
1442.456055	39537.484375
1441.387695	39484.894531
1440.318359	39482.347656
1439.250000	39879.941406
1438.180664	40352.406250
1437.111328	39972.429688
1436.041992	39847.085938
1434.972656	40282.945313
1433.903320	40327.949219
1432.833008	40357.039063
1431.762695	40588.203125
1430.692383	40714.851563
1429.622070	40891.390625
1428.550781	41215.378906
1427.480469	41895.488281
1426.409180	41502.289063
1425.337891	42397.578125
1424.266602	42501.078125
1423.194336	42677.093750
1422.122070	42887.050781
1421.050781	43266.925781
1419.978516	43034.789063
1418.905273	43176.589844
1417.833008	43506.363281
1416.759766	43632.171875
1415.687500	43182.734375
1414.614258	42593.078125
1413.540039	42492.601563
1412.466797	42154.511719
1411.392578	42327.960938
1410.319336	42259.429688
1409.245117	42190.835938
1408.169922	42122.179688
1407.095703	42053.585938
1406.020508	41984.933594
1404.946289	41916.339844
1403.871094	41847.683594
1402.794922	41778.964844
1401.719727	42202.960938
1400.643555	42089.195313
1399.568359	42149.371094
1398.492188	42006.300781
1397.415039	42405.109375
1396.338867	42174.007813
1395.261719	41805.320313
1394.185547	42021.175781
1393.108398	42550.539063
1392.031250	42497.761719
1390.953125	42560.019531
1389.875977	42951.449219
1388.797852	42779.140625
1387.719727	42697.054688
1386.641602	42635.273438
1385.562500	43217.921875
1384.484375	43054.695313
1383.405273	43087.476563
1382.326172	42345.578125
1381.247070	42941.359375
1380.166992	43075.441406
1379.087891	42399.210938
1378.007813	42470.328125
1376.927734	42768.664063
1375.847656	42223.320313
1374.767578	42127.992188
1373.686523	41922.511719
1372.605469	41807.035156
1371.524414	41821.976563
1370.443359	41785.214844
1369.362305	42222.601563
1368.280273	41687.019531
1367.199219	41865.941406
1366.117188	41925.765625
1365.034180	41675.695313
1363.952148	41951.054688
1362.870117	42607.902344
1361.787109	42611.437500
1360.704102	42852.812500
1359.621094	42811.429688
1358.537109	43301.660156
1357.454102	43139.105469
1356.370117	42741.171875
1355.286133	42504.792969
1354.202148	42580.054688
1353.118164	42005.394531
1352.033203	41917.152344
1350.948242	41488.429688
1349.863281	41368.949219
1348.778320	41379.398438
1347.693359	41085.335938
1346.607422	40986.136719
1345.521484	40916.066406
1344.435547	40720.707031
1343.349609	40744.675781
1342.263672	40627.707031
1341.176758	40483.941406
1340.090820	40503.460938
1339.003906	40388.832031
1337.916016	40196.000000
1336.829102	40850.281250
1335.741211	40628.386719
1334.654297	40306.035156
1333.566406	40794.640625
1332.478516	40948.070313
1331.389648	41257.746094
1330.301758	41011.410156
1329.212891	40858.910156
1328.124023	41552.285156
1327.035156	41734.437500
1325.945313	41588.578125
1324.856445	42027.160156
1323.766602	41687.277344
1322.676758	42156.898438
1321.586914	42697.683594
1320.496094	43481.218750
1319.406250	43417.648438
1318.315430	43850.957031
1317.224609	45130.628906
1316.133789	45227.148438
1315.041992	45731.152344
1313.951172	46433.125000
1312.859375	46531.578125
1311.767578	46794.695313
1310.675781	46363.429688
1309.583008	46081.382813
1308.491211	45968.496094
1307.398438	45179.535156
1306.305664	44644.355469
1305.212891	44843.039063
1304.119141	44541.507813
1303.026367	43842.265625
1301.932617	44109.867188
1300.838867	44179.640625
1299.744141	44293.812500
1298.650391	44496.777344
1297.555664	45032.730469
1296.461914	45286.542969
1295.366211	45582.433594
1294.271484	45804.980469
1293.176758	45918.722656
1292.081055	45717.406250
1290.985352	45221.160156
1289.889648	45317.199219
1288.793945	45029.625000
1287.697266	44411.839844
1286.601563	44862.597656
1285.504883	44362.515625
1284.408203	43913.570313
1283.311523	43978.718750
1282.213867	43629.667969
1281.116211	43008.371094
1280.018555	43091.355469
1278.920898	42747.078125
1277.823242	42349.804688
1276.725586	42844.441406
1275.626953	42389.769531
1274.528320	41851.203125
1273.429688	42248.343750
1272.330078	41614.914063
1271.231445	42286.089844
1270.131836	41889.390625
1269.032227	41534.828125
1267.932617	41385.882813
1266.833008	41400.468750
1265.732422	41068.269531
1264.632813	41043.156250
1263.532227	41022.464844
1262.430664	40725.832031
1261.330078	41042.902344
1260.228516	40463.898438
1259.127930	40304.316406
1258.026367	40294.800781
1256.924805	40194.855469
1255.822266	39969.250000
1254.720703	40495.558594
1253.618164	40142.121094
1252.515625	39255.441406
1251.413086	39779.386719
1250.309570	40082.820313
1249.207031	39932.363281
1248.103516	39665.234375
1247.000000	39382.785156
1245.895508	39184.097656
1244.791992	39559.992188
1243.687500	39224.890625
1242.583008	39486.218750
1241.478516	39142.453125
1240.374023	39284.917969
1239.269531	39244.796875
1238.164063	39760.984375
1237.058594	39063.464844
1235.953125	39821.277344
1234.847656	39491.000000
1233.741211	39424.500000
1232.635742	39331.664063
1231.529297	39260.824219
1230.422852	39528.195313
1229.315430	39586.882813
1228.208984	39733.355469
1227.101563	39651.511719
1225.994141	39830.832031
1224.886719	39404.539063
1223.779297	39601.386719
1222.670898	39710.429688
1221.562500	39847.937500
1220.454102	39546.910156
1219.345703	39401.625000
1218.237305	39946.753906
1217.127930	39100.253906
1216.018555	39281.554688
1214.909180	39175.843750
1213.799805	39549.789063
1212.690430	39393.703125
1211.580078	39228.914063
1210.469727	39405.640625
1209.359375	39339.386719
1208.249023	39737.023438
1207.138672	39465.089844
1206.027344	39580.398438
1204.916016	39400.437500
1203.804688	39642.523438
1202.693359	39539.125000
1201.581055	39488.218750
1200.469727	39625.261719
1199.357422	39668.304688
1198.245117	39711.328125
1197.131836	39608.003906
1196.019531	39812.613281
1194.906250	39912.347656
1193.792969	39815.585938
1192.679688	40179.359375
1191.566406	39814.183594
1190.452148	39809.117188
1189.337891	39904.390625
1188.223633	39757.550781
1187.109375	39436.320313
1185.995117	39352.835938
1184.879883	39413.242188
1183.764648	39061.738281
1182.649414	38790.976563
1181.534180	38969.085938
1180.418945	38661.406250
1179.302734	38778.496094
1178.186523	38939.085938
1177.070313	38834.031250
1175.954102	38487.417969
1174.837891	38328.078125
1173.720703	38632.222656
1172.603516	38401.125000
1171.486328	38322.355469
1170.369141	38395.832031
1169.250977	38334.480469
1168.132813	37934.046875
1167.015625	37974.945313
1165.896484	38161.417969
1164.778320	38015.417969
1163.660156	38347.343750
1162.541016	37927.718750
1161.421875	38029.371094
1160.302734	37740.210938
1159.182617	37835.347656
1158.063477	37982.531250
1156.943359	37930.039063
1155.823242	37500.089844
1154.703125	37720.996094
1153.582031	37282.566406
1152.461914	37232.402344
1151.340820	37715.535156
1150.219727	37660.968750
1149.097656	37504.574219
1147.976563	37497.734375
1146.854492	37631.695313
1145.732422	37471.054688
1144.610352	37550.835938
1143.488281	37725.847656
1142.365234	38017.683594
1141.243164	38062.687500
1140.120117	37912.925781
1138.996094	37836.773438
1137.873047	37931.531250
1136.750000	38339.839844
1135.625977	38094.992188
1134.501953	38265.308594
1133.377930	37826.027344
1132.252930	38138.960938
1131.127930	37991.550781
1130.003906	37744.820313
1128.878906	37677.449219
1127.752930	37787.183594
1126.627930	37581.640625
1125.501953	37611.476563
1124.375977	37462.156250
1123.250000	36961.144531
1122.124023	37135.625000
1120.997070	37174.140625
1119.871094	37016.375000
1118.744141	37085.085938
1117.617188	36890.738281
1116.489258	36892.621094
1115.362305	36653.117188
1114.234375	36357.679688
1113.106445	36684.964844
1111.978516	36704.105469
1110.849609	36273.136719
1109.721680	36738.058594
1108.592773	36473.003906
1107.463867	36563.195313
1106.333984	36995.523438
1105.205078	36381.996094
1104.075195	36698.031250
1102.945313	36687.015625
1101.815430	36719.015625
1100.685547	36892.906250
1099.554688	37148.417969
1098.424805	37255.535156
1097.293945	37081.105469
1096.162109	37194.636719
1095.031250	37447.753906
1093.899414	37125.187500
1092.768555	36897.222656
1091.636719	36997.816406
1090.503906	36297.718750
1089.372070	36544.320313
1088.239258	36698.562500
1087.106445	36455.859375
1085.973633	36316.199219
1084.840820	36560.464844
1083.708008	36137.800781
1082.574219	36482.765625
1081.440430	36679.707031
1080.306641	36497.265625
1079.171875	36314.890625
1078.038086	36378.933594
1076.903320	36455.800781
1075.768555	36404.156250
1074.633789	36489.554688
1073.498047	36211.007813
1072.363281	36382.015625
1071.227539	36401.031250
1070.091797	36293.808594
1068.956055	36712.832031
1067.819336	36605.589844
1066.682617	36391.468750
1065.546875	36164.597656
1064.409180	36517.070313
1063.272461	36260.335938
1062.135742	36356.253906
1060.998047	36270.546875
1059.860352	36383.511719
1058.722656	36171.828125
1057.583984	36081.929688
1056.446289	36275.980469
1055.307617	35705.855469
1054.168945	35748.390625
1053.029297	35665.027344
1051.890625	35878.207031
1050.750977	35848.167969
1049.611328	35743.503906
1048.471680	35907.507813
1047.332031	35662.179688
1046.191406	36194.843750
1045.051758	35860.050781
1043.911133	35994.085938
1042.769531	35870.328125
1041.628906	36140.605469
1040.487305	36061.578125
1039.346680	35954.902344
1038.205078	35837.621094
1037.062500	35867.222656
1035.920898	35998.945313
1034.778320	36079.558594
1033.635742	36330.296875
1032.493164	36381.042969
1031.350586	35951.257813
1030.207031	36267.777344
1029.063477	36210.109375
1027.919922	36118.460938
1026.776367	36449.640625
1025.632813	35890.652344
1024.488281	36153.789063
1023.343750	35924.187500
1022.199219	36015.250000
1021.054688	36157.222656
1019.910156	35494.800781
1018.764648	35691.980469
1017.619141	35354.472656
1016.473633	35827.347656
1015.327148	36009.507813
1014.181641	36028.332031
1013.035156	35661.328125
1011.888672	35362.277344
1010.742188	35760.535156
1009.594727	35929.820313
1008.448242	35910.507813
1007.300781	36050.046875
1006.153320	36153.535156
1005.005859	36729.117188
1003.857422	37082.222656
1002.708984	37157.945313
1001.560547	37584.902344
1000.412109	37905.914063
999.263672	38546.210938
998.114258	38754.839844
996.965820	38815.375000
995.816406	38535.519531
994.666016	38230.402344
993.516602	38170.539063
992.366211	38146.613281
991.215820	38367.750000
990.065430	38200.167969
988.915039	37682.097656
987.763672	37537.925781
986.613281	37237.593750
985.461914	37209.632813
984.309570	37460.230469
983.158203	37396.371094
982.005859	37271.363281
980.854492	37559.765625
979.701172	37346.207031
978.548828	36972.496094
977.396484	37269.222656
976.243164	36988.386719
975.089844	36996.328125
973.936523	36877.859375
972.783203	36782.605469
971.628906	36531.542969
970.474609	36562.714844
969.320313	36532.824219
968.166016	36458.746094
967.010742	36087.972656
965.856445	36100.261719
964.701172	36602.683594
963.545898	36389.824219
962.390625	36216.996094
961.234375	36527.792969
960.078125	36796.429688
958.921875	36367.214844
957.765625	36272.261719
956.609375	36339.105469
955.452148	36561.363281
954.294922	36008.593750
953.137695	36554.187500
951.980469	36421.488281
950.822266	36259.453125
949.665039	36053.402344
948.506836	36279.652344
947.347656	36119.824219
946.189453	36517.964844
945.030273	36272.171875
943.872070	35898.570313
942.712891	36024.015625
941.552734	36134.738281
940.393555	36490.589844
939.233398	36425.195313
938.073242	36598.621094
936.913086	36493.437500
935.752930	36539.050781
934.591797	36505.093750
933.430664	36494.171875
932.269531	36504.179688
931.108398	36459.781250
929.947266	36453.050781
928.785156	36471.425781
927.623047	36489.789063
926.460938	36460.054688
925.298828	36438.687500
924.135742	36569.906250
922.972656	36483.746094
921.810547	36656.691406
920.646484	36990.414063
919.483398	36597.207031
918.319336	36953.785156
917.155273	36811.257813
915.991211	37071.640625
914.827148	37315.234375
913.662109	37022.476563
912.498047	37318.136719
911.333008	37617.859375
910.167969	37141.687500
909.001953	37368.351563
907.836914	37809.652344
906.670898	37442.082031
905.504883	37674.812500
904.337891	37978.292969
903.171875	37473.406250
902.004883	37466.480469
900.837891	37036.839844
899.670898	37494.273438
898.503906	37362.445313
897.335938	37184.878906
896.167969	36865.882813
895.000000	36996.375000
893.832031	37116.417969
892.663086	37207.296875
891.495117	37150.515625
890.326172	37045.937500
889.156250	37456.867188
887.987305	37514.359375
886.817383	37553.132813
885.648438	37180.570313
884.478516	37231.847656
883.307617	37490.761719
882.137695	37431.921875
880.966797	38168.140625
879.795898	37656.746094
878.625000	37921.609375
877.454102	37767.289063
876.282227	38013.363281
875.110352	38041.582031
873.938477	38492.789063
872.766602	38392.375000
871.593750	38575.960938
870.421875	38394.738281
869.249023	38741.941406
868.076172	38463.386719
866.902344	38971.996094
865.729492	39258.839844
864.555664	39454.472656
863.381836	39672.804688
862.207031	39748.242188
861.033203	40063.691406
859.858398	40285.917969
858.683594	40193.648438
857.508789	40155.179688
856.333984	39608.050781
855.158203	39586.242188
853.982422	39089.027344
852.806641	39019.785156
851.630859	38981.562500
850.454102	38778.082031
849.278320	38921.675781
848.101563	39023.910156
846.924805	39318.125000
845.747070	38883.519531
844.570313	39117.792969
843.392578	38877.359375
842.214844	39375.628906
841.036133	39197.117188
839.858398	39715.761719
838.679688	39613.542969
837.500977	39696.910156
836.322266	40235.781250
835.143555	39964.527344
833.963867	39952.992188
832.784180	40400.867188
831.604492	39962.886719
830.424805	40085.210938
829.244141	39637.156250
828.063477	39096.628906
826.882813	38895.902344
825.702148	38958.652344
824.521484	38739.503906
823.339844	38746.714844
822.158203	38712.785156
820.976563	38286.117188
819.794922	38632.628906
818.612305	38794.007813
817.430664	38653.222656
816.248047	38428.242188
815.064453	38534.097656
813.881836	38413.972656
812.698242	38406.839844
811.514648	38426.398438
810.331055	38263.246094
809.147461	38978.609375
807.962891	39045.246094
806.778320	39060.562500
805.593750	39020.484375
804.409180	38793.781250
803.224609	39141.324219
802.039063	39123.800781
800.853516	38460.593750
799.667969	38658.386719
798.482422	38472.937500
797.295898	38308.039063
796.109375	37946.566406
794.922852	38359.335938
793.736328	37819.847656
792.548828	37796.441406
791.362305	37662.515625
790.174805	37616.628906
788.986328	37173.835938
787.798828	37103.511719
786.610352	37292.957031
785.421875	37061.085938
784.233398	37146.195313
783.044922	37032.992188
781.856445	36862.605469
780.666992	36976.308594
779.477539	36687.500000
778.288086	36978.890625
777.097656	36867.859375
775.907227	37059.058594
774.717773	36939.882813
773.526367	36806.464844
772.335938	36781.246094
771.144531	36937.628906
769.954102	37177.582031
768.762695	36962.628906
767.570313	36772.226563
766.378906	37116.050781
765.186523	37100.988281
763.994141	37126.687500
762.801758	37523.230469
761.609375	37544.765625
760.416016	37492.960938
759.222656	37581.695313
758.029297	37570.625000
756.835938	37734.632813
755.641602	38059.367188
754.447266	38050.242188
753.252930	37410.390625
752.058594	37718.730469
750.864258	37711.703125
749.668945	37741.277344
748.473633	37530.937500
747.278320	37956.910156
746.083008	37368.589844
744.886719	37308.796875
743.690430	37458.273438
742.494141	37081.613281
741.297852	36623.859375
740.100586	36852.562500
738.904297	36799.000000
737.707031	36763.726563
736.509766	36663.523438
735.311523	36612.050781
734.113281	36599.136719
732.916016	36598.398438
731.716797	36798.406250
730.518555	36300.910156
729.320313	36292.113281
728.121094	36565.023438
726.921875	36594.675781
725.721680	36743.843750
724.522461	36607.351563
723.322266	36300.800781
722.122070	36648.363281
720.921875	36524.109375
719.721680	36567.894531
718.520508	36975.917969
717.319336	36556.269531
716.118164	36802.308594
714.916992	36615.433594
713.714844	36580.289063
712.513672	36787.765625
711.311523	37088.148438
710.108398	37174.191406
708.906250	37294.546875
707.703125	37616.882813
706.500000	37636.117188
705.296875	37689.671875
704.093750	37533.218750
702.889648	37778.550781
701.685547	37672.593750
700.481445	37808.835938
699.277344	38055.988281
698.072266	38026.691406
696.868164	38237.406250
695.663086	38611.375000
694.457031	38646.496094
693.251953	38963.804688
692.045898	38700.574219
690.839844	38612.742188
689.633789	38899.656250
688.427734	38846.058594
687.220703	39223.441406
686.013672	38702.675781
684.806641	38522.316406
683.599609	38712.359375
682.391602	38773.539063
681.184570	38227.085938
679.976563	38362.757813
678.767578	38279.160156
677.559570	38324.281250
676.350586	38389.488281
675.141602	38330.046875
673.932617	38361.062500
672.723633	38386.035156
671.513672	38232.199219
670.303711	38204.960938
669.093750	38241.992188
667.883789	38240.859375
666.672852	37978.757813
665.462891	37905.417969
664.251953	37589.292969
663.040039	37568.214844
661.829102	37675.519531
660.617188	37772.757813
659.405273	37523.058594
658.193359	37179.226563
656.981445	37404.781250
655.768555	37475.933594
654.555664	37545.058594
653.342773	37780.425781
652.129883	38139.890625
650.916016	37986.558594
649.702148	38109.585938
648.488281	38384.703125
647.274414	38799.816406
646.059570	38940.625000
644.845703	38915.324219
643.630859	39438.113281
642.416016	39812.710938
641.200195	39273.371094
639.984375	39685.839844
638.769531	39436.546875
637.552734	39523.082031
636.336914	39381.800781
635.120117	38677.226563
633.904297	38827.765625
632.687500	38447.058594
631.469727	38068.488281
630.252930	37931.601563
629.035156	37872.597656
627.817383	37476.382813
626.599609	37535.191406
625.380859	37524.164063
624.163086	37652.742188
622.944336	37795.222656
621.724609	37670.515625
620.505859	37432.238281
619.286133	37765.988281
618.066406	37719.050781
616.846680	37889.269531
615.626953	37400.167969
614.406250	37793.406250
613.186523	37543.417969
611.965820	37454.757813
610.744141	37471.613281
609.523438	37808.820313
608.301758	37847.480469
607.080078	37786.671875
605.858398	37527.011719
604.635742	37846.054688
603.414063	38095.394531
602.191406	37965.011719
600.968750	37840.636719
599.745117	37817.632813
598.522461	37891.976563
597.298828	38137.093750
596.075195	38264.960938
594.850586	38511.898438
593.626953	38316.089844
592.402344	38326.753906
591.177734	38583.457031
589.953125	38834.109375
588.727539	38808.960938
587.501953	39134.832031
586.276367	38867.738281
585.050781	38858.453125
583.825195	39368.449219
582.598633	39693.964844
581.372070	39557.718750
580.145508	40053.425781
578.917969	39669.601563
577.691406	40351.230469
576.463867	40335.722656
575.236328	40682.449219
574.007813	40672.820313
572.780273	40566.238281
571.551758	40457.718750
570.323242	40450.109375
569.094727	40327.804688
567.865234	40875.800781
566.635742	39844.132813
565.406250	40026.375000
564.176758	40099.859375
562.947266	39383.050781
561.716797	39430.945313
560.486328	39152.960938
559.255859	39123.871094
558.024414	39118.484375
556.793945	38872.289063
555.562500	38993.246094
554.331055	38682.054688
553.098633	38416.347656
551.867188	38160.601563
550.634766	38581.332031
549.402344	38428.167969
548.168945	38109.480469
546.936523	38125.953125
545.703125	38207.445313
544.469727	38294.812500
543.236328	38126.082031
542.001953	38134.656250
540.767578	38074.308594
539.533203	38423.457031
538.298828	38117.042969
537.064453	37865.847656
535.829102	38498.148438
534.593750	38575.480469
533.358398	38157.160156
532.122070	38303.347656
530.886719	38799.429688
529.650391	38530.683594
528.414063	38511.628906
527.176758	38730.332031
525.940430	38644.449219
524.703125	39147.847656
523.465820	38735.925781
522.227539	38708.984375
520.990234	38884.250000
519.751953	38680.648438
518.513672	38661.582031
517.275391	38256.011719
516.036133	39359.050781
514.796875	38967.226563
513.557617	39226.550781
512.318359	38848.621094
511.079102	39307.796875
509.838867	39012.300781
508.598633	39014.734375
507.358398	38778.171875
506.117188	39188.039063
504.876953	38986.773438
503.635742	38754.257813
502.394531	38928.992188
501.152344	38377.558594
499.911133	38620.781250
498.668945	38591.968750
497.425781	39189.097656
496.183594	38931.371094
494.941406	38642.457031
493.698242	39180.582031
492.455078	38692.363281
491.210938	38726.093750
489.967773	39152.527344
488.723633	38977.132813
487.479492	39319.371094
486.235352	39274.843750
484.990234	39435.324219
483.745117	39137.027344
482.500000	39996.144531
481.254883	39520.289063
480.008789	39635.726563
478.763672	39653.589844
477.517578	39806.007813
476.271484	40055.851563
475.024414	40174.988281
473.777344	40448.054688
472.530273	40695.679688
471.283203	40232.085938
470.036133	40189.417969
468.788086	40559.644531
467.540039	39997.027344
466.291992	40075.121094
465.043945	40215.472656
463.794922	40491.992188
462.545898	40297.546875
461.296875	40282.140625
460.047852	40817.167969
458.797852	41079.746094
457.547852	41120.578125
456.297852	41194.437500
455.047852	41235.230469
453.796875	41019.511719
452.545898	41139.972656
451.294922	41345.847656
450.043945	41349.675781
448.792969	41638.921875
447.541016	41755.281250
446.289063	41927.882813
445.036133	42457.480469
443.784180	42350.492188
442.531250	42429.761719
441.278320	42274.328125
440.025391	41872.687500
438.771484	41981.082031
437.518555	41232.679688
436.264648	41374.093750
435.010742	41031.046875
433.755859	41073.644531
432.500977	40616.503906
431.246094	40769.539063
429.991211	40703.730469
428.736328	40084.308594
427.480469	40529.601563
426.224609	40419.359375
424.968750	39978.332031
423.712891	40614.878906
422.456055	40369.304688
421.199219	40003.941406
419.942383	40493.191406
418.685547	40019.699219
417.427734	40307.781250
416.169922	40404.472656
414.912109	40377.492188
413.654297	40217.253906
412.395508	40244.386719
411.136719	39978.046875
409.877930	40209.816406
408.619141	40279.386719
407.359375	40225.437500
406.099609	40273.750000
404.839844	40219.816406
403.580078	40503.382813
402.319336	40484.128906
401.059570	40233.554688
