#Wave		#Intensity
2001.248047	23894.714844
2000.278320	23656.595703
1999.308594	23772.757813
1998.338867	23538.087891
1997.369141	23781.996094
1996.398438	23707.708984
1995.428711	23786.212891
1994.458008	24032.451172
1993.487305	24093.343750
1992.516602	23711.179688
1991.545898	23787.123047
1990.574219	24045.695313
1989.603516	23673.742188
1988.631836	23672.109375
1987.660156	23930.562500
1986.688477	23783.859375
1985.715820	23727.207031
1984.744141	23568.089844
1983.771484	23861.365234
1982.798828	23547.363281
1981.826172	23823.048828
1980.853516	23786.416016
1979.880859	23582.472656
1978.907227	23673.234375
1977.933594	23888.787109
1976.959961	24009.414063
1975.986328	23578.468750
1975.012695	23896.224609
1974.039063	23580.207031
1973.064453	24052.496094
1972.089844	23656.755859
1971.115234	23817.185547
1970.140625	23783.107422
1969.166016	23891.113281
1968.190430	23617.787109
1967.215820	23583.757813
1966.240234	23699.214844
1965.264648	23533.167969
1964.289063	23601.273438
1963.312500	23826.220703
1962.336914	23321.664063
1961.360352	23571.468750
1960.383789	23744.039063
1959.407227	23675.193359
1958.430664	23526.761719
1957.454102	23373.406250
1956.476563	23705.046875
1955.499023	23613.875000
1954.521484	23691.781250
1953.543945	23540.986328
1952.566406	23474.738281
1951.587891	23497.962891
1950.610352	23158.472656
1949.631836	23139.517578
1948.653320	23550.197266
1947.674805	23556.007813
1946.696289	23306.113281
1945.716797	23354.158203
1944.737305	23168.908203
1943.758789	23512.226563
1942.779297	23498.185547
1941.798828	23166.664063
1940.819336	23477.558594
1939.838867	23280.046875
1938.859375	23271.013672
1937.878906	23232.238281
1936.898438	23096.824219
1935.916992	23087.824219
1934.936523	23358.765625
1933.955078	23025.246094
1932.974609	23405.064453
1931.993164	23192.978516
1931.010742	23282.988281
1930.029297	23449.697266
1929.047852	23277.306641
1928.065430	23443.955078
1927.083008	23063.820313
1926.100586	23171.083984
1925.118164	23040.902344
1924.135742	22979.994141
1923.152344	23025.410156
1922.168945	23416.847656
1921.185547	23217.513672
1920.202148	23070.136719
1919.218750	23068.562500
1918.235352	23358.445313
1917.250977	23216.056641
1916.266602	23095.939453
1915.282227	22877.117188
1914.297852	23228.531250
1913.313477	23182.505859
1912.328125	23035.333984
1911.343750	23233.583984
1910.358398	22968.060547
1909.373047	23139.123047
1908.387695	23152.326172
1907.401367	23094.031250
1906.416016	22858.291016
1905.429688	23174.646484
1904.443359	23039.994141
1903.457031	22902.925781
1902.470703	23231.417969
1901.483398	22995.857422
1900.497070	23388.234375
1899.509766	23103.490234
1898.522461	22868.074219
1897.535156	23198.742188
1896.546875	23096.251953
1895.559570	23335.742188
1894.571289	23097.984375
1893.583008	22921.791016
1892.594727	23180.851563
1891.606445	22871.953125
1890.618164	22983.458984
1889.628906	22849.179688
1888.639648	23262.859375
1887.650391	23035.228516
1886.661133	23050.832031
1885.671875	23088.533203
1884.682617	23069.746094
1883.692383	22898.767578
1882.702148	22826.021484
1881.711914	22915.265625
1880.721680	22756.667969
1879.731445	22718.326172
1878.740234	23020.921875
1877.749023	23151.753906
1876.757813	22985.865234
1875.766602	22847.001953
1874.775391	22855.242188
1873.784180	23049.720703
1872.791992	22903.564453
1871.799805	23161.656250
1870.807617	22890.619141
1869.815430	23356.769531
1868.823242	23012.339844
1867.830078	22741.468750
1866.837891	23092.363281
1865.844727	23193.529297
1864.851563	23040.207031
1863.858398	22921.183594
1862.864258	22643.224609
1861.871094	22851.992188
1860.876953	22865.089844
1859.882813	22917.292969
1858.888672	22915.707031
1857.894531	23011.869141
1856.899414	23083.562500
1855.905273	22969.578125
1854.910156	22894.708984
1853.915039	22744.167969
1852.919922	22788.998047
1851.923828	22706.875000
1850.928711	23061.656250
1849.932617	22894.105469
1848.936523	22755.890625
1847.940430	23078.759766
1846.944336	22979.582031
1845.947266	22712.181641
1844.951172	22993.439453
1843.954102	23047.898438
1842.957031	22943.916016
1841.959961	23071.464844
1840.962891	22969.951172
1839.964844	23450.658203
1838.966797	22737.800781
1837.969727	23237.859375
1836.970703	22958.654297
1835.972656	23112.835938
1834.974609	22741.267578
1833.975586	23039.000000
1832.976563	23268.503906
1831.978516	23081.970703
1830.978516	22720.392578
1829.979492	22881.744141
1828.980469	23397.994141
1827.980469	23051.132813
1826.980469	23037.351563
1825.980469	23290.867188
1824.980469	23437.394531
1823.979492	23151.494141
1822.979492	23079.414063
1821.978516	23371.591797
1820.977539	23301.923828
1819.976563	23360.929688
1818.975586	23286.433594
1817.973633	23277.478516
1816.972656	23300.064453
1815.970703	23371.152344
1814.968750	23287.001953
1813.966797	23202.880859
1812.963867	23463.048828
1811.961914	22901.406250
1810.958984	23447.507813
1809.956055	23385.220703
1808.953125	23330.222656
1807.950195	23556.222656
1806.946289	23549.648438
1805.943359	23596.345703
1804.939453	23335.564453
1803.935547	23425.851563
1802.930664	23334.597656
1801.926758	23603.906250
1800.922852	23510.230469
1799.917969	23450.453125
1798.913086	23451.154297
1797.908203	23454.271484
1796.903320	23624.197266
1795.897461	23644.201172
1794.891602	23678.697266
1793.886719	23181.603516
1792.880859	23578.542969
1791.874023	23231.394531
1790.868164	23661.994141
1789.862305	23725.425781
1788.855469	23771.935547
1787.848633	23683.261719
1786.841797	23917.998047
1785.833984	23547.023438
1784.827148	24182.160156
1783.819336	23512.179688
1782.812500	24115.746094
1781.804688	24082.556641
1780.795898	24008.394531
1779.788086	23787.228516
1778.779297	23732.421875
1777.771484	23721.003906
1776.762695	24131.167969
1775.753906	23936.628906
1774.744141	23985.380859
1773.735352	23872.796875
1772.725586	24041.908203
1771.715820	24023.220703
1770.706055	24269.251953
1769.696289	24317.898438
1768.686523	24068.228516
1767.675781	24169.806641
1766.666016	24189.583984
1765.655273	24062.689453
1764.644531	23794.007813
1763.632813	23792.207031
1762.622070	23749.554688
1761.610352	24074.519531
1760.598633	23981.384766
1759.586914	23993.958984
1758.575195	24056.957031
1757.563477	24215.970703
1756.550781	24070.058594
1755.538086	24147.408203
1754.525391	24215.130859
1753.512695	24141.271484
1752.500000	24055.443359
1751.486328	23924.076172
1750.473633	23689.640625
1749.459961	24004.326172
1748.446289	24187.058594
1747.432617	24185.177734
1746.417969	24029.935547
1745.404297	24243.708984
1744.389648	23983.109375
1743.375000	24132.148438
1742.360352	24458.333984
1741.344727	24403.730469
1740.330078	24286.908203
1739.314453	24469.291016
1738.298828	24512.820313
1737.283203	24582.648438
1736.267578	24566.339844
1735.251953	24951.828125
1734.235352	24679.597656
1733.218750	24916.699219
1732.202148	24706.720703
1731.185547	24745.367188
1730.168945	24910.642578
1729.151367	25243.093750
1728.133789	24858.828125
1727.117188	25193.558594
1726.098633	25442.207031
1725.081055	25454.416016
1724.063477	25359.205078
1723.044922	25517.000000
1722.026367	25743.935547
1721.007813	25939.777344
1719.989258	25866.011719
1718.970703	26037.910156
1717.951172	25926.000000
1716.931641	26071.601563
1715.912109	26114.654297
1714.892578	26174.375000
1713.873047	26298.408203
1712.853516	26146.044922
1711.833008	26162.849609
1710.812500	26386.837891
1709.791992	26660.746094
1708.771484	26553.656250
1707.750000	26736.988281
1706.729492	26784.605469
1705.708008	26613.302734
1704.686523	26634.755859
1703.665039	27084.333984
1702.642578	26967.763672
1701.621094	27167.464844
1700.598633	27198.308594
1699.576172	27124.558594
1698.553711	27017.562500
1697.531250	27267.005859
1696.507813	27590.001953
1695.485352	27509.105469
1694.461914	27468.607422
1693.438477	27542.087891
1692.415039	27520.587891
1691.390625	27902.583984
1690.367188	27717.283203
1689.342773	27482.220703
1688.318359	27783.363281
1687.293945	28025.101563
1686.269531	28110.242188
1685.244141	28174.013672
1684.218750	28304.134766
1683.194336	28569.306641
1682.168945	28277.505859
1681.142578	28604.185547
1680.117188	28703.339844
1679.090820	28970.615234
1678.064453	28731.041016
1677.038086	29043.199219
1676.011719	28929.154297
1674.985352	29262.464844
1673.958008	29195.746094
1672.931641	28963.437500
1671.904297	29251.615234
1670.876953	29300.820313
1669.848633	29477.695313
1668.821289	29609.587891
1667.792969	29713.064453
1666.764648	29591.982422
1665.736328	29681.248047
1664.708008	29475.160156
1663.679688	29727.396484
1662.650391	29625.287109
1661.621094	29863.238281
1660.591797	29751.695313
1659.562500	29906.921875
1658.533203	30047.931641
1657.502930	30037.873047
1656.472656	30353.386719
1655.442383	30081.453125
1654.412109	30000.640625
1653.381836	30183.945313
1652.351563	30626.509766
1651.320313	30130.791016
1650.289063	30453.015625
1649.257813	30405.189453
1648.226563	30362.091797
1647.194336	30377.894531
1646.163086	30445.500000
1645.130859	30435.378906
1644.098633	30366.406250
1643.066406	30619.919922
1642.033203	30616.830078
1641.000977	30686.677734
1639.967773	30803.552734
1638.934570	30868.636719
1637.901367	30618.574219
1636.868164	30822.390625
1635.833984	30965.554688
1634.800781	31108.582031
1633.766602	31251.744141
1632.732422	31394.908203
1631.697266	30884.255859
1630.663086	31085.451172
1629.627930	31103.402344
1628.593750	31781.107422
1627.558594	31442.111328
1626.522461	31274.568359
1625.487305	31463.775391
1624.451172	31563.755859
1623.416016	31290.716797
1622.379883	31690.900391
1621.343750	32151.910156
1620.306641	32218.867188
1619.270508	32227.197266
1618.233398	32294.117188
1617.196289	32295.396484
1616.159180	32901.140625
1615.122070	33110.789063
1614.083984	33397.652344
1613.046875	33663.335938
1612.008789	33474.726563
1610.970703	33824.566406
1609.932617	33764.714844
1608.893555	34037.156250
1607.855469	33483.640625
1606.816406	33253.117188
1605.777344	33284.613281
1604.738281	33077.589844
1603.698242	32531.648438
1602.659180	32486.115234
1601.619141	32269.992188
1600.579102	31799.253906
1599.539063	32029.544922
1598.499023	31752.884766
1597.458008	31721.537109
1596.417969	31269.904297
1595.376953	31479.111328
1594.335938	31226.082031
1593.294922	31465.556641
1592.252930	31219.617188
1591.210938	31095.074219
1590.169922	31280.794922
1589.127930	31184.267578
1588.084961	31209.019531
1587.042969	31429.583984
1586.000000	31132.628906
1584.958008	31660.736328
1583.915039	31354.523438
1582.872070	31323.306641
1581.828125	31299.087891
1580.785156	31442.542969
1579.741211	31446.248047
1578.697266	32003.992188
1577.653320	31916.820313
1576.609375	32055.404297
1575.564453	32079.933594
1574.520508	32411.513672
1573.475586	32591.796875
1572.430664	32579.005859
1571.384766	32459.267578
1570.339844	32455.798828
1569.293945	32515.083984
1568.249023	32420.978516
1567.202148	32001.638672
1566.156250	31603.351563
1565.110352	31312.042969
1564.063477	31290.199219
1563.017578	30708.835938
1561.970703	30745.136719
1560.922852	30410.085938
1559.875977	30773.605469
1558.829102	30406.187500
1557.781250	30287.097656
1556.733398	30246.900391
1555.685547	30181.210938
1554.636719	29733.013672
1553.588867	29922.410156
1552.540039	29942.558594
1551.491211	29622.082031
1550.442383	29505.587891
1549.393555	29305.748047
1548.344727	29187.035156
1547.294922	29001.212891
1546.245117	29308.564453
1545.195313	29092.695313
1544.145508	28819.044922
1543.094727	29299.794922
1542.044922	28725.462891
1540.994141	29000.201172
1539.943359	28819.261719
1538.892578	28793.300781
1537.840820	28818.207031
1536.790039	28355.412109
1535.738281	29378.701172
1534.686523	28966.798828
1533.634766	28561.974609
1532.583008	28644.634766
1531.530273	28454.771484
1530.477539	28576.669922
1529.424805	28266.845703
1528.372070	28550.294922
1527.319336	28471.343750
1526.265625	28341.662109
1525.212891	28288.150391
1524.159180	28082.435547
1523.105469	27902.158203
1522.051758	27906.388672
1520.997070	28106.554688
1519.942383	27638.275391
1518.888672	27801.544922
1517.833984	28061.517578
1516.778320	27662.599609
1515.723633	27940.927734
1514.667969	27825.400391
1513.612305	27795.093750
1512.556641	27953.550781
1511.500977	28010.685547
1510.445313	27787.074219
1509.388672	27867.222656
1508.332031	27772.525391
1507.275391	27680.162109
1506.218750	27622.320313
1505.162109	27723.126953
1504.104492	27598.636719
1503.047852	27575.310547
1501.990234	27347.492188
1500.931641	27496.513672
1499.874023	27351.478516
1498.816406	27266.203125
1497.757813	27419.748047
1496.699219	27212.816406
1495.640625	27120.722656
1494.582031	27157.169922
1493.522461	27154.599609
1492.462891	27392.900391
1491.403320	27082.941406
1490.343750	26910.685547
1489.284180	27277.292969
1488.224609	26940.009766
1487.164063	27274.392578
1486.103516	27125.136719
1485.042969	26678.083984
1483.982422	27062.726563
1482.920898	26892.970703
1481.860352	27160.650391
1480.798828	27146.621094
1479.737305	26812.125000
1478.675781	27203.259766
1477.613281	26553.089844
1476.550781	26852.613281
1475.489258	26950.732422
1474.426758	26904.732422
1473.363281	27021.097656
1472.300781	26831.068359
1471.237305	26682.250000
1470.174805	26972.279297
1469.111328	26654.396484
1468.046875	26859.796875
1466.983398	27250.138672
1465.919922	27069.400391
1464.855469	27327.126953
1463.791016	27125.890625
1462.726563	27454.273438
1461.661133	27227.980469
1460.596680	27410.193359
1459.531250	27430.367188
1458.465820	27277.185547
1457.400391	27158.265625
1456.334961	27310.714844
1455.268555	27264.779297
1454.202148	27435.386719
1453.135742	27494.267578
1452.069336	27432.369141
1451.002930	27299.875000
1449.935547	27586.507813
1448.869141	27456.306641
1447.801758	27503.742188
1446.734375	27678.636719
1445.666016	27903.539063
1444.598633	27468.443359
1443.530273	27531.765625
1442.461914	27831.636719
1441.393555	27551.439453
1440.325195	27855.746094
1439.256836	27839.373047
1438.187500	27775.269531
1437.118164	28068.003906
1436.048828	28042.509766
1434.979492	28101.082031
1433.909180	28032.429688
1432.839844	27988.783203
1431.769531	27897.466797
1430.699219	28085.423828
1429.627930	28268.773438
1428.557617	28427.091797
1427.486328	28038.513672
1426.416016	28339.738281
1425.343750	28357.324219
1424.272461	28506.435547
1423.201172	28462.763672
1422.128906	28777.292969
1421.056641	28865.046875
1419.984375	28907.445313
1418.912109	28884.119141
1417.839844	28736.205078
1416.766602	28984.712891
1415.693359	28793.804688
1414.620117	28641.455078
1413.546875	28733.642578
1412.473633	28398.025391
1411.399414	28544.531250
1410.325195	28403.644531
1409.250977	28081.837891
1408.176758	28350.449219
1407.102539	28576.000000
1406.027344	28828.597656
1404.952148	28690.041016
1403.876953	28895.062500
1402.801758	28932.794922
1401.726563	28891.437500
1400.650391	29044.355469
1399.574219	29203.994141
1398.498047	29289.056641
1397.421875	28999.320313
1396.345703	28660.029297
1395.268555	28921.171875
1394.191406	28543.654297
1393.114258	28599.425781
1392.037109	28639.386719
1390.959961	28379.390625
1389.881836	28381.042969
1388.804688	28669.000000
1387.726563	28607.486328
1386.647461	28471.625000
1385.569336	28660.265625
1384.491211	28499.662109
1383.412109	28688.228516
1382.333008	28903.750000
1381.253906	28776.957031
1380.173828	28708.738281
1379.094727	28746.328125
1378.014648	28678.136719
1376.934570	28452.474609
1375.854492	28472.091797
1374.773438	28278.033203
1373.693359	28625.980469
1372.612305	28328.541016
1371.531250	27921.060547
1370.450195	27554.179688
1369.369141	28254.794922
1368.287109	27768.910156
1367.205078	27662.820313
1366.123047	27904.875000
1365.041016	27414.822266
1363.958984	27670.304688
1362.875977	27660.824219
1361.793945	27447.119141
1360.710938	27421.972656
1359.626953	27589.769531
1358.543945	27080.109375
1357.460938	27099.890625
1356.376953	27303.527344
1355.292969	27117.013672
1354.208984	26975.392578
1353.124023	27416.484375
1352.040039	27135.941406
1350.955078	27137.763672
1349.870117	27058.951172
1348.785156	26689.046875
1347.700195	27230.541016
1346.614258	26789.101563
1345.528320	26987.937500
1344.442383	26774.951172
1343.356445	26808.152344
1342.270508	26749.623047
1341.183594	26852.148438
1340.096680	26894.257813
1339.009766	26679.238281
1337.922852	26649.830078
1336.835938	26486.335938
1335.748047	26597.746094
1334.661133	26405.273438
1333.573242	26536.761719
1332.484375	26695.000000
1331.396484	26612.023438
1330.307617	26817.072266
1329.219727	26580.085938
1328.130859	26840.855469
1327.041992	26847.162109
1325.952148	26920.390625
1324.863281	26906.603516
1323.773438	27008.783203
1322.683594	27055.183594
1321.593750	26760.484375
1320.502930	27114.498047
1319.413086	27051.654297
1318.322266	27064.587891
1317.231445	27253.503906
1316.140625	27108.255859
1315.048828	27118.941406
1313.958008	27089.544922
1312.866211	27231.566406
1311.774414	27515.978516
1310.682617	27235.068359
1309.589844	26985.406250
1308.498047	27458.783203
1307.405273	27160.240234
1306.312500	27377.691406
1305.218750	27603.957031
1304.125977	27627.859375
1303.032227	27556.185547
1301.939453	27964.500000
1300.845703	28186.046875
1299.750977	28087.652344
1298.657227	28924.269531
1297.562500	29025.613281
1296.467773	29149.123047
1295.373047	29356.929688
1294.278320	29460.357422
1293.183594	29554.871094
1292.087891	29431.943359
1290.992188	29180.412109
1289.896484	29383.585938
1288.800781	28777.396484
1287.704102	28295.566406
1286.608398	28039.986328
1285.511719	28103.603516
1284.415039	27710.779297
1283.317383	27781.076172
1282.220703	27437.175781
1281.123047	27527.425781
1280.025391	27354.173828
1278.927734	27375.779297
1277.830078	27120.726563
1276.731445	27016.234375
1275.633789	26911.781250
1274.535156	27236.492188
1273.436523	26977.220703
1272.336914	26833.025391
1271.238281	27301.275391
1270.138672	26571.312500
1269.039063	26608.484375
1267.939453	26559.468750
1266.839844	26156.996094
1265.739258	26021.933594
1264.638672	26107.759766
1263.538086	26273.042969
1262.437500	26239.580078
1261.336914	26243.648438
1260.235352	25914.490234
1259.134766	26042.173828
1258.033203	25796.996094
1256.930664	25701.886719
1255.829102	25959.642578
1254.726563	26340.773438
1253.625000	25917.158203
1252.522461	26545.003906
1251.418945	26280.162109
1250.316406	26066.089844
1249.212891	25816.847656
1248.110352	25558.886719
1247.006836	25712.791016
1245.902344	25622.261719
1244.798828	25703.457031
1243.694336	25309.250000
1242.589844	25168.230469
1241.485352	25434.261719
1240.380859	25599.013672
1239.276367	25209.503906
1238.170898	25257.697266
1237.065430	25136.595703
1235.959961	25070.486328
1234.854492	25193.394531
1233.748047	25450.287109
1232.642578	25362.185547
1231.536133	25329.025391
1230.429688	25157.527344
1229.322266	25473.517578
1228.215820	25345.957031
1227.108398	25301.845703
1226.000977	25450.857422
1224.893555	25799.470703
1223.786133	25669.746094
1222.677734	25645.341797
1221.569336	25745.937500
1220.460938	25631.636719
1219.352539	25576.560547
1218.244141	25560.953125
1217.134766	25175.033203
1216.025391	25260.281250
1214.916016	25520.730469
1213.806641	25016.763672
1212.697266	25084.472656
1211.586914	25228.779297
1210.476563	25204.492188
1209.366211	25248.054688
1208.255859	25197.513672
1207.145508	25127.302734
1206.034180	25074.611328
1204.922852	24916.970703
1203.811523	25128.898438
1202.700195	25091.535156
1201.587891	24776.607422
1200.476563	25257.226563
1199.364258	25246.076172
1198.251953	25210.900391
1197.138672	25016.298828
1196.026367	25125.296875
1194.913086	25398.000000
1193.799805	24924.060547
1192.686523	25083.208984
1191.573242	25432.140625
1190.458984	25362.060547
1189.344727	25036.794922
1188.230469	25213.250000
1187.116211	25485.582031
1186.001953	25138.666016
1184.886719	25201.660156
1183.772461	25116.437500
1182.657227	25331.931641
1181.541016	25170.466797
1180.425781	24937.179688
1179.309570	25344.226563
1178.193359	24991.238281
1177.077148	24934.441406
1175.960938	24958.193359
1174.844727	24625.050781
1173.727539	24803.326172
1172.610352	24868.416016
1171.493164	24813.861328
1170.375977	24861.529297
1169.257813	24696.111328
1168.139648	24585.097656
1167.022461	24950.085938
1165.903320	24643.498047
1164.785156	24510.824219
1163.666992	24397.748047
1162.547852	24597.447266
1161.428711	24543.021484
1160.309570	24212.900391
1159.189453	24288.796875
1158.070313	24479.683594
1156.950195	24201.826172
1155.830078	24295.035156
1154.709961	24112.746094
1153.588867	24231.958984
1152.468750	24387.986328
1151.347656	24327.175781
1150.226563	24175.353516
1149.104492	24140.605469
1147.983398	24060.369141
1146.861328	24363.583984
1145.739258	24045.091797
1144.617188	24261.578125
1143.495117	24380.558594
1142.372070	24155.316406
1141.250000	24670.328125
1140.126953	24505.699219
1139.003906	24349.785156
1137.879883	24775.791016
1136.756836	24444.703125
1135.632813	24604.574219
1134.508789	24844.375000
1133.384766	24794.447266
1132.259766	24448.466797
1131.135742	24500.181641
1130.010742	24076.607422
1128.885742	24158.607422
1127.759766	24255.691406
1126.634766	24246.943359
1125.508789	24471.339844
1124.382813	24261.828125
1123.256836	24233.658203
1122.130859	24084.675781
1121.003906	24151.460938
1119.877930	24168.617188
1118.750977	24131.855469
1117.624023	23881.664063
1116.496094	24026.035156
1115.369141	24237.162109
1114.241211	23760.833984
1113.113281	23926.689453
1111.985352	23984.781250
1110.856445	24098.845703
1109.728516	23963.093750
1108.599609	23887.669922
1107.470703	24018.904297
1106.340820	23816.527344
1105.211914	23713.197266
1104.082031	23975.615234
1102.952148	24027.152344
1101.822266	24039.960938
1100.692383	24029.115234
1099.561523	24134.351563
1098.431641	23964.443359
1097.300781	23925.677734
1096.169922	23977.162109
1095.038086	23740.779297
1093.907227	24159.535156
1092.775391	24159.408203
1091.643555	24066.964844
1090.511719	23908.009766
1089.378906	23847.835938
1088.246094	23995.818359
1087.114258	23912.048828
1085.980469	23699.611328
1084.847656	23766.042969
1083.714844	24087.607422
1082.581055	23952.425781
1081.447266	24010.199219
1080.313477	23930.798828
1079.179688	23750.724609
1078.044922	24089.128906
1076.910156	23838.408203
1075.775391	23632.748047
1074.640625	24075.896484
1073.505859	23709.718750
1072.370117	23951.503906
1071.234375	24413.603516
1070.098633	23917.054688
1068.962891	24430.328125
1067.826172	24224.816406
1066.690430	24261.005859
1065.553711	24354.904297
1064.416992	24104.628906
1063.279297	24204.929688
1062.142578	24277.416016
1061.004883	24275.101563
1059.867188	24178.806641
1058.729492	24108.173828
1057.590820	24345.027344
1056.453125	23945.632813
1055.314453	24237.919922
1054.175781	23746.927734
1053.037109	24194.894531
1051.897461	24358.980469
1050.757813	23723.203125
1049.618164	23821.208984
1048.478516	24266.697266
1047.338867	23965.949219
1046.199219	24091.560547
1045.058594	23854.876953
1043.917969	24003.894531
1042.777344	23820.564453
1041.635742	24093.052734
1040.495117	23871.445313
1039.353516	23830.875000
1038.211914	23688.148438
1037.069336	23860.435547
1035.927734	23913.503906
1034.785156	23851.677734
1033.642578	23898.345703
1032.500000	23885.453125
1031.357422	24006.513672
1030.213867	23868.181641
1029.071289	23929.687500
1027.927734	23878.542969
1026.783203	23920.900391
1025.639648	24005.724609
1024.495117	23969.458984
1023.351563	24088.216797
1022.207031	24330.066406
1021.061523	24119.699219
1019.916992	24049.480469
1018.771484	24134.181641
1017.625977	24159.447266
1016.480469	24059.560547
1015.334961	24114.519531
1014.188477	24366.648438
1013.041992	24243.455078
1011.895508	24205.087891
1010.749023	24067.132813
1009.602539	24261.873047
1008.455078	24147.259766
1007.307617	24134.349609
1006.160156	24112.972656
1005.012695	24491.751953
1003.864258	24554.988281
1002.716797	24766.349609
1001.568359	25178.654297
1000.419922	25102.091797
999.270508	25562.832031
998.122070	25308.578125
996.972656	25382.158203
995.823242	25510.677734
994.673828	25550.375000
993.523438	25587.941406
992.373047	25287.425781
991.222656	25322.912109
990.072266	25309.804688
988.921875	25303.037109
987.771484	25460.957031
986.620117	25059.408203
985.468750	25255.302734
984.317383	25505.988281
983.165039	25636.324219
982.013672	25580.978516
980.861328	25266.242188
979.708984	25529.390625
978.555664	25503.607422
977.403320	25650.679688
976.250000	25523.722656
975.096680	25375.742188
973.943359	25126.691406
972.790039	25172.617188
971.635742	25155.345703
970.481445	25253.884766
969.327148	24887.146484
968.172852	24890.982422
967.018555	24749.613281
965.863281	25088.005859
964.708008	25001.343750
963.552734	24902.091797
962.397461	24727.175781
961.241211	25107.367188
960.084961	25148.986328
958.929688	25060.285156
957.772461	25064.072266
956.616211	25067.857422
955.458984	25130.453125
954.301758	25060.716797
953.144531	25081.294922
951.987305	25133.353516
950.830078	25193.787109
949.671875	25214.326172
948.513672	25043.921875
947.355469	25123.214844
946.196289	25361.882813
945.038086	25002.808594
943.878906	24998.197266
942.719727	25251.425781
941.560547	25257.248047
940.400391	25089.142578
939.241211	25415.539063
938.081055	25423.417969
936.919922	25330.767578
935.759766	25290.496094
934.599609	25210.462891
933.438477	25672.585938
932.277344	25697.146484
931.116211	25445.503906
929.954102	25965.900391
928.791992	25835.611328
927.630859	25544.343750
926.467773	25932.707031
925.305664	25714.693359
924.143555	25438.238281
922.980469	25686.392578
921.817383	25629.417969
920.654297	25777.175781
919.490234	25849.691406
918.327148	25604.783203
917.163086	25898.603516
915.999023	25584.888672
914.833984	25728.339844
913.669922	25982.326172
912.504883	25973.353516
911.339844	25947.697266
910.174805	26343.308594
909.008789	26159.126953
907.843750	26177.224609
906.677734	26091.101563
905.511719	26217.564453
904.345703	26185.634766
903.178711	26037.058594
902.011719	26123.888672
900.844727	26162.789063
899.677734	25808.181641
898.510742	25982.427734
897.342773	25996.355469
896.174805	26176.742188
895.006836	25903.525391
893.838867	25892.496094
892.670898	26037.443359
891.501953	26080.453125
890.333008	26086.023438
889.164063	25908.681641
887.994141	26336.140625
886.825195	26198.294922
885.655273	26120.740234
884.485352	26134.601563
883.315430	26090.310547
882.144531	25969.216797
880.973633	26215.585938
879.803711	26138.093750
878.631836	25905.001953
877.460938	26526.757813
876.289063	26409.837891
875.118164	26900.613281
873.945313	26671.693359
872.773438	26712.365234
871.601563	26460.763672
870.428711	26870.337891
869.255859	26237.550781
868.083008	27017.830078
866.910156	26702.144531
865.736328	27072.021484
864.562500	27234.714844
863.388672	27217.250000
862.214844	27516.453125
861.040039	27269.248047
859.866211	27487.640625
858.691406	27790.759766
857.516602	27874.542969
856.340820	27691.550781
855.166016	27907.628906
853.990234	27695.757813
852.814453	27638.960938
851.637695	27673.097656
850.461914	27767.130859
849.285156	27660.775391
848.108398	27655.648438
846.931641	27916.869141
845.754883	27575.210938
844.577148	27823.962891
843.399414	27853.884766
842.221680	28024.089844
841.043945	28113.783203
839.865234	28298.310547
838.687500	28123.976563
837.508789	28289.878906
836.329102	28470.144531
835.150391	28199.011719
833.970703	28546.125000
832.791992	28363.660156
831.611328	28757.986328
830.431641	28281.060547
829.251953	28146.097656
828.071289	27871.201172
826.890625	27565.531250
825.709961	27278.494141
824.528320	27664.345703
823.347656	27585.158203
822.166016	27458.693359
820.984375	27712.691406
819.801758	27485.507813
818.620117	27359.128906
817.437500	27682.873047
816.254883	27513.353516
815.072266	27516.462891
813.888672	27388.113281
812.706055	27699.285156
811.522461	27609.957031
810.338867	27442.654297
809.154297	27451.923828
807.970703	27600.732422
806.786133	27862.330078
805.601563	27647.917969
804.416992	27724.818359
803.231445	27610.988281
802.045898	27915.437500
800.861328	27639.675781
799.674805	27638.636719
798.489258	27662.187500
797.302734	27105.955078
796.117188	27076.337891
794.930664	27425.593750
793.743164	27533.109375
792.556641	27507.519531
791.369141	27199.484375
790.181641	27190.335938
788.994141	27232.337891
787.805664	26816.103516
786.618164	27209.939453
785.429688	27241.687500
784.241211	27291.822266
783.052734	27051.673828
781.863281	27134.523438
780.673828	27243.902344
779.484375	27052.925781
778.294922	26737.419922
777.105469	26867.230469
775.915039	27056.205078
774.724609	26583.681641
773.534180	26952.248047
772.343750	27128.853516
771.152344	26856.525391
769.960938	27075.917969
768.769531	26862.845703
767.578125	26937.373047
766.385742	27115.849609
765.194336	26904.921875
764.001953	27156.705078
762.808594	27139.423828
761.616211	27285.126953
760.422852	27015.251953
759.230469	27560.078125
758.037109	27432.777344
756.842773	27116.199219
755.649414	27328.933594
754.455078	27527.341797
753.260742	27379.791016
752.066406	27358.416016
750.871094	27125.527344
749.676758	27167.244141
748.481445	27359.392578
747.286133	27207.939453
746.089844	27196.771484
744.894531	27455.857422
743.698242	27326.814453
742.501953	27077.976563
741.304688	26963.265625
740.108398	27057.730469
738.911133	26746.146484
737.713867	26812.199219
736.516602	26916.783203
735.319336	26814.375000
734.121094	26618.691406
732.922852	26613.728516
731.724609	27032.574219
730.526367	27094.437500
729.327148	26990.058594
728.127930	26885.718750
726.928711	27093.462891
725.729492	26752.107422
724.530273	26822.062500
723.330078	26810.982422
722.129883	26680.443359
720.929688	26657.246094
719.728516	26802.048828
718.528320	26803.117188
717.327148	27004.488281
716.125977	27070.250000
714.923828	26866.990234
713.722656	26971.169922
712.520508	26713.416016
711.318359	26971.208984
710.116211	26852.996094
708.913086	26793.425781
707.710938	26889.435547
706.507813	27120.738281
705.304688	27208.570313
704.100586	27134.837891
702.897461	27628.398438
701.693359	27177.179688
700.489258	27557.537109
699.284180	27725.904297
698.080078	27502.863281
696.875000	27497.724609
695.669922	27389.748047
694.464844	27662.849609
693.258789	27766.529297
692.053711	27950.783203
690.847656	28080.562500
689.641602	28407.720703
688.434570	28416.509766
687.228516	28532.029297
686.021484	28713.947266
684.814453	28221.412109
683.607422	28099.398438
682.399414	28468.439453
681.191406	28318.253906
679.983398	28081.626953
678.775391	27865.199219
677.567383	27982.648438
676.358398	28063.865234
675.149414	28086.755859
673.940430	27995.085938
672.730469	27987.839844
671.521484	27894.208984
670.311523	27858.861328
669.101563	28106.681641
667.890625	27681.789063
666.680664	27491.923828
665.469727	27693.505859
664.258789	27692.337891
663.047852	27474.484375
661.835938	27702.031250
660.625000	27568.490234
659.413086	27573.353516
658.201172	27556.164063
656.988281	27478.843750
655.776367	27169.082031
654.563477	27374.380859
653.350586	27457.400391
652.136719	27336.087891
650.923828	27569.273438
649.709961	27447.982422
648.496094	27486.880859
647.282227	27619.832031
646.067383	27460.576172
644.852539	27675.507813
643.637695	27808.343750
642.422852	27559.140625
641.208008	27587.968750
639.992188	27778.718750
638.776367	27567.636719
637.560547	27604.435547
636.344727	27625.238281
635.127930	27464.240234
633.911133	28106.220703
632.694336	27677.601563
631.477539	27830.140625
630.259766	27729.105469
629.042969	27785.777344
627.825195	27453.314453
626.606445	27559.888672
625.388672	27772.142578
624.169922	27395.990234
622.951172	27526.439453
621.732422	27353.816406
620.513672	27540.033203
619.293945	27431.238281
618.074219	27523.722656
616.854492	27618.162109
615.634766	27589.080078
614.414063	27611.781250
613.193359	27624.517578
611.972656	27999.535156
610.751953	27530.562500
609.530273	27569.169922
608.309570	27782.835938
607.087891	27725.904297
605.866211	27631.207031
604.643555	28001.816406
603.420898	27974.691406
602.198242	28039.003906
600.975586	28395.414063
599.752930	28056.291016
598.529297	27892.103516
597.305664	28280.113281
596.082031	27963.041016
594.858398	28233.753906
593.633789	28242.343750
592.410156	28127.884766
591.185547	28283.324219
589.959961	28260.154297
588.735352	28681.294922
587.509766	28477.593750
586.284180	28652.671875
585.058594	28817.771484
583.832031	29143.349609
582.606445	29345.943359
581.379883	29605.914063
580.153320	29586.482422
578.925781	29622.511719
577.699219	30062.472656
576.471680	30126.113281
575.244141	30247.128906
574.015625	30197.902344
572.788086	30520.679688
571.559570	30396.242188
570.331055	30200.646484
569.101563	30072.359375
567.873047	30058.792969
566.643555	29709.177734
565.414063	29871.583984
564.184570	29613.029297
562.954102	29743.779297
561.724609	29266.083984
560.494141	29225.029297
559.263672	29231.376953
558.032227	29178.494141
556.800781	28971.671875
555.570313	28678.095703
554.337891	28674.671875
553.106445	28761.990234
551.874023	28646.125000
550.642578	28177.320313
549.409180	28475.638672
548.176758	28560.953125
546.944336	28476.740234
545.710938	28554.138672
544.477539	28428.583984
543.243164	28553.230469
542.009766	28211.091797
540.775391	28369.203125
539.541016	28497.724609
538.306641	28303.404297
537.071289	28105.220703
535.836914	28249.455078
534.601563	28181.183594
533.366211	28390.250000
532.129883	28347.537109
530.894531	28582.048828
529.658203	28708.361328
528.421875	28414.052734
527.184570	28615.011719
525.948242	28521.212891
524.710938	28252.636719
523.473633	28771.644531
522.235352	28589.509766
520.998047	28544.857422
519.759766	28598.355469
518.521484	28732.287109
517.283203	28762.181641
516.043945	29039.224609
514.804688	28912.152344
513.565430	29045.917969
512.326172	28956.136719
511.085938	29146.683594
509.846680	28958.929688
508.606445	29106.294922
507.366211	29139.982422
506.125000	29003.255859
504.883789	29029.113281
503.643555	29111.738281
502.401367	29016.197266
501.160156	28697.578125
499.917969	28774.343750
498.675781	29121.064453
497.433594	28802.601563
496.191406	29090.511719
494.948242	29372.447266
493.705078	28923.132813
492.461914	29206.943359
491.218750	29035.322266
489.975586	29119.712891
488.731445	29489.275391
487.487305	28930.982422
486.242188	28960.666016
484.998047	29191.427734
483.752930	29322.548828
482.507813	29164.783203
481.262695	29477.324219
480.016602	29315.683594
478.771484	29458.380859
477.525391	29507.416016
476.278320	29685.117188
475.032227	29554.744141
473.785156	29972.095703
472.538086	29783.255859
471.291016	29701.640625
470.043945	29641.482422
468.795898	29891.007813
467.547852	29585.488281
466.299805	29848.552734
465.051758	30074.535156
463.802734	29749.689453
462.553711	30176.009766
461.304688	30181.974609
460.055664	30201.548828
458.805664	30256.117188
457.555664	30304.832031
456.305664	30442.943359
455.055664	30233.115234
453.804688	30705.404297
452.553711	30631.595703
451.302734	30985.142578
450.051758	30891.886719
448.799805	30884.097656
447.548828	31198.564453
446.296875	31328.523438
445.043945	31450.667969
443.791992	31328.300781
442.539063	31562.908203
441.286133	31364.923828
440.033203	31190.283203
438.779297	31277.435547
437.526367	31102.873047
436.272461	30949.695313
435.017578	30883.765625
433.763672	30583.453125
432.508789	30533.109375
431.253906	30556.373047
429.999023	30641.582031
428.744141	30417.031250
427.488281	30477.070313
426.232422	30264.244141
424.976563	30995.625000
423.720703	30390.109375
422.463867	30248.972656
421.207031	30378.589844
419.950195	30751.740234
418.693359	30415.392578
417.435547	30349.718750
416.177734	30347.828125
414.919922	30504.339844
413.662109	30257.130859
412.403320	30429.046875
411.144531	30531.392578
409.885742	30054.611328
408.626953	30591.216797
407.367188	30488.935547
406.107422	30392.480469
404.847656	30394.429688
403.587891	30471.585938
402.327148	30566.064453
401.067383	30556.408203
