EXPLAIN
TAG	CHRONOA
TITLE	LABEL	Chronoamperometry Scan	Test Identifier
DATE	LABEL	10/2/2022	Date
TIME	LABEL	14:53:00	Time
NOTES	NOTES	1	Notes...
	
PSTAT	PSTAT	IFC1010-21051	Potentiostat
VPRESTEP	POTEN	3.00000E-001	F	Pre-step Voltage (V)
TPRESTEP	QUANT	5.00000E-001	Pre-step Delay Time (s)
VSTEP1	POTEN	4.00000E-001	F	Step 1 Voltage (V)
TSTEP1	QUANT	3.00000E+002	Step 1 Time (s)
VSTEP2	POTEN	3.00000E-001	F	Step 2 Voltage (V)
TSTEP2	QUANT	1.00000E+000	Step 2 Time (s)
SAMPLETIME	QUANT	1.00000E-001	Sample Period (s)
DECIMATE	TOGGLE	T	Decimate
ILIMIT	QUANT	1.00000E+000	Limit I (mA/cm^2)
IMODE	SELECTOR	1	I/E Range Mode
IRANGE	QUANT	3.00000E-001	Max Current (mA)
EQDELAY	QUANT	5.00000E+000	Equil. Time (s)
SAMPLINGMODE	SELECTOR	1	Sampling Mode
AREA	QUANT	1.00000E+000	Sample Area (cm^2)
IRCOMP	SELECTOR	0	IRComp
PFCOR	QUANT	5.00000E+001	PF Corr. (ohm)
SEQUENCER	TOGGLE	TRUE	Run as Sequence
PSTATMODEL	IQUANT	64	Pstat Model
PSTATSECTION	LABEL	IFC1010-21051	Pstat Section
PSTATSERIALNO	LABEL	21051	Pstat Serial Number
CTRLMODE	IQUANT	1	Control Mode
ELECTROMETER	IQUANT	0	RE=0 or CS=1
IESTAB	IQUANT	0	I/E Stability
CASPEED	IQUANT	4	Control Amp Speed
CONVENTION	IQUANT	1	Current Convention
ICHRANGE	IQUANT	2	Ich Range
ICHRANGEMODE	TOGGLE	T	Ich Auto Range
ICHOFFSETENABLE	TOGGLE	F	Ich Offset Enable
ICHOFFSET	QUANT	0	Ich Offset (V)
ICHFILTER	IQUANT	3	Ich Filter
VCHRANGE	IQUANT	3	Vch Range
VCHRANGEMODE	TOGGLE	T	Vch Auto Range
VCHOFFSETENABLE	TOGGLE	F	Vch Offset Enable
VCHOFFSET	QUANT	0	Vch Offset (V)
VCHFILTER	IQUANT	3	Vch Filter
IERANGELOWERLIMIT	IQUANT	4	I/E Range Lower Limit
IERANGEMODE	TOGGLE	F	I/E AutoRange
IERANGE	IQUANT	9	I/E Range
ACHSELECT	IQUANT	0	Ach Select
ACHRANGE	IQUANT	2	Ach Range
ACHOFFSETENABLE	TOGGLE	F	Ach Offset Enable
ACHOFFSET	QUANT	0	Ach Offset (V)
ACHFILTER	IQUANT	1	Ach Filter
SENSECABLEID	IQUANT	14	Sense Cable ID
PWRCABLEID	IQUANT	14	Power Cable ID
DCCALDATE	LABEL	1/24/2022	DC Calibration Date
ACCALDATE	LABEL	4/2/2018	AC Calibration Date
FRAMEWORKVERSION	QUANT	7.06	Framework Version
INSTRUMENTVERSION	LABEL	4.30	Instrument Version
CURVE	TABLE	98
	Pt	T	Vf	Im	Vu	Sig	Ach	IERange	Over	Temp
	#	s	V vs. Ref.	A	V	V	V	#	bits	deg C
	0	-0.4	2.99556E-001	8.60282E-006	0.00000E+000	3.00072E-001	0.00000E+000	9	...........	1426.13
	1	-0.3	3.00317E-001	8.52995E-006	0.00000E+000	3.00072E-001	0.00000E+000	9	...........	1426.13
	2	-0.2	3.00301E-001	8.44990E-006	0.00000E+000	3.00072E-001	0.00000E+000	9	...........	1426.13
	3	-0.1	3.00306E-001	8.31676E-006	0.00000E+000	3.00072E-001	0.00000E+000	9	...........	1426.13
	4	0	3.00307E-001	8.29951E-006	0.00000E+000	3.00072E-001	0.00000E+000	9	...........	1426.13
	5	0.1	4.00354E-001	5.30844E-004	0.00000E+000	4.00072E-001	0.00000E+000	9	...........	1426.13
	6	0.2	4.00356E-001	4.35235E-004	0.00000E+000	4.00072E-001	0.00000E+000	9	...........	1426.13
	7	0.3	4.00351E-001	3.72823E-004	0.00000E+000	4.00072E-001	0.00000E+000	9	...........	1426.13
	8	0.4	4.00352E-001	3.29194E-004	0.00000E+000	4.00072E-001	0.00000E+000	9	...........	1426.13
	9	0.5	4.00359E-001	2.97080E-004	0.00000E+000	4.00072E-001	0.00000E+000	9	...........	1426.13
	10	0.6	4.00353E-001	2.72398E-004	0.00000E+000	4.00072E-001	0.00000E+000	9	...........	1426.13
	11	0.7	4.00354E-001	2.52706E-004	0.00000E+000	4.00072E-001	0.00000E+000	9	...........	1426.13
	12	0.8	4.00361E-001	2.36551E-004	0.00000E+000	4.00072E-001	0.00000E+000	9	...........	1426.13
	13	0.9	4.00354E-001	2.22938E-004	0.00000E+000	4.00072E-001	0.00000E+000	9	...........	1426.13
	14	1	4.00363E-001	2.11362E-004	0.00000E+000	4.00072E-001	0.00000E+000	9	...........	1426.13
	15	1.1	4.00356E-001	2.01358E-004	0.00000E+000	4.00072E-001	0.00000E+000	9	...........	1426.13
	16	1.2	4.00364E-001	1.92558E-004	0.00000E+000	4.00072E-001	0.00000E+000	9	...........	1426.13
	17	1.3	4.00355E-001	1.84726E-004	0.00000E+000	4.00072E-001	0.00000E+000	9	...........	1426.13
	18	1.4	4.00351E-001	1.77774E-004	0.00000E+000	4.00072E-001	0.00000E+000	9	...........	1425.78
	19	1.5	4.00342E-001	1.71480E-004	0.00000E+000	4.00072E-001	0.00000E+000	9	...........	1425.78
	20	1.6	4.00350E-001	1.65785E-004	0.00000E+000	4.00072E-001	0.00000E+000	9	...........	1425.78
	21	1.7	4.00357E-001	1.60585E-004	0.00000E+000	4.00072E-001	0.00000E+000	9	...........	1425.78
	22	1.8	4.00359E-001	1.55830E-004	0.00000E+000	4.00072E-001	0.00000E+000	9	...........	1425.78
	23	1.9	4.00355E-001	1.51378E-004	0.00000E+000	4.00072E-001	0.00000E+000	9	...........	1425.78
	24	2	4.00344E-001	1.47342E-004	0.00000E+000	4.00072E-001	0.00000E+000	9	...........	1425.78
	25	2.1	4.00356E-001	1.43558E-004	0.00000E+000	4.00072E-001	0.00000E+000	9	...........	1425.78
	26	2.2	4.00353E-001	1.39959E-004	0.00000E+000	4.00072E-001	0.00000E+000	9	...........	1425.78
	27	2.3	4.00349E-001	1.36687E-004	0.00000E+000	4.00072E-001	0.00000E+000	9	...........	1425.78
	28	2.4	4.00360E-001	1.33611E-004	0.00000E+000	4.00072E-001	0.00000E+000	9	...........	1425.95
	29	2.5	4.00364E-001	1.30622E-004	0.00000E+000	4.00072E-001	0.00000E+000	9	...........	1425.95
	30	2.6	4.00357E-001	1.27892E-004	0.00000E+000	4.00072E-001	0.00000E+000	9	...........	1425.95
	31	2.7	4.00355E-001	1.25250E-004	0.00000E+000	4.00072E-001	0.00000E+000	9	...........	1425.95
	32	2.8	4.00353E-001	1.22772E-004	0.00000E+000	4.00072E-001	0.00000E+000	9	...........	1425.95
	33	2.9	4.00354E-001	1.20423E-004	0.00000E+000	4.00072E-001	0.00000E+000	9	...........	1425.95
	34	3	4.00367E-001	1.18152E-004	0.00000E+000	4.00072E-001	0.00000E+000	9	...........	1425.95
	35	3.1	4.00355E-001	1.16012E-004	0.00000E+000	4.00072E-001	0.00000E+000	9	...........	1425.95
	36	3.2	4.00352E-001	1.13974E-004	0.00000E+000	4.00072E-001	0.00000E+000	9	...........	1425.95
	37	3.3	4.00357E-001	1.11997E-004	0.00000E+000	4.00072E-001	0.00000E+000	9	...........	1425.95
	38	3.4	4.00354E-001	1.10141E-004	0.00000E+000	4.00072E-001	0.00000E+000	9	...........	1426.13
	39	3.5	4.00356E-001	1.08329E-004	0.00000E+000	4.00072E-001	0.00000E+000	9	...........	1426.13
	40	3.6	4.00350E-001	1.06615E-004	0.00000E+000	4.00072E-001	0.00000E+000	9	...........	1426.13
	41	3.7	4.00350E-001	1.04891E-004	0.00000E+000	4.00072E-001	0.00000E+000	9	...........	1426.13
	42	3.8	4.00353E-001	1.03339E-004	0.00000E+000	4.00072E-001	0.00000E+000	9	...........	1426.13
	43	3.9	4.00355E-001	1.01737E-004	0.00000E+000	4.00072E-001	0.00000E+000	9	...........	1426.13
	44	4	4.00365E-001	1.00278E-004	0.00000E+000	4.00072E-001	0.00000E+000	9	...........	1426.13
	45	4.1	4.00350E-001	9.88227E-005	0.00000E+000	4.00072E-001	0.00000E+000	9	...........	1426.13
	46	4.2	4.00361E-001	9.74584E-005	0.00000E+000	4.00072E-001	0.00000E+000	9	...........	1426.13
	47	4.3	4.00365E-001	9.60925E-005	0.00000E+000	4.00072E-001	0.00000E+000	9	...........	1426.13
	48	4.4	4.00351E-001	9.47533E-005	0.00000E+000	4.00072E-001	0.00000E+000	9	...........	1426.04
	49	4.5	4.00347E-001	9.34870E-005	0.00000E+000	4.00072E-001	0.00000E+000	9	...........	1426.04
	50	4.6	4.00343E-001	9.22840E-005	0.00000E+000	4.00072E-001	0.00000E+000	9	...........	1426.04
	51	4.7	4.00341E-001	9.10645E-005	0.00000E+000	4.00072E-001	0.00000E+000	9	...........	1426.04
	52	4.8	4.00361E-001	8.98415E-005	0.00000E+000	4.00072E-001	0.00000E+000	9	...........	1426.04
	53	4.9	4.00355E-001	8.87639E-005	0.00000E+000	4.00072E-001	0.00000E+000	9	...........	1426.04
	54	5	4.00367E-001	8.76285E-005	0.00000E+000	4.00072E-001	0.00000E+000	9	...........	1426.04
	55	5.1	4.00354E-001	8.65882E-005	0.00000E+000	4.00072E-001	0.00000E+000	9	...........	1426.04
	56	5.2	4.00346E-001	8.55586E-005	0.00000E+000	4.00072E-001	0.00000E+000	9	...........	1426.04
	57	5.3	4.00339E-001	8.45833E-005	0.00000E+000	4.00072E-001	0.00000E+000	9	...........	1426.04
	58	5.4	4.00336E-001	8.35380E-005	0.00000E+000	4.00072E-001	0.00000E+000	9	...........	1426.04
	59	5.5	4.00355E-001	8.26136E-005	0.00000E+000	4.00072E-001	0.00000E+000	9	...........	1426.04
	60	5.6	4.00367E-001	8.16686E-005	0.00000E+000	4.00072E-001	0.00000E+000	9	...........	1426.04
	61	5.7	4.00371E-001	8.07492E-005	0.00000E+000	4.00072E-001	0.00000E+000	9	...........	1426.04
	62	5.8	4.00358E-001	7.98485E-005	0.00000E+000	4.00072E-001	0.00000E+000	9	...........	1426.04
	63	5.9	4.00364E-001	7.89894E-005	0.00000E+000	4.00072E-001	0.00000E+000	9	...........	1426.04
	64	6	4.00361E-001	7.81148E-005	0.00000E+000	4.00072E-001	0.00000E+000	9	...........	1426.04
	65	6.1	4.00355E-001	7.72639E-005	0.00000E+000	4.00072E-001	0.00000E+000	9	...........	1426.04
	66	7.1	4.00349E-001	6.98635E-005	0.00000E+000	4.00072E-001	0.00000E+000	9	...........	1426.04
	67	8.1	4.00344E-001	6.37783E-005	0.00000E+000	4.00072E-001	0.00000E+000	9	...........	1426.13
	68	9.1	4.00350E-001	5.86655E-005	0.00000E+000	4.00072E-001	0.00000E+000	9	...........	1426.13
	69	10.1	4.00357E-001	5.45167E-005	0.00000E+000	4.00072E-001	0.00000E+000	9	...........	1426.13
	70	11.1	4.00354E-001	5.09083E-005	0.00000E+000	4.00072E-001	0.00000E+000	9	...........	1426.13
	71	12.1	4.00347E-001	4.80050E-005	0.00000E+000	4.00072E-001	0.00000E+000	9	...........	1426.13
	72	13.1	4.00356E-001	4.55005E-005	0.00000E+000	4.00072E-001	0.00000E+000	9	...........	1426.13
	73	14.1	4.00355E-001	4.34040E-005	0.00000E+000	4.00072E-001	0.00000E+000	9	...........	1426.13
	74	15.1	4.00355E-001	4.15757E-005	0.00000E+000	4.00072E-001	0.00000E+000	9	...........	1426.13
	75	16.1	4.00365E-001	4.00093E-005	0.00000E+000	4.00072E-001	0.00000E+000	9	...........	1426.13
	76	26.1	4.00362E-001	3.06932E-005	0.00000E+000	4.00072E-001	0.00000E+000	9	...........	1426.13
	77	36.1	4.00362E-001	2.62337E-005	0.00000E+000	4.00072E-001	0.00000E+000	9	...........	1426.13
	78	46.1	4.00356E-001	2.39069E-005	0.00000E+000	4.00072E-001	0.00000E+000	9	...........	1426.13
	79	56.1	4.00362E-001	2.20872E-005	0.00000E+000	4.00072E-001	0.00000E+000	9	...........	1426.13
	80	66.1	4.00350E-001	2.10678E-005	0.00000E+000	4.00072E-001	0.00000E+000	9	...........	1426.13
	81	76.1	4.00361E-001	2.05121E-005	0.00000E+000	4.00072E-001	0.00000E+000	9	...........	1426.13
	82	86.1	4.00367E-001	1.97341E-005	0.00000E+000	4.00072E-001	0.00000E+000	9	...........	1426.13
	83	96.1	4.00357E-001	1.94737E-005	0.00000E+000	4.00072E-001	0.00000E+000	9	...........	1426.13
	84	106.1	4.00362E-001	1.93104E-005	0.00000E+000	4.00072E-001	0.00000E+000	9	...........	1426.13
	85	116.1	4.00355E-001	1.87924E-005	0.00000E+000	4.00072E-001	0.00000E+000	9	...........	1426.13
	86	216.1	4.00370E-001	1.78324E-005	0.00000E+000	4.00072E-001	0.00000E+000	9	...........	1426.13
	87	300	4.00361E-001	1.69182E-005	0.00000E+000	4.00072E-001	0.00000E+000	9	...........	1426.13
	88	300.1	3.00327E-001	-4.76223E-004	0.00000E+000	3.00072E-001	0.00000E+000	9	...........	1426.13
	89	300.2	3.00322E-001	-4.07933E-004	0.00000E+000	3.00072E-001	0.00000E+000	9	...........	1426.13
	90	300.3	3.00331E-001	-3.53477E-004	0.00000E+000	3.00072E-001	0.00000E+000	9	...........	1426.13
	91	300.4	3.00319E-001	-3.08479E-004	0.00000E+000	3.00072E-001	0.00000E+000	9	...........	1426.13
	92	300.5	3.00308E-001	-2.70857E-004	0.00000E+000	3.00072E-001	0.00000E+000	9	...........	1426.13
	93	300.6	3.00310E-001	-2.39505E-004	0.00000E+000	3.00072E-001	0.00000E+000	9	...........	1426.13
	94	300.7	3.00306E-001	-2.13522E-004	0.00000E+000	3.00072E-001	0.00000E+000	9	...........	1426.13
	95	300.8	3.00318E-001	-1.91885E-004	0.00000E+000	3.00072E-001	0.00000E+000	9	...........	1426.13
	96	300.9	3.00301E-001	-1.73735E-004	0.00000E+000	3.00072E-001	0.00000E+000	9	...........	1426.13
	97	301	3.00312E-001	-1.58443E-004	0.00000E+000	3.00072E-001	0.00000E+000	9	...........	1426.13
