EXPLAIN
TAG	CHRONOA
TITLE	LABEL	Chronoamperometry Scan	Test Identifier
DATE	LABEL	10/2/2022	Date
TIME	LABEL	16:13:20	Time
NOTES	NOTES	1	Notes...
	
PSTAT	PSTAT	IFC1010-21051	Potentiostat
VPRESTEP	POTEN	3.00000E-001	F	Pre-step Voltage (V)
TPRESTEP	QUANT	5.00000E-001	Pre-step Delay Time (s)
VSTEP1	POTEN	4.00000E-001	F	Step 1 Voltage (V)
TSTEP1	QUANT	3.00000E+002	Step 1 Time (s)
VSTEP2	POTEN	3.00000E-001	F	Step 2 Voltage (V)
TSTEP2	QUANT	1.00000E+000	Step 2 Time (s)
SAMPLETIME	QUANT	1.00000E-001	Sample Period (s)
DECIMATE	TOGGLE	T	Decimate
ILIMIT	QUANT	1.00000E+000	Limit I (mA/cm^2)
IMODE	SELECTOR	1	I/E Range Mode
IRANGE	QUANT	3.00000E-001	Max Current (mA)
EQDELAY	QUANT	5.00000E+000	Equil. Time (s)
SAMPLINGMODE	SELECTOR	1	Sampling Mode
AREA	QUANT	1.00000E+000	Sample Area (cm^2)
IRCOMP	SELECTOR	0	IRComp
PFCOR	QUANT	5.00000E+001	PF Corr. (ohm)
SEQUENCER	TOGGLE	TRUE	Run as Sequence
PSTATMODEL	IQUANT	64	Pstat Model
PSTATSECTION	LABEL	IFC1010-21051	Pstat Section
PSTATSERIALNO	LABEL	21051	Pstat Serial Number
CTRLMODE	IQUANT	1	Control Mode
ELECTROMETER	IQUANT	0	RE=0 or CS=1
IESTAB	IQUANT	0	I/E Stability
CASPEED	IQUANT	4	Control Amp Speed
CONVENTION	IQUANT	1	Current Convention
ICHRANGE	IQUANT	2	Ich Range
ICHRANGEMODE	TOGGLE	T	Ich Auto Range
ICHOFFSETENABLE	TOGGLE	F	Ich Offset Enable
ICHOFFSET	QUANT	0	Ich Offset (V)
ICHFILTER	IQUANT	3	Ich Filter
VCHRANGE	IQUANT	3	Vch Range
VCHRANGEMODE	TOGGLE	T	Vch Auto Range
VCHOFFSETENABLE	TOGGLE	F	Vch Offset Enable
VCHOFFSET	QUANT	0	Vch Offset (V)
VCHFILTER	IQUANT	3	Vch Filter
IERANGELOWERLIMIT	IQUANT	4	I/E Range Lower Limit
IERANGEMODE	TOGGLE	F	I/E AutoRange
IERANGE	IQUANT	9	I/E Range
ACHSELECT	IQUANT	0	Ach Select
ACHRANGE	IQUANT	2	Ach Range
ACHOFFSETENABLE	TOGGLE	F	Ach Offset Enable
ACHOFFSET	QUANT	0	Ach Offset (V)
ACHFILTER	IQUANT	1	Ach Filter
SENSECABLEID	IQUANT	14	Sense Cable ID
PWRCABLEID	IQUANT	14	Power Cable ID
DCCALDATE	LABEL	1/24/2022	DC Calibration Date
ACCALDATE	LABEL	4/2/2018	AC Calibration Date
FRAMEWORKVERSION	QUANT	7.06	Framework Version
INSTRUMENTVERSION	LABEL	4.30	Instrument Version
CURVE	TABLE	98
	Pt	T	Vf	Im	Vu	Sig	Ach	IERange	Over	Temp
	#	s	V vs. Ref.	A	V	V	V	#	bits	deg C
	0	-0.4	2.99593E-001	9.55741E-006	0.00000E+000	3.00072E-001	0.00000E+000	9	...........	1426.22
	1	-0.3	3.00301E-001	9.46592E-006	0.00000E+000	3.00072E-001	0.00000E+000	9	...........	1426.22
	2	-0.2	3.00303E-001	9.39915E-006	0.00000E+000	3.00072E-001	0.00000E+000	9	...........	1426.22
	3	-0.1	3.00304E-001	9.26704E-006	0.00000E+000	3.00072E-001	0.00000E+000	9	...........	1426.22
	4	0	3.00305E-001	9.22547E-006	0.00000E+000	3.00072E-001	0.00000E+000	9	...........	1426.22
	5	0.1	4.00354E-001	5.27312E-004	0.00000E+000	4.00072E-001	0.00000E+000	9	...........	1426.22
	6	0.2	4.00356E-001	4.32441E-004	0.00000E+000	4.00072E-001	0.00000E+000	9	...........	1426.22
	7	0.3	4.00355E-001	3.72401E-004	0.00000E+000	4.00072E-001	0.00000E+000	9	...........	1426.22
	8	0.4	4.00349E-001	3.30548E-004	0.00000E+000	4.00072E-001	0.00000E+000	9	...........	1426.22
	9	0.5	4.00341E-001	2.99372E-004	0.00000E+000	4.00072E-001	0.00000E+000	9	...........	1426.22
	10	0.6	4.00343E-001	2.75232E-004	0.00000E+000	4.00072E-001	0.00000E+000	9	...........	1426.22
	11	0.7	4.00346E-001	2.55985E-004	0.00000E+000	4.00072E-001	0.00000E+000	9	...........	1426.22
	12	0.8	4.00350E-001	2.40270E-004	0.00000E+000	4.00072E-001	0.00000E+000	9	...........	1426.22
	13	0.9	4.00349E-001	2.27044E-004	0.00000E+000	4.00072E-001	0.00000E+000	9	...........	1426.22
	14	1	4.00345E-001	2.15805E-004	0.00000E+000	4.00072E-001	0.00000E+000	9	...........	1426.22
	15	1.1	4.00351E-001	2.06054E-004	0.00000E+000	4.00072E-001	0.00000E+000	9	...........	1426.22
	16	1.2	4.00356E-001	1.97435E-004	0.00000E+000	4.00072E-001	0.00000E+000	9	...........	1426.22
	17	1.3	4.00348E-001	1.89786E-004	0.00000E+000	4.00072E-001	0.00000E+000	9	...........	1426.13
	18	1.4	4.00350E-001	1.82951E-004	0.00000E+000	4.00072E-001	0.00000E+000	9	...........	1426.13
	19	1.5	4.00354E-001	1.76707E-004	0.00000E+000	4.00072E-001	0.00000E+000	9	...........	1426.13
	20	1.6	4.00354E-001	1.71053E-004	0.00000E+000	4.00072E-001	0.00000E+000	9	...........	1426.13
	21	1.7	4.00348E-001	1.65891E-004	0.00000E+000	4.00072E-001	0.00000E+000	9	...........	1426.13
	22	1.8	4.00354E-001	1.61160E-004	0.00000E+000	4.00072E-001	0.00000E+000	9	...........	1426.13
	23	1.9	4.00348E-001	1.56733E-004	0.00000E+000	4.00072E-001	0.00000E+000	9	...........	1426.13
	24	2	4.00361E-001	1.52681E-004	0.00000E+000	4.00072E-001	0.00000E+000	9	...........	1426.13
	25	2.1	4.00352E-001	1.48836E-004	0.00000E+000	4.00072E-001	0.00000E+000	9	...........	1426.13
	26	2.2	4.00350E-001	1.45347E-004	0.00000E+000	4.00072E-001	0.00000E+000	9	...........	1426.13
	27	2.3	4.00353E-001	1.42022E-004	0.00000E+000	4.00072E-001	0.00000E+000	9	...........	1426.13
	28	2.4	4.00354E-001	1.38880E-004	0.00000E+000	4.00072E-001	0.00000E+000	9	...........	1426.13
	29	2.5	4.00348E-001	1.35923E-004	0.00000E+000	4.00072E-001	0.00000E+000	9	...........	1426.13
	30	2.6	4.00350E-001	1.33122E-004	0.00000E+000	4.00072E-001	0.00000E+000	9	...........	1426.13
	31	2.7	4.00350E-001	1.30520E-004	0.00000E+000	4.00072E-001	0.00000E+000	9	...........	1426.13
	32	2.8	4.00352E-001	1.28022E-004	0.00000E+000	4.00072E-001	0.00000E+000	9	...........	1426.13
	33	2.9	4.00347E-001	1.25636E-004	0.00000E+000	4.00072E-001	0.00000E+000	9	...........	1426.13
	34	3	4.00365E-001	1.23337E-004	0.00000E+000	4.00072E-001	0.00000E+000	9	...........	1426.13
	35	3.1	4.00348E-001	1.21199E-004	0.00000E+000	4.00072E-001	0.00000E+000	9	...........	1426.13
	36	3.2	4.00358E-001	1.19131E-004	0.00000E+000	4.00072E-001	0.00000E+000	9	...........	1426.13
	37	3.3	4.00359E-001	1.17123E-004	0.00000E+000	4.00072E-001	0.00000E+000	9	...........	1426.13
	38	3.4	4.00342E-001	1.15213E-004	0.00000E+000	4.00072E-001	0.00000E+000	9	...........	1426.13
	39	3.5	4.00337E-001	1.13361E-004	0.00000E+000	4.00072E-001	0.00000E+000	9	...........	1426.13
	40	3.6	4.00343E-001	1.11578E-004	0.00000E+000	4.00072E-001	0.00000E+000	9	...........	1426.13
	41	3.7	4.00355E-001	1.09910E-004	0.00000E+000	4.00072E-001	0.00000E+000	9	...........	1426.13
	42	3.8	4.00347E-001	1.08272E-004	0.00000E+000	4.00072E-001	0.00000E+000	9	...........	1426.13
	43	3.9	4.00360E-001	1.06676E-004	0.00000E+000	4.00072E-001	0.00000E+000	9	...........	1426.13
	44	4	4.00350E-001	1.05156E-004	0.00000E+000	4.00072E-001	0.00000E+000	9	...........	1426.13
	45	4.1	4.00357E-001	1.03707E-004	0.00000E+000	4.00072E-001	0.00000E+000	9	...........	1426.13
	46	4.2	4.00348E-001	1.02237E-004	0.00000E+000	4.00072E-001	0.00000E+000	9	...........	1426.13
	47	4.3	4.00346E-001	1.00924E-004	0.00000E+000	4.00072E-001	0.00000E+000	9	...........	1426.13
	48	4.4	4.00353E-001	9.95864E-005	0.00000E+000	4.00072E-001	0.00000E+000	9	...........	1426.13
	49	4.5	4.00346E-001	9.83132E-005	0.00000E+000	4.00072E-001	0.00000E+000	9	...........	1426.13
	50	4.6	4.00362E-001	9.70191E-005	0.00000E+000	4.00072E-001	0.00000E+000	9	...........	1426.13
	51	4.7	4.00348E-001	9.58122E-005	0.00000E+000	4.00072E-001	0.00000E+000	9	...........	1426.13
	52	4.8	4.00363E-001	9.46272E-005	0.00000E+000	4.00072E-001	0.00000E+000	9	...........	1426.13
	53	4.9	4.00355E-001	9.34560E-005	0.00000E+000	4.00072E-001	0.00000E+000	9	...........	1426.13
	54	5	4.00363E-001	9.23307E-005	0.00000E+000	4.00072E-001	0.00000E+000	9	...........	1426.13
	55	5.1	4.00349E-001	9.12761E-005	0.00000E+000	4.00072E-001	0.00000E+000	9	...........	1426.13
	56	5.2	4.00347E-001	9.02112E-005	0.00000E+000	4.00072E-001	0.00000E+000	9	...........	1426.13
	57	5.3	4.00353E-001	8.92086E-005	0.00000E+000	4.00072E-001	0.00000E+000	9	...........	1426.13
	58	5.4	4.00335E-001	8.81687E-005	0.00000E+000	4.00072E-001	0.00000E+000	9	...........	1426.13
	59	5.5	4.00356E-001	8.71977E-005	0.00000E+000	4.00072E-001	0.00000E+000	9	...........	1426.13
	60	5.6	4.00339E-001	8.62883E-005	0.00000E+000	4.00072E-001	0.00000E+000	9	...........	1426.13
	61	5.7	4.00347E-001	8.53488E-005	0.00000E+000	4.00072E-001	0.00000E+000	9	...........	1426.13
	62	5.8	4.00358E-001	8.43973E-005	0.00000E+000	4.00072E-001	0.00000E+000	9	...........	1426.13
	63	5.9	4.00354E-001	8.35839E-005	0.00000E+000	4.00072E-001	0.00000E+000	9	...........	1426.13
	64	6	4.00354E-001	8.27250E-005	0.00000E+000	4.00072E-001	0.00000E+000	9	...........	1426.13
	65	6.1	4.00364E-001	8.18871E-005	0.00000E+000	4.00072E-001	0.00000E+000	9	...........	1426.13
	66	7.1	4.00351E-001	7.44798E-005	0.00000E+000	4.00072E-001	0.00000E+000	9	...........	1426.13
	67	8.1	4.00338E-001	6.85516E-005	0.00000E+000	4.00072E-001	0.00000E+000	9	...........	1426.13
	68	9.1	4.00349E-001	6.35308E-005	0.00000E+000	4.00072E-001	0.00000E+000	9	...........	1426.13
	69	10.1	4.00358E-001	5.93837E-005	0.00000E+000	4.00072E-001	0.00000E+000	9	...........	1426.13
	70	11.1	4.00347E-001	5.58139E-005	0.00000E+000	4.00072E-001	0.00000E+000	9	...........	1426.13
	71	12.1	4.00342E-001	5.26340E-005	0.00000E+000	4.00072E-001	0.00000E+000	9	...........	1426.13
	72	13.1	4.00351E-001	4.98581E-005	0.00000E+000	4.00072E-001	0.00000E+000	9	...........	1426.13
	73	14.1	4.00352E-001	4.73300E-005	0.00000E+000	4.00072E-001	0.00000E+000	9	...........	1426.13
	74	15.1	4.00351E-001	4.51732E-005	0.00000E+000	4.00072E-001	0.00000E+000	9	...........	1426.22
	75	16.1	4.00350E-001	4.31856E-005	0.00000E+000	4.00072E-001	0.00000E+000	9	...........	1426.13
	76	26.1	4.00347E-001	3.24317E-005	0.00000E+000	4.00072E-001	0.00000E+000	9	...........	1426.22
	77	36.1	4.00349E-001	2.76267E-005	0.00000E+000	4.00072E-001	0.00000E+000	9	...........	1426.22
	78	46.1	4.00347E-001	2.46377E-005	0.00000E+000	4.00072E-001	0.00000E+000	9	...........	1426.22
	79	56.1	4.00346E-001	2.30108E-005	0.00000E+000	4.00072E-001	0.00000E+000	9	...........	1426.22
	80	66.1	4.00355E-001	2.18869E-005	0.00000E+000	4.00072E-001	0.00000E+000	9	...........	1426.22
	81	76.1	4.00352E-001	2.10990E-005	0.00000E+000	4.00072E-001	0.00000E+000	9	...........	1426.13
	82	86.1	4.00352E-001	2.04518E-005	0.00000E+000	4.00072E-001	0.00000E+000	9	...........	1426.13
	83	96.1	4.00356E-001	1.98276E-005	0.00000E+000	4.00072E-001	0.00000E+000	9	...........	1426.13
	84	106.1	4.00365E-001	1.94113E-005	0.00000E+000	4.00072E-001	0.00000E+000	9	...........	1426.22
	85	116.1	4.00355E-001	1.92872E-005	0.00000E+000	4.00072E-001	0.00000E+000	9	...........	1426.22
	86	216.1	4.00356E-001	1.81194E-005	0.00000E+000	4.00072E-001	0.00000E+000	9	...........	1426.22
	87	300	4.00351E-001	1.70704E-005	0.00000E+000	4.00072E-001	0.00000E+000	9	...........	1426.22
	88	300.1	3.00311E-001	-4.54001E-004	0.00000E+000	3.00072E-001	0.00000E+000	9	...........	1426.22
	89	300.2	3.00315E-001	-3.74920E-004	0.00000E+000	3.00072E-001	0.00000E+000	9	...........	1426.22
	90	300.3	3.00303E-001	-3.15656E-004	0.00000E+000	3.00072E-001	0.00000E+000	9	...........	1426.22
	91	300.4	3.00313E-001	-2.69407E-004	0.00000E+000	3.00072E-001	0.00000E+000	9	...........	1426.22
	92	300.5	3.00304E-001	-2.32716E-004	0.00000E+000	3.00072E-001	0.00000E+000	9	...........	1426.22
	93	300.6	3.00312E-001	-2.03495E-004	0.00000E+000	3.00072E-001	0.00000E+000	9	...........	1426.22
	94	300.7	3.00295E-001	-1.80193E-004	0.00000E+000	3.00072E-001	0.00000E+000	9	...........	1426.22
	95	300.8	3.00306E-001	-1.61297E-004	0.00000E+000	3.00072E-001	0.00000E+000	9	...........	1426.22
	96	300.9	3.00298E-001	-1.45928E-004	0.00000E+000	3.00072E-001	0.00000E+000	9	...........	1426.22
	97	301	3.00315E-001	-1.33247E-004	0.00000E+000	3.00072E-001	0.00000E+000	9	...........	1426.22
