EXPLAIN
TAG	CHRONOA
TITLE	LABEL	Chronoamperometry Scan	Test Identifier
DATE	LABEL	10/2/2022	Date
TIME	LABEL	17:43:25	Time
NOTES	NOTES	1	Notes...
	
PSTAT	PSTAT	IFC1010-21051	Potentiostat
VPRESTEP	POTEN	-3.00000E-001	F	Pre-step Voltage (V)
TPRESTEP	QUANT	5.00000E-001	Pre-step Delay Time (s)
VSTEP1	POTEN	-4.00000E-001	F	Step 1 Voltage (V)
TSTEP1	QUANT	3.00000E+002	Step 1 Time (s)
VSTEP2	POTEN	-5.00000E-001	F	Step 2 Voltage (V)
TSTEP2	QUANT	1.00000E+000	Step 2 Time (s)
SAMPLETIME	QUANT	1.00000E-001	Sample Period (s)
DECIMATE	TOGGLE	T	Decimate
ILIMIT	QUANT	1.00000E+000	Limit I (mA/cm^2)
IMODE	SELECTOR	1	I/E Range Mode
IRANGE	QUANT	3.00000E-001	Max Current (mA)
EQDELAY	QUANT	5.00000E+000	Equil. Time (s)
SAMPLINGMODE	SELECTOR	1	Sampling Mode
AREA	QUANT	1.00000E+000	Sample Area (cm^2)
IRCOMP	SELECTOR	0	IRComp
PFCOR	QUANT	5.00000E+001	PF Corr. (ohm)
SEQUENCER	TOGGLE	TRUE	Run as Sequence
PSTATMODEL	IQUANT	64	Pstat Model
PSTATSECTION	LABEL	IFC1010-21051	Pstat Section
PSTATSERIALNO	LABEL	21051	Pstat Serial Number
CTRLMODE	IQUANT	1	Control Mode
ELECTROMETER	IQUANT	0	RE=0 or CS=1
IESTAB	IQUANT	0	I/E Stability
CASPEED	IQUANT	4	Control Amp Speed
CONVENTION	IQUANT	1	Current Convention
ICHRANGE	IQUANT	2	Ich Range
ICHRANGEMODE	TOGGLE	T	Ich Auto Range
ICHOFFSETENABLE	TOGGLE	F	Ich Offset Enable
ICHOFFSET	QUANT	0	Ich Offset (V)
ICHFILTER	IQUANT	3	Ich Filter
VCHRANGE	IQUANT	3	Vch Range
VCHRANGEMODE	TOGGLE	T	Vch Auto Range
VCHOFFSETENABLE	TOGGLE	F	Vch Offset Enable
VCHOFFSET	QUANT	0	Vch Offset (V)
VCHFILTER	IQUANT	3	Vch Filter
IERANGELOWERLIMIT	IQUANT	4	I/E Range Lower Limit
IERANGEMODE	TOGGLE	F	I/E AutoRange
IERANGE	IQUANT	9	I/E Range
ACHSELECT	IQUANT	0	Ach Select
ACHRANGE	IQUANT	2	Ach Range
ACHOFFSETENABLE	TOGGLE	F	Ach Offset Enable
ACHOFFSET	QUANT	0	Ach Offset (V)
ACHFILTER	IQUANT	1	Ach Filter
SENSECABLEID	IQUANT	14	Sense Cable ID
PWRCABLEID	IQUANT	14	Power Cable ID
DCCALDATE	LABEL	1/24/2022	DC Calibration Date
ACCALDATE	LABEL	4/2/2018	AC Calibration Date
FRAMEWORKVERSION	QUANT	7.06	Framework Version
INSTRUMENTVERSION	LABEL	4.30	Instrument Version
CURVE	TABLE	98
	Pt	T	Vf	Im	Vu	Sig	Ach	IERange	Over	Temp
	#	s	V vs. Ref.	A	V	V	V	#	bits	deg C
	0	-0.4	-3.01267E-001	-6.65014E-005	0.00000E+000	-3.00011E-001	0.00000E+000	9	...........	1426.22
	1	-0.3	-3.00676E-001	-6.63629E-005	0.00000E+000	-3.00011E-001	0.00000E+000	9	...........	1426.22
	2	-0.2	-3.00688E-001	-6.62479E-005	0.00000E+000	-3.00011E-001	0.00000E+000	9	...........	1426.22
	3	-0.1	-3.00686E-001	-6.61215E-005	0.00000E+000	-3.00011E-001	0.00000E+000	9	...........	1426.22
	4	0	-3.00681E-001	-6.59939E-005	0.00000E+000	-3.00011E-001	0.00000E+000	9	...........	1426.22
	5	0.1	-4.00711E-001	-3.85450E-004	0.00000E+000	-4.00011E-001	0.00000E+000	9	...........	1426.22
	6	0.2	-4.00737E-001	-2.96056E-004	0.00000E+000	-4.00011E-001	0.00000E+000	9	...........	1426.22
	7	0.3	-4.00739E-001	-2.62617E-004	0.00000E+000	-4.00011E-001	0.00000E+000	9	...........	1426.22
	8	0.4	-4.00730E-001	-2.45724E-004	0.00000E+000	-4.00011E-001	0.00000E+000	9	...........	1426.22
	9	0.5	-4.00731E-001	-2.35141E-004	0.00000E+000	-4.00011E-001	0.00000E+000	9	...........	1426.22
	10	0.6	-4.00729E-001	-2.27607E-004	0.00000E+000	-4.00011E-001	0.00000E+000	9	...........	1426.22
	11	0.7	-4.00723E-001	-2.21666E-004	0.00000E+000	-4.00011E-001	0.00000E+000	9	...........	1426.22
	12	0.8	-4.00725E-001	-2.16759E-004	0.00000E+000	-4.00011E-001	0.00000E+000	9	...........	1426.22
	13	0.9	-4.00733E-001	-2.12520E-004	0.00000E+000	-4.00011E-001	0.00000E+000	9	...........	1426.22
	14	1	-4.00730E-001	-2.08748E-004	0.00000E+000	-4.00011E-001	0.00000E+000	9	...........	1426.22
	15	1.1	-4.00723E-001	-2.05388E-004	0.00000E+000	-4.00011E-001	0.00000E+000	9	...........	1426.22
	16	1.2	-4.00727E-001	-2.02308E-004	0.00000E+000	-4.00011E-001	0.00000E+000	9	...........	1425.60
	17	1.3	-4.00730E-001	-1.99473E-004	0.00000E+000	-4.00011E-001	0.00000E+000	9	...........	1425.60
	18	1.4	-4.00728E-001	-1.96856E-004	0.00000E+000	-4.00011E-001	0.00000E+000	9	...........	1425.60
	19	1.5	-4.00730E-001	-1.94383E-004	0.00000E+000	-4.00011E-001	0.00000E+000	9	...........	1425.60
	20	1.6	-4.00729E-001	-1.92066E-004	0.00000E+000	-4.00011E-001	0.00000E+000	9	...........	1425.60
	21	1.7	-4.00727E-001	-1.89923E-004	0.00000E+000	-4.00011E-001	0.00000E+000	9	...........	1425.60
	22	1.8	-4.00715E-001	-1.87855E-004	0.00000E+000	-4.00011E-001	0.00000E+000	9	...........	1425.60
	23	1.9	-4.00712E-001	-1.85864E-004	0.00000E+000	-4.00011E-001	0.00000E+000	9	...........	1425.60
	24	2	-4.00728E-001	-1.84120E-004	0.00000E+000	-4.00011E-001	0.00000E+000	9	...........	1425.60
	25	2.1	-4.00726E-001	-1.82333E-004	0.00000E+000	-4.00011E-001	0.00000E+000	9	...........	1425.60
	26	2.2	-4.00737E-001	-1.80653E-004	0.00000E+000	-4.00011E-001	0.00000E+000	9	...........	1426.13
	27	2.3	-4.00732E-001	-1.79052E-004	0.00000E+000	-4.00011E-001	0.00000E+000	9	...........	1426.13
	28	2.4	-4.00728E-001	-1.77534E-004	0.00000E+000	-4.00011E-001	0.00000E+000	9	...........	1426.13
	29	2.5	-4.00730E-001	-1.76063E-004	0.00000E+000	-4.00011E-001	0.00000E+000	9	...........	1426.13
	30	2.6	-4.00737E-001	-1.74625E-004	0.00000E+000	-4.00011E-001	0.00000E+000	9	...........	1426.13
	31	2.7	-4.00742E-001	-1.73283E-004	0.00000E+000	-4.00011E-001	0.00000E+000	9	...........	1426.13
	32	2.8	-4.00739E-001	-1.71943E-004	0.00000E+000	-4.00011E-001	0.00000E+000	9	...........	1426.13
	33	2.9	-4.00737E-001	-1.70671E-004	0.00000E+000	-4.00011E-001	0.00000E+000	9	...........	1426.13
	34	3	-4.00738E-001	-1.69506E-004	0.00000E+000	-4.00011E-001	0.00000E+000	9	...........	1426.13
	35	3.1	-4.00743E-001	-1.68322E-004	0.00000E+000	-4.00011E-001	0.00000E+000	9	...........	1426.13
	36	3.2	-4.00745E-001	-1.67168E-004	0.00000E+000	-4.00011E-001	0.00000E+000	9	...........	1425.69
	37	3.3	-4.00736E-001	-1.66052E-004	0.00000E+000	-4.00011E-001	0.00000E+000	9	...........	1425.69
	38	3.4	-4.00733E-001	-1.64966E-004	0.00000E+000	-4.00011E-001	0.00000E+000	9	...........	1425.69
	39	3.5	-4.00734E-001	-1.63959E-004	0.00000E+000	-4.00011E-001	0.00000E+000	9	...........	1425.69
	40	3.6	-4.00725E-001	-1.62926E-004	0.00000E+000	-4.00011E-001	0.00000E+000	9	...........	1425.69
	41	3.7	-4.00731E-001	-1.61935E-004	0.00000E+000	-4.00011E-001	0.00000E+000	9	...........	1425.69
	42	3.8	-4.00723E-001	-1.60983E-004	0.00000E+000	-4.00011E-001	0.00000E+000	9	...........	1425.69
	43	3.9	-4.00727E-001	-1.60048E-004	0.00000E+000	-4.00011E-001	0.00000E+000	9	...........	1425.69
	44	4	-4.00733E-001	-1.59147E-004	0.00000E+000	-4.00011E-001	0.00000E+000	9	...........	1425.69
	45	4.1	-4.00730E-001	-1.58277E-004	0.00000E+000	-4.00011E-001	0.00000E+000	9	...........	1425.69
	46	4.2	-4.00731E-001	-1.57420E-004	0.00000E+000	-4.00011E-001	0.00000E+000	9	...........	1426.13
	47	4.3	-4.00731E-001	-1.56554E-004	0.00000E+000	-4.00011E-001	0.00000E+000	9	...........	1426.13
	48	4.4	-4.00734E-001	-1.55763E-004	0.00000E+000	-4.00011E-001	0.00000E+000	9	...........	1426.13
	49	4.5	-4.00740E-001	-1.54943E-004	0.00000E+000	-4.00011E-001	0.00000E+000	9	...........	1426.13
	50	4.6	-4.00717E-001	-1.54183E-004	0.00000E+000	-4.00011E-001	0.00000E+000	9	...........	1426.13
	51	4.7	-4.00717E-001	-1.53414E-004	0.00000E+000	-4.00011E-001	0.00000E+000	9	...........	1426.13
	52	4.8	-4.00723E-001	-1.52723E-004	0.00000E+000	-4.00011E-001	0.00000E+000	9	...........	1426.13
	53	4.9	-4.00707E-001	-1.51901E-004	0.00000E+000	-4.00011E-001	0.00000E+000	9	...........	1426.13
	54	5	-4.00724E-001	-1.51248E-004	0.00000E+000	-4.00011E-001	0.00000E+000	9	...........	1426.13
	55	5.1	-4.00720E-001	-1.50580E-004	0.00000E+000	-4.00011E-001	0.00000E+000	9	...........	1426.13
	56	5.2	-4.00724E-001	-1.49888E-004	0.00000E+000	-4.00011E-001	0.00000E+000	9	...........	1426.13
	57	5.3	-4.00726E-001	-1.49254E-004	0.00000E+000	-4.00011E-001	0.00000E+000	9	...........	1426.13
	58	5.4	-4.00724E-001	-1.48580E-004	0.00000E+000	-4.00011E-001	0.00000E+000	9	...........	1426.13
	59	5.5	-4.00728E-001	-1.47933E-004	0.00000E+000	-4.00011E-001	0.00000E+000	9	...........	1426.13
	60	5.6	-4.00724E-001	-1.47283E-004	0.00000E+000	-4.00011E-001	0.00000E+000	9	...........	1426.13
	61	5.7	-4.00723E-001	-1.46671E-004	0.00000E+000	-4.00011E-001	0.00000E+000	9	...........	1426.13
	62	5.8	-4.00737E-001	-1.46076E-004	0.00000E+000	-4.00011E-001	0.00000E+000	9	...........	1426.13
	63	5.9	-4.00734E-001	-1.45519E-004	0.00000E+000	-4.00011E-001	0.00000E+000	9	...........	1426.13
	64	6	-4.00730E-001	-1.44925E-004	0.00000E+000	-4.00011E-001	0.00000E+000	9	...........	1426.13
	65	6.1	-4.00729E-001	-1.44364E-004	0.00000E+000	-4.00011E-001	0.00000E+000	9	...........	1426.13
	66	7.1	-4.00720E-001	-1.39158E-004	0.00000E+000	-4.00011E-001	0.00000E+000	9	...........	1426.13
	67	8.1	-4.00726E-001	-1.34770E-004	0.00000E+000	-4.00011E-001	0.00000E+000	9	...........	1425.69
	68	9.1	-4.00731E-001	-1.30975E-004	0.00000E+000	-4.00011E-001	0.00000E+000	9	...........	1426.22
	69	10.1	-4.00725E-001	-1.27589E-004	0.00000E+000	-4.00011E-001	0.00000E+000	9	...........	1425.78
	70	11.1	-4.00721E-001	-1.24600E-004	0.00000E+000	-4.00011E-001	0.00000E+000	9	...........	1426.22
	71	12.1	-4.00725E-001	-1.21923E-004	0.00000E+000	-4.00011E-001	0.00000E+000	9	...........	1426.22
	72	13.1	-4.00734E-001	-1.19541E-004	0.00000E+000	-4.00011E-001	0.00000E+000	9	...........	1426.22
	73	14.1	-4.00730E-001	-1.17375E-004	0.00000E+000	-4.00011E-001	0.00000E+000	9	...........	1426.13
	74	15.1	-4.00732E-001	-1.15326E-004	0.00000E+000	-4.00011E-001	0.00000E+000	9	...........	1426.22
	75	16.1	-4.00714E-001	-1.13421E-004	0.00000E+000	-4.00011E-001	0.00000E+000	9	...........	1426.22
	76	26.1	-4.00729E-001	-1.00115E-004	0.00000E+000	-4.00011E-001	0.00000E+000	9	...........	1426.22
	77	36.1	-4.00731E-001	-9.21355E-005	0.00000E+000	-4.00011E-001	0.00000E+000	9	...........	1426.22
	78	46.1	-4.00727E-001	-8.68891E-005	0.00000E+000	-4.00011E-001	0.00000E+000	9	...........	1426.22
	79	56.1	-4.00725E-001	-8.26275E-005	0.00000E+000	-4.00011E-001	0.00000E+000	9	...........	1426.22
	80	66.1	-4.00723E-001	-7.95128E-005	0.00000E+000	-4.00011E-001	0.00000E+000	9	...........	1426.31
	81	76.1	-4.00711E-001	-7.69548E-005	0.00000E+000	-4.00011E-001	0.00000E+000	9	...........	1426.31
	82	86.1	-4.00730E-001	-7.49823E-005	0.00000E+000	-4.00011E-001	0.00000E+000	9	...........	1426.31
	83	96.1	-4.00720E-001	-7.31991E-005	0.00000E+000	-4.00011E-001	0.00000E+000	9	...........	1426.31
	84	106.1	-4.00738E-001	-7.16343E-005	0.00000E+000	-4.00011E-001	0.00000E+000	9	...........	1426.31
	85	116.1	-4.00728E-001	-7.00349E-005	0.00000E+000	-4.00011E-001	0.00000E+000	9	...........	1426.31
	86	216.1	-4.00724E-001	-6.33597E-005	0.00000E+000	-4.00011E-001	0.00000E+000	9	...........	1426.31
	87	300	-4.00735E-001	-6.09460E-005	0.00000E+000	-4.00011E-001	0.00000E+000	9	...........	1426.31
	88	300.1	-5.00740E-001	-3.78744E-004	0.00000E+000	-5.00010E-001	0.00000E+000	9	...........	1426.31
	89	300.2	-5.00736E-001	-2.75588E-004	0.00000E+000	-5.00010E-001	0.00000E+000	9	...........	1426.31
	90	300.3	-5.00735E-001	-2.35176E-004	0.00000E+000	-5.00010E-001	0.00000E+000	9	...........	1426.31
	91	300.4	-5.00738E-001	-2.14094E-004	0.00000E+000	-5.00010E-001	0.00000E+000	9	...........	1426.31
	92	300.5	-5.00729E-001	-2.01049E-004	0.00000E+000	-5.00010E-001	0.00000E+000	9	...........	1426.31
	93	300.6	-5.00737E-001	-1.91884E-004	0.00000E+000	-5.00010E-001	0.00000E+000	9	...........	1426.31
	94	300.7	-5.00736E-001	-1.84948E-004	0.00000E+000	-5.00010E-001	0.00000E+000	9	...........	1426.31
	95	300.8	-5.00738E-001	-1.79385E-004	0.00000E+000	-5.00010E-001	0.00000E+000	9	...........	1426.31
	96	300.9	-5.00737E-001	-1.74813E-004	0.00000E+000	-5.00010E-001	0.00000E+000	9	...........	1426.31
	97	301	-5.00741E-001	-1.70966E-004	0.00000E+000	-5.00010E-001	0.00000E+000	9	...........	1426.31
