EXPLAIN
TAG	CHRONOA
TITLE	LABEL	Chronoamperometry Scan	Test Identifier
DATE	LABEL	10/2/2022	Date
TIME	LABEL	18:32:57	Time
NOTES	NOTES	1	Notes...
	
PSTAT	PSTAT	IFC1010-21051	Potentiostat
VPRESTEP	POTEN	-7.00000E-001	F	Pre-step Voltage (V)
TPRESTEP	QUANT	5.00000E-001	Pre-step Delay Time (s)
VSTEP1	POTEN	-8.00000E-001	F	Step 1 Voltage (V)
TSTEP1	QUANT	3.00000E+002	Step 1 Time (s)
VSTEP2	POTEN	-7.00000E-001	F	Step 2 Voltage (V)
TSTEP2	QUANT	1.00000E+000	Step 2 Time (s)
SAMPLETIME	QUANT	1.00000E-001	Sample Period (s)
DECIMATE	TOGGLE	T	Decimate
ILIMIT	QUANT	1.00000E+000	Limit I (mA/cm^2)
IMODE	SELECTOR	1	I/E Range Mode
IRANGE	QUANT	3.00000E-001	Max Current (mA)
EQDELAY	QUANT	5.00000E+000	Equil. Time (s)
SAMPLINGMODE	SELECTOR	1	Sampling Mode
AREA	QUANT	1.00000E+000	Sample Area (cm^2)
IRCOMP	SELECTOR	0	IRComp
PFCOR	QUANT	5.00000E+001	PF Corr. (ohm)
SEQUENCER	TOGGLE	TRUE	Run as Sequence
PSTATMODEL	IQUANT	64	Pstat Model
PSTATSECTION	LABEL	IFC1010-21051	Pstat Section
PSTATSERIALNO	LABEL	21051	Pstat Serial Number
CTRLMODE	IQUANT	1	Control Mode
ELECTROMETER	IQUANT	0	RE=0 or CS=1
IESTAB	IQUANT	0	I/E Stability
CASPEED	IQUANT	4	Control Amp Speed
CONVENTION	IQUANT	1	Current Convention
ICHRANGE	IQUANT	2	Ich Range
ICHRANGEMODE	TOGGLE	T	Ich Auto Range
ICHOFFSETENABLE	TOGGLE	F	Ich Offset Enable
ICHOFFSET	QUANT	0	Ich Offset (V)
ICHFILTER	IQUANT	3	Ich Filter
VCHRANGE	IQUANT	3	Vch Range
VCHRANGEMODE	TOGGLE	T	Vch Auto Range
VCHOFFSETENABLE	TOGGLE	F	Vch Offset Enable
VCHOFFSET	QUANT	0	Vch Offset (V)
VCHFILTER	IQUANT	3	Vch Filter
IERANGELOWERLIMIT	IQUANT	4	I/E Range Lower Limit
IERANGEMODE	TOGGLE	F	I/E AutoRange
IERANGE	IQUANT	9	I/E Range
ACHSELECT	IQUANT	0	Ach Select
ACHRANGE	IQUANT	2	Ach Range
ACHOFFSETENABLE	TOGGLE	F	Ach Offset Enable
ACHOFFSET	QUANT	0	Ach Offset (V)
ACHFILTER	IQUANT	1	Ach Filter
SENSECABLEID	IQUANT	14	Sense Cable ID
PWRCABLEID	IQUANT	14	Power Cable ID
DCCALDATE	LABEL	1/24/2022	DC Calibration Date
ACCALDATE	LABEL	4/2/2018	AC Calibration Date
FRAMEWORKVERSION	QUANT	7.06	Framework Version
INSTRUMENTVERSION	LABEL	4.30	Instrument Version
CURVE	TABLE	98
	Pt	T	Vf	Im	Vu	Sig	Ach	IERange	Over	Temp
	#	s	V vs. Ref.	A	V	V	V	#	bits	deg C
	0	-0.4	-7.01735E-001	-1.27755E-004	0.00000E+000	-7.00083E-001	0.00000E+000	9	...........	1426.31
	1	-0.3	-7.01250E-001	-1.27292E-004	0.00000E+000	-7.00083E-001	0.00000E+000	9	...........	1426.31
	2	-0.2	-7.01246E-001	-1.26981E-004	0.00000E+000	-7.00083E-001	0.00000E+000	9	...........	1426.31
	3	-0.1	-7.01253E-001	-1.26540E-004	0.00000E+000	-7.00083E-001	0.00000E+000	9	...........	1426.31
	4	0	-7.01250E-001	-1.26206E-004	0.00000E+000	-7.00083E-001	0.00000E+000	9	...........	1426.31
	5	0.1	-8.01276E-001	-6.69225E-004	0.00000E+000	-8.00083E-001	0.00000E+000	9	...........	1426.31
	6	0.2	-8.01268E-001	-5.59520E-004	0.00000E+000	-8.00083E-001	0.00000E+000	9	...........	1426.31
	7	0.3	-8.01264E-001	-5.00241E-004	0.00000E+000	-8.00083E-001	0.00000E+000	9	...........	1426.31
	8	0.4	-8.01260E-001	-4.59348E-004	0.00000E+000	-8.00083E-001	0.00000E+000	9	...........	1426.31
	9	0.5	-8.01265E-001	-4.27358E-004	0.00000E+000	-8.00083E-001	0.00000E+000	9	...........	1426.31
	10	0.6	-8.01275E-001	-4.00978E-004	0.00000E+000	-8.00083E-001	0.00000E+000	9	...........	1426.22
	11	0.7	-8.01273E-001	-3.78365E-004	0.00000E+000	-8.00083E-001	0.00000E+000	9	...........	1426.22
	12	0.8	-8.01260E-001	-3.58566E-004	0.00000E+000	-8.00083E-001	0.00000E+000	9	...........	1426.22
	13	0.9	-8.01262E-001	-3.41229E-004	0.00000E+000	-8.00083E-001	0.00000E+000	9	...........	1426.22
	14	1	-8.01259E-001	-3.25728E-004	0.00000E+000	-8.00083E-001	0.00000E+000	9	...........	1426.22
	15	1.1	-8.01263E-001	-3.11824E-004	0.00000E+000	-8.00083E-001	0.00000E+000	9	...........	1426.22
	16	1.2	-8.01267E-001	-2.99449E-004	0.00000E+000	-8.00083E-001	0.00000E+000	9	...........	1426.22
	17	1.3	-8.01263E-001	-2.88184E-004	0.00000E+000	-8.00083E-001	0.00000E+000	9	...........	1426.22
	18	1.4	-8.01271E-001	-2.78051E-004	0.00000E+000	-8.00083E-001	0.00000E+000	9	...........	1426.22
	19	1.5	-8.01269E-001	-2.68785E-004	0.00000E+000	-8.00083E-001	0.00000E+000	9	...........	1426.22
	20	1.6	-8.01261E-001	-2.60396E-004	0.00000E+000	-8.00083E-001	0.00000E+000	9	...........	1426.22
	21	1.7	-8.01250E-001	-2.52611E-004	0.00000E+000	-8.00083E-001	0.00000E+000	9	...........	1426.22
	22	1.8	-8.01264E-001	-2.45718E-004	0.00000E+000	-8.00083E-001	0.00000E+000	9	...........	1426.22
	23	1.9	-8.01254E-001	-2.39281E-004	0.00000E+000	-8.00083E-001	0.00000E+000	9	...........	1426.22
	24	2	-8.01262E-001	-2.33314E-004	0.00000E+000	-8.00083E-001	0.00000E+000	9	...........	1426.22
	25	2.1	-8.01256E-001	-2.27826E-004	0.00000E+000	-8.00083E-001	0.00000E+000	9	...........	1426.22
	26	2.2	-8.01266E-001	-2.22812E-004	0.00000E+000	-8.00083E-001	0.00000E+000	9	...........	1426.22
	27	2.3	-8.01271E-001	-2.18113E-004	0.00000E+000	-8.00083E-001	0.00000E+000	9	...........	1426.22
	28	2.4	-8.01261E-001	-2.13891E-004	0.00000E+000	-8.00083E-001	0.00000E+000	9	...........	1426.22
	29	2.5	-8.01249E-001	-2.09921E-004	0.00000E+000	-8.00083E-001	0.00000E+000	9	...........	1426.22
	30	2.6	-8.01259E-001	-2.06208E-004	0.00000E+000	-8.00083E-001	0.00000E+000	9	...........	1426.13
	31	2.7	-8.01249E-001	-2.02673E-004	0.00000E+000	-8.00083E-001	0.00000E+000	9	...........	1426.13
	32	2.8	-8.01265E-001	-1.99607E-004	0.00000E+000	-8.00083E-001	0.00000E+000	9	...........	1426.13
	33	2.9	-8.01259E-001	-1.96587E-004	0.00000E+000	-8.00083E-001	0.00000E+000	9	...........	1426.13
	34	3	-8.01266E-001	-1.93692E-004	0.00000E+000	-8.00083E-001	0.00000E+000	9	...........	1426.13
	35	3.1	-8.01267E-001	-1.91179E-004	0.00000E+000	-8.00083E-001	0.00000E+000	9	...........	1426.13
	36	3.2	-8.01264E-001	-1.88716E-004	0.00000E+000	-8.00083E-001	0.00000E+000	9	...........	1426.13
	37	3.3	-8.01263E-001	-1.86386E-004	0.00000E+000	-8.00083E-001	0.00000E+000	9	...........	1426.13
	38	3.4	-8.01274E-001	-1.84398E-004	0.00000E+000	-8.00083E-001	0.00000E+000	9	...........	1426.13
	39	3.5	-8.01255E-001	-1.82307E-004	0.00000E+000	-8.00083E-001	0.00000E+000	9	...........	1426.13
	40	3.6	-8.01264E-001	-1.80401E-004	0.00000E+000	-8.00083E-001	0.00000E+000	9	...........	1426.13
	41	3.7	-8.01268E-001	-1.78722E-004	0.00000E+000	-8.00083E-001	0.00000E+000	9	...........	1426.13
	42	3.8	-8.01264E-001	-1.77039E-004	0.00000E+000	-8.00083E-001	0.00000E+000	9	...........	1426.13
	43	3.9	-8.01262E-001	-1.75404E-004	0.00000E+000	-8.00083E-001	0.00000E+000	9	...........	1426.13
	44	4	-8.01251E-001	-1.73828E-004	0.00000E+000	-8.00083E-001	0.00000E+000	9	...........	1426.13
	45	4.1	-8.01251E-001	-1.72467E-004	0.00000E+000	-8.00083E-001	0.00000E+000	9	...........	1426.13
	46	4.2	-8.01264E-001	-1.71137E-004	0.00000E+000	-8.00083E-001	0.00000E+000	9	...........	1426.13
	47	4.3	-8.01250E-001	-1.69882E-004	0.00000E+000	-8.00083E-001	0.00000E+000	9	...........	1426.13
	48	4.4	-8.01271E-001	-1.68675E-004	0.00000E+000	-8.00083E-001	0.00000E+000	9	...........	1426.13
	49	4.5	-8.01275E-001	-1.67576E-004	0.00000E+000	-8.00083E-001	0.00000E+000	9	...........	1426.13
	50	4.6	-8.01283E-001	-1.66355E-004	0.00000E+000	-8.00083E-001	0.00000E+000	9	...........	1426.13
	51	4.7	-8.01279E-001	-1.65411E-004	0.00000E+000	-8.00083E-001	0.00000E+000	9	...........	1426.13
	52	4.8	-8.01272E-001	-1.64494E-004	0.00000E+000	-8.00083E-001	0.00000E+000	9	...........	1426.13
	53	4.9	-8.01269E-001	-1.63545E-004	0.00000E+000	-8.00083E-001	0.00000E+000	9	...........	1426.13
	54	5	-8.01263E-001	-1.62578E-004	0.00000E+000	-8.00083E-001	0.00000E+000	9	...........	1426.13
	55	5.1	-8.01262E-001	-1.61743E-004	0.00000E+000	-8.00083E-001	0.00000E+000	9	...........	1426.13
	56	5.2	-8.01271E-001	-1.60863E-004	0.00000E+000	-8.00083E-001	0.00000E+000	9	...........	1426.13
	57	5.3	-8.01269E-001	-1.60189E-004	0.00000E+000	-8.00083E-001	0.00000E+000	9	...........	1426.13
	58	5.4	-8.01270E-001	-1.59370E-004	0.00000E+000	-8.00083E-001	0.00000E+000	9	...........	1426.13
	59	5.5	-8.01271E-001	-1.58664E-004	0.00000E+000	-8.00083E-001	0.00000E+000	9	...........	1426.13
	60	5.6	-8.01283E-001	-1.58095E-004	0.00000E+000	-8.00083E-001	0.00000E+000	9	...........	1426.13
	61	5.7	-8.01267E-001	-1.57329E-004	0.00000E+000	-8.00083E-001	0.00000E+000	9	...........	1426.13
	62	5.8	-8.01276E-001	-1.56745E-004	0.00000E+000	-8.00083E-001	0.00000E+000	9	...........	1426.13
	63	5.9	-8.01265E-001	-1.56197E-004	0.00000E+000	-8.00083E-001	0.00000E+000	9	...........	1426.13
	64	6	-8.01253E-001	-1.55591E-004	0.00000E+000	-8.00083E-001	0.00000E+000	9	...........	1426.13
	65	6.1	-8.01261E-001	-1.55044E-004	0.00000E+000	-8.00083E-001	0.00000E+000	9	...........	1426.13
	66	7.1	-8.01266E-001	-1.50393E-004	0.00000E+000	-8.00083E-001	0.00000E+000	9	...........	1426.22
	67	8.1	-8.01264E-001	-1.47028E-004	0.00000E+000	-8.00083E-001	0.00000E+000	9	...........	1426.13
	68	9.1	-8.01268E-001	-1.44740E-004	0.00000E+000	-8.00083E-001	0.00000E+000	9	...........	1426.13
	69	10.1	-8.01283E-001	-1.42884E-004	0.00000E+000	-8.00083E-001	0.00000E+000	9	...........	1426.22
	70	11.1	-8.01259E-001	-1.41257E-004	0.00000E+000	-8.00083E-001	0.00000E+000	9	...........	1426.22
	71	12.1	-8.01271E-001	-1.39961E-004	0.00000E+000	-8.00083E-001	0.00000E+000	9	...........	1426.13
	72	13.1	-8.01274E-001	-1.38996E-004	0.00000E+000	-8.00083E-001	0.00000E+000	9	...........	1426.22
	73	14.1	-8.01262E-001	-1.38142E-004	0.00000E+000	-8.00083E-001	0.00000E+000	9	...........	1426.22
	74	15.1	-8.01272E-001	-1.37248E-004	0.00000E+000	-8.00083E-001	0.00000E+000	9	...........	1426.22
	75	16.1	-8.01272E-001	-1.36682E-004	0.00000E+000	-8.00083E-001	0.00000E+000	9	...........	1426.22
	76	26.1	-8.01259E-001	-1.33084E-004	0.00000E+000	-8.00083E-001	0.00000E+000	9	...........	1426.22
	77	36.1	-8.01275E-001	-1.31371E-004	0.00000E+000	-8.00083E-001	0.00000E+000	9	...........	1426.22
	78	46.1	-8.01272E-001	-1.30725E-004	0.00000E+000	-8.00083E-001	0.00000E+000	9	...........	1426.22
	79	56.1	-8.01272E-001	-1.30189E-004	0.00000E+000	-8.00083E-001	0.00000E+000	9	...........	1426.22
	80	66.1	-8.01268E-001	-1.30410E-004	0.00000E+000	-8.00083E-001	0.00000E+000	9	...........	1426.22
	81	76.1	-8.01266E-001	-1.30263E-004	0.00000E+000	-8.00083E-001	0.00000E+000	9	...........	1426.22
	82	86.1	-8.01275E-001	-1.30248E-004	0.00000E+000	-8.00083E-001	0.00000E+000	9	...........	1426.22
	83	96.1	-8.01260E-001	-1.30227E-004	0.00000E+000	-8.00083E-001	0.00000E+000	9	...........	1426.22
	84	106.1	-8.01273E-001	-1.29732E-004	0.00000E+000	-8.00083E-001	0.00000E+000	9	...........	1426.22
	85	116.1	-8.01253E-001	-1.29171E-004	0.00000E+000	-8.00083E-001	0.00000E+000	9	...........	1426.22
	86	216.1	-8.01271E-001	-1.28395E-004	0.00000E+000	-8.00083E-001	0.00000E+000	9	...........	1426.22
	87	300	-8.01258E-001	-1.28597E-004	0.00000E+000	-8.00083E-001	0.00000E+000	9	...........	1426.31
	88	300.1	-7.01242E-001	3.21338E-004	0.00000E+000	-7.00083E-001	0.00000E+000	9	...........	1426.31
	89	300.2	-7.01231E-001	1.82042E-004	0.00000E+000	-7.00083E-001	0.00000E+000	9	...........	1426.31
	90	300.3	-7.01258E-001	1.04743E-004	0.00000E+000	-7.00083E-001	0.00000E+000	9	...........	1426.31
	91	300.4	-7.01257E-001	5.61298E-005	0.00000E+000	-7.00083E-001	0.00000E+000	9	...........	1426.31
	92	300.5	-7.01252E-001	2.34830E-005	0.00000E+000	-7.00083E-001	0.00000E+000	9	...........	1426.31
	93	300.6	-7.01244E-001	5.67034E-007	0.00000E+000	-7.00083E-001	0.00000E+000	9	...........	1426.22
	94	300.7	-7.01247E-001	-1.61001E-005	0.00000E+000	-7.00083E-001	0.00000E+000	9	...........	1426.22
	95	300.8	-7.01243E-001	-2.85498E-005	0.00000E+000	-7.00083E-001	0.00000E+000	9	...........	1426.22
	96	300.9	-7.01237E-001	-3.81106E-005	0.00000E+000	-7.00083E-001	0.00000E+000	9	...........	1426.22
	97	301	-7.01246E-001	-4.57180E-005	0.00000E+000	-7.00083E-001	0.00000E+000	9	...........	1426.22
