EXPLAIN
TAG	CHRONOA
TITLE	LABEL	Chronoamperometry Scan	Test Identifier
DATE	LABEL	10/2/2022	Date
TIME	LABEL	14:20:08	Time
NOTES	NOTES	1	Notes...
	
PSTAT	PSTAT	IFC1010-21051	Potentiostat
VPRESTEP	POTEN	-3.00000E-001	F	Pre-step Voltage (V)
TPRESTEP	QUANT	5.00000E-001	Pre-step Delay Time (s)
VSTEP1	POTEN	-4.00000E-001	F	Step 1 Voltage (V)
TSTEP1	QUANT	3.00000E+002	Step 1 Time (s)
VSTEP2	POTEN	-5.00000E-001	F	Step 2 Voltage (V)
TSTEP2	QUANT	1.00000E+000	Step 2 Time (s)
SAMPLETIME	QUANT	1.00000E-001	Sample Period (s)
DECIMATE	TOGGLE	T	Decimate
ILIMIT	QUANT	1.00000E+000	Limit I (mA/cm^2)
IMODE	SELECTOR	1	I/E Range Mode
IRANGE	QUANT	3.00000E-001	Max Current (mA)
EQDELAY	QUANT	5.00000E+000	Equil. Time (s)
SAMPLINGMODE	SELECTOR	1	Sampling Mode
AREA	QUANT	1.00000E+000	Sample Area (cm^2)
IRCOMP	SELECTOR	0	IRComp
PFCOR	QUANT	5.00000E+001	PF Corr. (ohm)
SEQUENCER	TOGGLE	TRUE	Run as Sequence
PSTATMODEL	IQUANT	64	Pstat Model
PSTATSECTION	LABEL	IFC1010-21051	Pstat Section
PSTATSERIALNO	LABEL	21051	Pstat Serial Number
CTRLMODE	IQUANT	1	Control Mode
ELECTROMETER	IQUANT	0	RE=0 or CS=1
IESTAB	IQUANT	0	I/E Stability
CASPEED	IQUANT	4	Control Amp Speed
CONVENTION	IQUANT	1	Current Convention
ICHRANGE	IQUANT	2	Ich Range
ICHRANGEMODE	TOGGLE	T	Ich Auto Range
ICHOFFSETENABLE	TOGGLE	F	Ich Offset Enable
ICHOFFSET	QUANT	0	Ich Offset (V)
ICHFILTER	IQUANT	3	Ich Filter
VCHRANGE	IQUANT	3	Vch Range
VCHRANGEMODE	TOGGLE	T	Vch Auto Range
VCHOFFSETENABLE	TOGGLE	F	Vch Offset Enable
VCHOFFSET	QUANT	0	Vch Offset (V)
VCHFILTER	IQUANT	3	Vch Filter
IERANGELOWERLIMIT	IQUANT	4	I/E Range Lower Limit
IERANGEMODE	TOGGLE	F	I/E AutoRange
IERANGE	IQUANT	9	I/E Range
ACHSELECT	IQUANT	0	Ach Select
ACHRANGE	IQUANT	2	Ach Range
ACHOFFSETENABLE	TOGGLE	F	Ach Offset Enable
ACHOFFSET	QUANT	0	Ach Offset (V)
ACHFILTER	IQUANT	1	Ach Filter
SENSECABLEID	IQUANT	14	Sense Cable ID
PWRCABLEID	IQUANT	14	Power Cable ID
DCCALDATE	LABEL	1/24/2022	DC Calibration Date
ACCALDATE	LABEL	4/2/2018	AC Calibration Date
FRAMEWORKVERSION	QUANT	7.06	Framework Version
INSTRUMENTVERSION	LABEL	4.30	Instrument Version
CURVE	TABLE	98
	Pt	T	Vf	Im	Vu	Sig	Ach	IERange	Over	Temp
	#	s	V vs. Ref.	A	V	V	V	#	bits	deg C
	0	-0.4	-3.01272E-001	-6.16340E-005	0.00000E+000	-3.00011E-001	0.00000E+000	9	...........	1426.13
	1	-0.3	-3.00670E-001	-6.14719E-005	0.00000E+000	-3.00011E-001	0.00000E+000	9	...........	1426.13
	2	-0.2	-3.00676E-001	-6.13013E-005	0.00000E+000	-3.00011E-001	0.00000E+000	9	...........	1426.13
	3	-0.1	-3.00681E-001	-6.11344E-005	0.00000E+000	-3.00011E-001	0.00000E+000	9	...........	1426.13
	4	0	-3.00678E-001	-6.10255E-005	0.00000E+000	-3.00011E-001	0.00000E+000	9	...........	1426.13
	5	0.1	-4.00720E-001	-5.21787E-004	0.00000E+000	-4.00011E-001	0.00000E+000	9	...........	1426.13
	6	0.2	-4.00724E-001	-4.28046E-004	0.00000E+000	-4.00011E-001	0.00000E+000	9	...........	1426.13
	7	0.3	-4.00720E-001	-3.57049E-004	0.00000E+000	-4.00011E-001	0.00000E+000	9	...........	1426.13
	8	0.4	-4.00717E-001	-3.08032E-004	0.00000E+000	-4.00011E-001	0.00000E+000	9	...........	1426.13
	9	0.5	-4.00719E-001	-2.73943E-004	0.00000E+000	-4.00011E-001	0.00000E+000	9	...........	1426.13
	10	0.6	-4.00728E-001	-2.49488E-004	0.00000E+000	-4.00011E-001	0.00000E+000	9	...........	1426.13
	11	0.7	-4.00733E-001	-2.31383E-004	0.00000E+000	-4.00011E-001	0.00000E+000	9	...........	1426.13
	12	0.8	-4.00728E-001	-2.17624E-004	0.00000E+000	-4.00011E-001	0.00000E+000	9	...........	1426.13
	13	0.9	-4.00725E-001	-2.06903E-004	0.00000E+000	-4.00011E-001	0.00000E+000	9	...........	1425.95
	14	1	-4.00720E-001	-1.98314E-004	0.00000E+000	-4.00011E-001	0.00000E+000	9	...........	1425.95
	15	1.1	-4.00724E-001	-1.91234E-004	0.00000E+000	-4.00011E-001	0.00000E+000	9	...........	1425.95
	16	1.2	-4.00713E-001	-1.85448E-004	0.00000E+000	-4.00011E-001	0.00000E+000	9	...........	1425.95
	17	1.3	-4.00720E-001	-1.80468E-004	0.00000E+000	-4.00011E-001	0.00000E+000	9	...........	1425.95
	18	1.4	-4.00730E-001	-1.76212E-004	0.00000E+000	-4.00011E-001	0.00000E+000	9	...........	1425.95
	19	1.5	-4.00730E-001	-1.72495E-004	0.00000E+000	-4.00011E-001	0.00000E+000	9	...........	1425.95
	20	1.6	-4.00727E-001	-1.69151E-004	0.00000E+000	-4.00011E-001	0.00000E+000	9	...........	1425.95
	21	1.7	-4.00719E-001	-1.66208E-004	0.00000E+000	-4.00011E-001	0.00000E+000	9	...........	1425.95
	22	1.8	-4.00721E-001	-1.63551E-004	0.00000E+000	-4.00011E-001	0.00000E+000	9	...........	1425.95
	23	1.9	-4.00720E-001	-1.61095E-004	0.00000E+000	-4.00011E-001	0.00000E+000	9	...........	1425.60
	24	2	-4.00723E-001	-1.58885E-004	0.00000E+000	-4.00011E-001	0.00000E+000	9	...........	1425.60
	25	2.1	-4.00723E-001	-1.56828E-004	0.00000E+000	-4.00011E-001	0.00000E+000	9	...........	1425.60
	26	2.2	-4.00725E-001	-1.54935E-004	0.00000E+000	-4.00011E-001	0.00000E+000	9	...........	1425.60
	27	2.3	-4.00720E-001	-1.53098E-004	0.00000E+000	-4.00011E-001	0.00000E+000	9	...........	1425.60
	28	2.4	-4.00726E-001	-1.51439E-004	0.00000E+000	-4.00011E-001	0.00000E+000	9	...........	1425.60
	29	2.5	-4.00734E-001	-1.49862E-004	0.00000E+000	-4.00011E-001	0.00000E+000	9	...........	1425.60
	30	2.6	-4.00741E-001	-1.48355E-004	0.00000E+000	-4.00011E-001	0.00000E+000	9	...........	1425.60
	31	2.7	-4.00724E-001	-1.46942E-004	0.00000E+000	-4.00011E-001	0.00000E+000	9	...........	1425.60
	32	2.8	-4.00720E-001	-1.45586E-004	0.00000E+000	-4.00011E-001	0.00000E+000	9	...........	1425.60
	33	2.9	-4.00726E-001	-1.44323E-004	0.00000E+000	-4.00011E-001	0.00000E+000	9	...........	1426.04
	34	3	-4.00704E-001	-1.43040E-004	0.00000E+000	-4.00011E-001	0.00000E+000	9	...........	1426.04
	35	3.1	-4.00705E-001	-1.41850E-004	0.00000E+000	-4.00011E-001	0.00000E+000	9	...........	1426.04
	36	3.2	-4.00727E-001	-1.40810E-004	0.00000E+000	-4.00011E-001	0.00000E+000	9	...........	1426.04
	37	3.3	-4.00718E-001	-1.39738E-004	0.00000E+000	-4.00011E-001	0.00000E+000	9	...........	1426.04
	38	3.4	-4.00729E-001	-1.38704E-004	0.00000E+000	-4.00011E-001	0.00000E+000	9	...........	1426.04
	39	3.5	-4.00715E-001	-1.37682E-004	0.00000E+000	-4.00011E-001	0.00000E+000	9	...........	1426.04
	40	3.6	-4.00710E-001	-1.36704E-004	0.00000E+000	-4.00011E-001	0.00000E+000	9	...........	1426.04
	41	3.7	-4.00726E-001	-1.35820E-004	0.00000E+000	-4.00011E-001	0.00000E+000	9	...........	1426.04
	42	3.8	-4.00730E-001	-1.34917E-004	0.00000E+000	-4.00011E-001	0.00000E+000	9	...........	1426.04
	43	3.9	-4.00725E-001	-1.34014E-004	0.00000E+000	-4.00011E-001	0.00000E+000	9	...........	1425.60
	44	4	-4.00721E-001	-1.33206E-004	0.00000E+000	-4.00011E-001	0.00000E+000	9	...........	1425.60
	45	4.1	-4.00717E-001	-1.32387E-004	0.00000E+000	-4.00011E-001	0.00000E+000	9	...........	1425.60
	46	4.2	-4.00708E-001	-1.31568E-004	0.00000E+000	-4.00011E-001	0.00000E+000	9	...........	1425.60
	47	4.3	-4.00706E-001	-1.30819E-004	0.00000E+000	-4.00011E-001	0.00000E+000	9	...........	1425.60
	48	4.4	-4.00716E-001	-1.30050E-004	0.00000E+000	-4.00011E-001	0.00000E+000	9	...........	1425.60
	49	4.5	-4.00715E-001	-1.29360E-004	0.00000E+000	-4.00011E-001	0.00000E+000	9	...........	1425.60
	50	4.6	-4.00723E-001	-1.28661E-004	0.00000E+000	-4.00011E-001	0.00000E+000	9	...........	1425.60
	51	4.7	-4.00736E-001	-1.27974E-004	0.00000E+000	-4.00011E-001	0.00000E+000	9	...........	1425.60
	52	4.8	-4.00727E-001	-1.27271E-004	0.00000E+000	-4.00011E-001	0.00000E+000	9	...........	1425.60
	53	4.9	-4.00729E-001	-1.26621E-004	0.00000E+000	-4.00011E-001	0.00000E+000	9	...........	1425.60
	54	5	-4.00726E-001	-1.26008E-004	0.00000E+000	-4.00011E-001	0.00000E+000	9	...........	1425.60
	55	5.1	-4.00732E-001	-1.25361E-004	0.00000E+000	-4.00011E-001	0.00000E+000	9	...........	1425.60
	56	5.2	-4.00725E-001	-1.24761E-004	0.00000E+000	-4.00011E-001	0.00000E+000	9	...........	1425.60
	57	5.3	-4.00712E-001	-1.24169E-004	0.00000E+000	-4.00011E-001	0.00000E+000	9	...........	1425.60
	58	5.4	-4.00708E-001	-1.23591E-004	0.00000E+000	-4.00011E-001	0.00000E+000	9	...........	1425.60
	59	5.5	-4.00717E-001	-1.23056E-004	0.00000E+000	-4.00011E-001	0.00000E+000	9	...........	1425.60
	60	5.6	-4.00715E-001	-1.22456E-004	0.00000E+000	-4.00011E-001	0.00000E+000	9	...........	1425.60
	61	5.7	-4.00717E-001	-1.21955E-004	0.00000E+000	-4.00011E-001	0.00000E+000	9	...........	1425.60
	62	5.8	-4.00710E-001	-1.21388E-004	0.00000E+000	-4.00011E-001	0.00000E+000	9	...........	1425.60
	63	5.9	-4.00722E-001	-1.20858E-004	0.00000E+000	-4.00011E-001	0.00000E+000	9	...........	1425.60
	64	6	-4.00725E-001	-1.20347E-004	0.00000E+000	-4.00011E-001	0.00000E+000	9	...........	1425.60
	65	6.1	-4.00727E-001	-1.19903E-004	0.00000E+000	-4.00011E-001	0.00000E+000	9	...........	1425.60
	66	7.1	-4.00735E-001	-1.15376E-004	0.00000E+000	-4.00011E-001	0.00000E+000	9	...........	1425.95
	67	8.1	-4.00736E-001	-1.11602E-004	0.00000E+000	-4.00011E-001	0.00000E+000	9	...........	1426.04
	68	9.1	-4.00727E-001	-1.08384E-004	0.00000E+000	-4.00011E-001	0.00000E+000	9	...........	1426.04
	69	10.1	-4.00717E-001	-1.05520E-004	0.00000E+000	-4.00011E-001	0.00000E+000	9	...........	1426.13
	70	11.1	-4.00724E-001	-1.02998E-004	0.00000E+000	-4.00011E-001	0.00000E+000	9	...........	1426.13
	71	12.1	-4.00726E-001	-1.00745E-004	0.00000E+000	-4.00011E-001	0.00000E+000	9	...........	1426.13
	72	13.1	-4.00723E-001	-9.87234E-005	0.00000E+000	-4.00011E-001	0.00000E+000	9	...........	1426.13
	73	14.1	-4.00723E-001	-9.68469E-005	0.00000E+000	-4.00011E-001	0.00000E+000	9	...........	1426.13
	74	15.1	-4.00727E-001	-9.51946E-005	0.00000E+000	-4.00011E-001	0.00000E+000	9	...........	1426.13
	75	16.1	-4.00714E-001	-9.36026E-005	0.00000E+000	-4.00011E-001	0.00000E+000	9	...........	1426.13
	76	26.1	-4.00735E-001	-8.27599E-005	0.00000E+000	-4.00011E-001	0.00000E+000	9	...........	1426.13
	77	36.1	-4.00720E-001	-7.62702E-005	0.00000E+000	-4.00011E-001	0.00000E+000	9	...........	1426.13
	78	46.1	-4.00728E-001	-7.19746E-005	0.00000E+000	-4.00011E-001	0.00000E+000	9	...........	1426.13
	79	56.1	-4.00722E-001	-6.90461E-005	0.00000E+000	-4.00011E-001	0.00000E+000	9	...........	1426.22
	80	66.1	-4.00729E-001	-6.67025E-005	0.00000E+000	-4.00011E-001	0.00000E+000	9	...........	1426.13
	81	76.1	-4.00710E-001	-6.47660E-005	0.00000E+000	-4.00011E-001	0.00000E+000	9	...........	1426.13
	82	86.1	-4.00716E-001	-6.31984E-005	0.00000E+000	-4.00011E-001	0.00000E+000	9	...........	1426.22
	83	96.1	-4.00726E-001	-6.18561E-005	0.00000E+000	-4.00011E-001	0.00000E+000	9	...........	1426.22
	84	106.1	-4.00717E-001	-6.07030E-005	0.00000E+000	-4.00011E-001	0.00000E+000	9	...........	1426.22
	85	116.1	-4.00730E-001	-5.97213E-005	0.00000E+000	-4.00011E-001	0.00000E+000	9	...........	1426.22
	86	216.1	-4.00720E-001	-5.33824E-005	0.00000E+000	-4.00011E-001	0.00000E+000	9	...........	1426.13
	87	300	-4.00729E-001	-5.11554E-005	0.00000E+000	-4.00011E-001	0.00000E+000	9	...........	1426.22
	88	300.1	-5.00726E-001	-4.93634E-004	0.00000E+000	-5.00010E-001	0.00000E+000	9	...........	1426.22
	89	300.2	-5.00732E-001	-3.81529E-004	0.00000E+000	-5.00010E-001	0.00000E+000	9	...........	1426.22
	90	300.3	-5.00730E-001	-3.12384E-004	0.00000E+000	-5.00010E-001	0.00000E+000	9	...........	1426.22
	91	300.4	-5.00729E-001	-2.67476E-004	0.00000E+000	-5.00010E-001	0.00000E+000	9	...........	1426.22
	92	300.5	-5.00743E-001	-2.37073E-004	0.00000E+000	-5.00010E-001	0.00000E+000	9	...........	1426.22
	93	300.6	-5.00726E-001	-2.15740E-004	0.00000E+000	-5.00010E-001	0.00000E+000	9	...........	1426.22
	94	300.7	-5.00730E-001	-2.00355E-004	0.00000E+000	-5.00010E-001	0.00000E+000	9	...........	1426.22
	95	300.8	-5.00728E-001	-1.88834E-004	0.00000E+000	-5.00010E-001	0.00000E+000	9	...........	1426.22
	96	300.9	-5.00731E-001	-1.79997E-004	0.00000E+000	-5.00010E-001	0.00000E+000	9	...........	1426.22
	97	301	-5.00730E-001	-1.73111E-004	0.00000E+000	-5.00010E-001	0.00000E+000	9	...........	1426.22
