EXPLAIN
TAG	CHRONOA
TITLE	LABEL	Chronoamperometry Scan	Test Identifier
DATE	LABEL	10/2/2022	Date
TIME	LABEL	12:53:12	Time
NOTES	NOTES	1	Notes...
	
PSTAT	PSTAT	IFC1010-21051	Potentiostat
VPRESTEP	POTEN	1.00000E-002	F	Pre-step Voltage (V)
TPRESTEP	QUANT	5.00000E-001	Pre-step Delay Time (s)
VSTEP1	POTEN	0.00000E+000	F	Step 1 Voltage (V)
TSTEP1	QUANT	3.00000E+002	Step 1 Time (s)
VSTEP2	POTEN	-1.00000E-001	F	Step 2 Voltage (V)
TSTEP2	QUANT	1.00000E+000	Step 2 Time (s)
SAMPLETIME	QUANT	1.00000E-001	Sample Period (s)
DECIMATE	TOGGLE	T	Decimate
ILIMIT	QUANT	1.00000E+000	Limit I (mA/cm^2)
IMODE	SELECTOR	1	I/E Range Mode
IRANGE	QUANT	3.00000E-001	Max Current (mA)
EQDELAY	QUANT	5.00000E+000	Equil. Time (s)
SAMPLINGMODE	SELECTOR	1	Sampling Mode
AREA	QUANT	1.00000E+000	Sample Area (cm^2)
IRCOMP	SELECTOR	0	IRComp
PFCOR	QUANT	5.00000E+001	PF Corr. (ohm)
SEQUENCER	TOGGLE	TRUE	Run as Sequence
PSTATMODEL	IQUANT	64	Pstat Model
PSTATSECTION	LABEL	IFC1010-21051	Pstat Section
PSTATSERIALNO	LABEL	21051	Pstat Serial Number
CTRLMODE	IQUANT	1	Control Mode
ELECTROMETER	IQUANT	0	RE=0 or CS=1
IESTAB	IQUANT	0	I/E Stability
CASPEED	IQUANT	4	Control Amp Speed
CONVENTION	IQUANT	1	Current Convention
ICHRANGE	IQUANT	2	Ich Range
ICHRANGEMODE	TOGGLE	T	Ich Auto Range
ICHOFFSETENABLE	TOGGLE	F	Ich Offset Enable
ICHOFFSET	QUANT	0	Ich Offset (V)
ICHFILTER	IQUANT	3	Ich Filter
VCHRANGE	IQUANT	3	Vch Range
VCHRANGEMODE	TOGGLE	T	Vch Auto Range
VCHOFFSETENABLE	TOGGLE	F	Vch Offset Enable
VCHOFFSET	QUANT	0	Vch Offset (V)
VCHFILTER	IQUANT	3	Vch Filter
IERANGELOWERLIMIT	IQUANT	4	I/E Range Lower Limit
IERANGEMODE	TOGGLE	F	I/E AutoRange
IERANGE	IQUANT	9	I/E Range
ACHSELECT	IQUANT	0	Ach Select
ACHRANGE	IQUANT	2	Ach Range
ACHOFFSETENABLE	TOGGLE	F	Ach Offset Enable
ACHOFFSET	QUANT	0	Ach Offset (V)
ACHFILTER	IQUANT	1	Ach Filter
SENSECABLEID	IQUANT	14	Sense Cable ID
PWRCABLEID	IQUANT	14	Power Cable ID
DCCALDATE	LABEL	1/24/2022	DC Calibration Date
ACCALDATE	LABEL	4/2/2018	AC Calibration Date
FRAMEWORKVERSION	QUANT	7.06	Framework Version
INSTRUMENTVERSION	LABEL	4.30	Instrument Version
CURVE	TABLE	98
	Pt	T	Vf	Im	Vu	Sig	Ach	IERange	Over	Temp
	#	s	V vs. Ref.	A	V	V	V	#	bits	deg C
	0	-0.4	9.25113E-003	-4.43485E-005	0.00000E+000	1.00559E-002	0.00000E+000	9	...........	1425.87
	1	-0.3	9.89742E-003	-4.38195E-005	0.00000E+000	1.00559E-002	0.00000E+000	9	...........	1425.87
	2	-0.2	1.00475E-002	-4.32998E-005	0.00000E+000	1.00559E-002	0.00000E+000	9	...........	1425.87
	3	-0.1	1.00625E-002	-4.28146E-005	0.00000E+000	1.00559E-002	0.00000E+000	9	...........	1425.87
	4	0	1.00634E-002	-4.23236E-005	0.00000E+000	1.00559E-002	0.00000E+000	9	...........	1425.87
	5	0.1	5.59357E-005	-8.59882E-005	0.00000E+000	5.34840E-005	0.00000E+000	9	...........	1425.87
	6	0.2	5.61010E-005	-7.67353E-005	0.00000E+000	5.34840E-005	0.00000E+000	9	...........	1425.87
	7	0.3	5.61951E-005	-7.02143E-005	0.00000E+000	5.34840E-005	0.00000E+000	9	...........	1425.87
	8	0.4	5.47393E-005	-6.53358E-005	0.00000E+000	5.34840E-005	0.00000E+000	9	...........	1425.87
	9	0.5	5.54532E-005	-6.15342E-005	0.00000E+000	5.34840E-005	0.00000E+000	9	...........	1425.87
	10	0.6	5.57235E-005	-5.84968E-005	0.00000E+000	5.34840E-005	0.00000E+000	9	...........	1425.77
	11	0.7	5.54682E-005	-5.60065E-005	0.00000E+000	5.34840E-005	0.00000E+000	9	...........	1425.51
	12	0.8	5.48134E-005	-5.39319E-005	0.00000E+000	5.34840E-005	0.00000E+000	9	...........	1425.51
	13	0.9	5.53440E-005	-5.21648E-005	0.00000E+000	5.34840E-005	0.00000E+000	9	...........	1425.51
	14	1	5.43107E-005	-5.06374E-005	0.00000E+000	5.34840E-005	0.00000E+000	9	...........	1425.51
	15	1.1	5.48294E-005	-4.93110E-005	0.00000E+000	5.34840E-005	0.00000E+000	9	...........	1425.51
	16	1.2	5.59728E-005	-4.81245E-005	0.00000E+000	5.34840E-005	0.00000E+000	9	...........	1425.51
	17	1.3	5.53080E-005	-4.70784E-005	0.00000E+000	5.34840E-005	0.00000E+000	9	...........	1425.51
	18	1.4	5.47032E-005	-4.61166E-005	0.00000E+000	5.34840E-005	0.00000E+000	9	...........	1425.51
	19	1.5	5.41055E-005	-4.52585E-005	0.00000E+000	5.34840E-005	0.00000E+000	9	...........	1425.51
	20	1.6	5.44840E-005	-4.44634E-005	0.00000E+000	5.34840E-005	0.00000E+000	9	...........	1425.61
	21	1.7	5.52449E-005	-4.37252E-005	0.00000E+000	5.34840E-005	0.00000E+000	9	...........	1425.87
	22	1.8	5.44519E-005	-4.30517E-005	0.00000E+000	5.34840E-005	0.00000E+000	9	...........	1425.87
	23	1.9	5.51738E-005	-4.24142E-005	0.00000E+000	5.34840E-005	0.00000E+000	9	...........	1425.87
	24	2	5.50757E-005	-4.18188E-005	0.00000E+000	5.34840E-005	0.00000E+000	9	...........	1425.87
	25	2.1	5.57886E-005	-4.12587E-005	0.00000E+000	5.34840E-005	0.00000E+000	9	...........	1425.87
	26	2.2	5.41936E-005	-4.07385E-005	0.00000E+000	5.34840E-005	0.00000E+000	9	...........	1425.87
	27	2.3	5.46462E-005	-4.02442E-005	0.00000E+000	5.34840E-005	0.00000E+000	9	...........	1425.87
	28	2.4	5.38902E-005	-3.97666E-005	0.00000E+000	5.34840E-005	0.00000E+000	9	...........	1425.87
	29	2.5	5.38091E-005	-3.93252E-005	0.00000E+000	5.34840E-005	0.00000E+000	9	...........	1425.87
	30	2.6	5.43067E-005	-3.88858E-005	0.00000E+000	5.34840E-005	0.00000E+000	9	...........	1425.87
	31	2.7	5.32254E-005	-3.84733E-005	0.00000E+000	5.34840E-005	0.00000E+000	9	...........	1425.87
	32	2.8	5.36549E-005	-3.80752E-005	0.00000E+000	5.34840E-005	0.00000E+000	9	...........	1425.87
	33	2.9	5.26867E-005	-3.76969E-005	0.00000E+000	5.34840E-005	0.00000E+000	9	...........	1425.87
	34	3	5.27078E-005	-3.73290E-005	0.00000E+000	5.34840E-005	0.00000E+000	9	...........	1425.87
	35	3.1	5.36860E-005	-3.69764E-005	0.00000E+000	5.34840E-005	0.00000E+000	9	...........	1425.87
	36	3.2	5.33766E-005	-3.66403E-005	0.00000E+000	5.34840E-005	0.00000E+000	9	...........	1425.87
	37	3.3	5.27819E-005	-3.63157E-005	0.00000E+000	5.34840E-005	0.00000E+000	9	...........	1425.87
	38	3.4	5.36499E-005	-3.59979E-005	0.00000E+000	5.34840E-005	0.00000E+000	9	...........	1425.87
	39	3.5	5.34937E-005	-3.56928E-005	0.00000E+000	5.34840E-005	0.00000E+000	9	...........	1425.87
	40	3.6	5.48674E-005	-3.53948E-005	0.00000E+000	5.34840E-005	0.00000E+000	9	...........	1425.89
	41	3.7	5.44830E-005	-3.50977E-005	0.00000E+000	5.34840E-005	0.00000E+000	9	...........	1425.95
	42	3.8	5.41385E-005	-3.48077E-005	0.00000E+000	5.34840E-005	0.00000E+000	9	...........	1425.95
	43	3.9	5.25406E-005	-3.45273E-005	0.00000E+000	5.34840E-005	0.00000E+000	9	...........	1425.95
	44	4	5.31754E-005	-3.42608E-005	0.00000E+000	5.34840E-005	0.00000E+000	9	...........	1425.95
	45	4.1	5.33536E-005	-3.39798E-005	0.00000E+000	5.34840E-005	0.00000E+000	9	...........	1425.95
	46	4.2	5.37330E-005	-3.37242E-005	0.00000E+000	5.34840E-005	0.00000E+000	9	...........	1425.95
	47	4.3	5.48094E-005	-3.34643E-005	0.00000E+000	5.34840E-005	0.00000E+000	9	...........	1425.95
	48	4.4	5.44790E-005	-3.32088E-005	0.00000E+000	5.34840E-005	0.00000E+000	9	...........	1425.95
	49	4.5	5.32855E-005	-3.29761E-005	0.00000E+000	5.34840E-005	0.00000E+000	9	...........	1425.95
	50	4.6	5.40474E-005	-3.27477E-005	0.00000E+000	5.34840E-005	0.00000E+000	9	...........	1425.95
	51	4.7	5.43428E-005	-3.25117E-005	0.00000E+000	5.34840E-005	0.00000E+000	9	...........	1425.95
	52	4.8	5.28710E-005	-3.22902E-005	0.00000E+000	5.34840E-005	0.00000E+000	9	...........	1425.95
	53	4.9	5.27829E-005	-3.20849E-005	0.00000E+000	5.34840E-005	0.00000E+000	9	...........	1425.95
	54	5	5.23523E-005	-3.18739E-005	0.00000E+000	5.34840E-005	0.00000E+000	9	...........	1425.95
	55	5.1	5.36700E-005	-3.16728E-005	0.00000E+000	5.34840E-005	0.00000E+000	9	...........	1425.95
	56	5.2	5.36569E-005	-3.14690E-005	0.00000E+000	5.34840E-005	0.00000E+000	9	...........	1425.95
	57	5.3	5.43278E-005	-3.12630E-005	0.00000E+000	5.34840E-005	0.00000E+000	9	...........	1425.95
	58	5.4	5.30832E-005	-3.10716E-005	0.00000E+000	5.34840E-005	0.00000E+000	9	...........	1425.95
	59	5.5	5.40614E-005	-3.08688E-005	0.00000E+000	5.34840E-005	0.00000E+000	9	...........	1425.95
	60	5.6	5.41515E-005	-3.06751E-005	0.00000E+000	5.34840E-005	0.00000E+000	9	...........	1425.93
	61	5.7	5.29871E-005	-3.04948E-005	0.00000E+000	5.34840E-005	0.00000E+000	9	...........	1425.87
	62	5.8	5.32234E-005	-3.03067E-005	0.00000E+000	5.34840E-005	0.00000E+000	9	...........	1425.87
	63	5.9	5.42126E-005	-3.01196E-005	0.00000E+000	5.34840E-005	0.00000E+000	9	...........	1425.87
	64	6	5.36359E-005	-2.99519E-005	0.00000E+000	5.34840E-005	0.00000E+000	9	...........	1425.87
	65	6.1	5.33896E-005	-2.97809E-005	0.00000E+000	5.34840E-005	0.00000E+000	9	...........	1425.87
	66	7.1	5.25316E-005	-2.82223E-005	0.00000E+000	5.34840E-005	0.00000E+000	9	...........	1426.13
	67	8.1	5.33225E-005	-2.69726E-005	0.00000E+000	5.34840E-005	0.00000E+000	9	...........	1426.13
	68	9.1	5.26457E-005	-2.59073E-005	0.00000E+000	5.34840E-005	0.00000E+000	9	...........	1426.13
	69	10.1	5.37961E-005	-2.48898E-005	0.00000E+000	5.34840E-005	0.00000E+000	9	...........	1426.22
	70	11.1	5.32945E-005	-2.40543E-005	0.00000E+000	5.34840E-005	0.00000E+000	9	...........	1426.22
	71	12.1	5.38051E-005	-2.33453E-005	0.00000E+000	5.34840E-005	0.00000E+000	9	...........	1426.22
	72	13.1	5.46091E-005	-2.28009E-005	0.00000E+000	5.34840E-005	0.00000E+000	9	...........	1426.13
	73	14.1	5.46341E-005	-2.22926E-005	0.00000E+000	5.34840E-005	0.00000E+000	9	...........	1426.13
	74	15.1	5.25155E-005	-2.18179E-005	0.00000E+000	5.34840E-005	0.00000E+000	9	...........	1426.13
	75	16.1	5.24765E-005	-2.13187E-005	0.00000E+000	5.34840E-005	0.00000E+000	9	...........	1426.13
	76	26.1	5.32855E-005	-1.79276E-005	0.00000E+000	5.34840E-005	0.00000E+000	9	...........	1426.13
	77	36.1	5.32424E-005	-1.66865E-005	0.00000E+000	5.34840E-005	0.00000E+000	9	...........	1426.13
	78	46.1	5.27879E-005	-1.55744E-005	0.00000E+000	5.34840E-005	0.00000E+000	9	...........	1426.13
	79	56.1	5.13842E-005	-1.54316E-005	0.00000E+000	5.34840E-005	0.00000E+000	9	...........	1426.13
	80	66.1	5.35909E-005	-1.49453E-005	0.00000E+000	5.34840E-005	0.00000E+000	9	...........	1426.13
	81	76.1	5.29441E-005	-1.47190E-005	0.00000E+000	5.34840E-005	0.00000E+000	9	...........	1426.13
	82	86.1	5.13791E-005	-1.48532E-005	0.00000E+000	5.34840E-005	0.00000E+000	9	...........	1426.13
	83	96.1	5.34226E-005	-1.46609E-005	0.00000E+000	5.34840E-005	0.00000E+000	9	...........	1426.13
	84	106.1	5.15163E-005	-1.46301E-005	0.00000E+000	5.34840E-005	0.00000E+000	9	...........	1426.13
	85	116.1	5.16485E-005	-1.44928E-005	0.00000E+000	5.34840E-005	0.00000E+000	9	...........	1426.13
	86	216.1	5.21020E-005	-1.39761E-005	0.00000E+000	5.34840E-005	0.00000E+000	9	...........	1426.13
	87	300	5.21481E-005	-1.38310E-005	0.00000E+000	5.34840E-005	0.00000E+000	9	...........	1426.13
	88	300.1	-3.29270E-002	-4.33579E-004	0.00000E+000	-9.99460E-002	0.00000E+000	9	.........v.	1426.13
	89	300.2	-9.99713E-002	-3.36335E-004	0.00000E+000	-9.99460E-002	0.00000E+000	9	...........	1426.13
	90	300.3	-9.99738E-002	-2.72504E-004	0.00000E+000	-9.99460E-002	0.00000E+000	9	...........	1426.13
	91	300.4	-9.99722E-002	-2.27272E-004	0.00000E+000	-9.99460E-002	0.00000E+000	9	...........	1426.13
	92	300.5	-9.99721E-002	-1.93667E-004	0.00000E+000	-9.99460E-002	0.00000E+000	9	...........	1426.13
	93	300.6	-9.99707E-002	-1.67831E-004	0.00000E+000	-9.99460E-002	0.00000E+000	9	...........	1426.16
	94	300.7	-9.99720E-002	-1.47503E-004	0.00000E+000	-9.99460E-002	0.00000E+000	9	...........	1426.22
	95	300.8	-9.99722E-002	-1.31164E-004	0.00000E+000	-9.99460E-002	0.00000E+000	9	...........	1426.22
	96	300.9	-9.99724E-002	-1.17848E-004	0.00000E+000	-9.99460E-002	0.00000E+000	9	...........	1426.22
	97	301	-9.99730E-002	-1.06831E-004	0.00000E+000	-9.99460E-002	0.00000E+000	9	...........	1426.22
