EXPLAIN
TAG	CHRONOA
TITLE	LABEL	Chronoamperometry Scan	Test Identifier
DATE	LABEL	10/2/2022	Date
TIME	LABEL	13:58:35	Time
NOTES	NOTES	1	Notes...
	
PSTAT	PSTAT	IFC1010-21051	Potentiostat
VPRESTEP	POTEN	1.00000E-002	F	Pre-step Voltage (V)
TPRESTEP	QUANT	5.00000E-001	Pre-step Delay Time (s)
VSTEP1	POTEN	0.00000E+000	F	Step 1 Voltage (V)
TSTEP1	QUANT	3.00000E+002	Step 1 Time (s)
VSTEP2	POTEN	-1.00000E-001	F	Step 2 Voltage (V)
TSTEP2	QUANT	1.00000E+000	Step 2 Time (s)
SAMPLETIME	QUANT	1.00000E-001	Sample Period (s)
DECIMATE	TOGGLE	T	Decimate
ILIMIT	QUANT	1.00000E+000	Limit I (mA/cm^2)
IMODE	SELECTOR	1	I/E Range Mode
IRANGE	QUANT	3.00000E-001	Max Current (mA)
EQDELAY	QUANT	5.00000E+000	Equil. Time (s)
SAMPLINGMODE	SELECTOR	1	Sampling Mode
AREA	QUANT	1.00000E+000	Sample Area (cm^2)
IRCOMP	SELECTOR	0	IRComp
PFCOR	QUANT	5.00000E+001	PF Corr. (ohm)
SEQUENCER	TOGGLE	TRUE	Run as Sequence
PSTATMODEL	IQUANT	64	Pstat Model
PSTATSECTION	LABEL	IFC1010-21051	Pstat Section
PSTATSERIALNO	LABEL	21051	Pstat Serial Number
CTRLMODE	IQUANT	1	Control Mode
ELECTROMETER	IQUANT	0	RE=0 or CS=1
IESTAB	IQUANT	0	I/E Stability
CASPEED	IQUANT	4	Control Amp Speed
CONVENTION	IQUANT	1	Current Convention
ICHRANGE	IQUANT	2	Ich Range
ICHRANGEMODE	TOGGLE	T	Ich Auto Range
ICHOFFSETENABLE	TOGGLE	F	Ich Offset Enable
ICHOFFSET	QUANT	0	Ich Offset (V)
ICHFILTER	IQUANT	3	Ich Filter
VCHRANGE	IQUANT	3	Vch Range
VCHRANGEMODE	TOGGLE	T	Vch Auto Range
VCHOFFSETENABLE	TOGGLE	F	Vch Offset Enable
VCHOFFSET	QUANT	0	Vch Offset (V)
VCHFILTER	IQUANT	3	Vch Filter
IERANGELOWERLIMIT	IQUANT	4	I/E Range Lower Limit
IERANGEMODE	TOGGLE	F	I/E AutoRange
IERANGE	IQUANT	9	I/E Range
ACHSELECT	IQUANT	0	Ach Select
ACHRANGE	IQUANT	2	Ach Range
ACHOFFSETENABLE	TOGGLE	F	Ach Offset Enable
ACHOFFSET	QUANT	0	Ach Offset (V)
ACHFILTER	IQUANT	1	Ach Filter
SENSECABLEID	IQUANT	14	Sense Cable ID
PWRCABLEID	IQUANT	14	Power Cable ID
DCCALDATE	LABEL	1/24/2022	DC Calibration Date
ACCALDATE	LABEL	4/2/2018	AC Calibration Date
FRAMEWORKVERSION	QUANT	7.06	Framework Version
INSTRUMENTVERSION	LABEL	4.30	Instrument Version
CURVE	TABLE	98
	Pt	T	Vf	Im	Vu	Sig	Ach	IERange	Over	Temp
	#	s	V vs. Ref.	A	V	V	V	#	bits	deg C
	0	-0.4	9.20949E-003	-2.47151E-005	0.00000E+000	1.00559E-002	0.00000E+000	9	...........	1426.04
	1	-0.3	9.87990E-003	-2.44831E-005	0.00000E+000	1.00559E-002	0.00000E+000	9	...........	1426.04
	2	-0.2	1.00391E-002	-2.42534E-005	0.00000E+000	1.00559E-002	0.00000E+000	9	...........	1426.04
	3	-0.1	1.00552E-002	-2.40366E-005	0.00000E+000	1.00559E-002	0.00000E+000	9	...........	1426.04
	4	0	1.00555E-002	-2.38267E-005	0.00000E+000	1.00559E-002	0.00000E+000	9	...........	1426.04
	5	0.1	4.93546E-005	-6.35972E-005	0.00000E+000	5.34840E-005	0.00000E+000	9	...........	1426.04
	6	0.2	4.80270E-005	-5.21823E-005	0.00000E+000	5.34840E-005	0.00000E+000	9	...........	1426.04
	7	0.3	4.74913E-005	-4.49652E-005	0.00000E+000	5.34840E-005	0.00000E+000	9	...........	1426.04
	8	0.4	4.84445E-005	-4.01199E-005	0.00000E+000	5.34840E-005	0.00000E+000	9	...........	1426.04
	9	0.5	4.85106E-005	-3.67416E-005	0.00000E+000	5.34840E-005	0.00000E+000	9	...........	1426.04
	10	0.6	4.83384E-005	-3.43121E-005	0.00000E+000	5.34840E-005	0.00000E+000	9	...........	1426.04
	11	0.7	4.83664E-005	-3.25276E-005	0.00000E+000	5.34840E-005	0.00000E+000	9	...........	1426.04
	12	0.8	4.86788E-005	-3.11598E-005	0.00000E+000	5.34840E-005	0.00000E+000	9	...........	1426.04
	13	0.9	4.73081E-005	-3.00952E-005	0.00000E+000	5.34840E-005	0.00000E+000	9	...........	1426.04
	14	1	4.72591E-005	-2.92383E-005	0.00000E+000	5.34840E-005	0.00000E+000	9	...........	1426.04
	15	1.1	4.72741E-005	-2.85309E-005	0.00000E+000	5.34840E-005	0.00000E+000	9	...........	1426.40
	16	1.2	4.77046E-005	-2.79533E-005	0.00000E+000	5.34840E-005	0.00000E+000	9	...........	1426.40
	17	1.3	4.82823E-005	-2.74383E-005	0.00000E+000	5.34840E-005	0.00000E+000	9	...........	1426.40
	18	1.4	4.70548E-005	-2.70018E-005	0.00000E+000	5.34840E-005	0.00000E+000	9	...........	1426.40
	19	1.5	4.62558E-005	-2.66165E-005	0.00000E+000	5.34840E-005	0.00000E+000	9	...........	1426.40
	20	1.6	4.66743E-005	-2.62651E-005	0.00000E+000	5.34840E-005	0.00000E+000	9	...........	1426.40
	21	1.7	4.77387E-005	-2.59378E-005	0.00000E+000	5.34840E-005	0.00000E+000	9	...........	1426.40
	22	1.8	4.70148E-005	-2.56518E-005	0.00000E+000	5.34840E-005	0.00000E+000	9	...........	1426.40
	23	1.9	4.70278E-005	-2.53865E-005	0.00000E+000	5.34840E-005	0.00000E+000	9	...........	1426.40
	24	2	4.77116E-005	-2.51460E-005	0.00000E+000	5.34840E-005	0.00000E+000	9	...........	1426.40
	25	2.1	4.67595E-005	-2.49009E-005	0.00000E+000	5.34840E-005	0.00000E+000	9	...........	1426.40
	26	2.2	4.78768E-005	-2.46813E-005	0.00000E+000	5.34840E-005	0.00000E+000	9	...........	1426.40
	27	2.3	4.78088E-005	-2.44717E-005	0.00000E+000	5.34840E-005	0.00000E+000	9	...........	1426.40
	28	2.4	4.80510E-005	-2.42780E-005	0.00000E+000	5.34840E-005	0.00000E+000	9	...........	1426.40
	29	2.5	4.71860E-005	-2.41020E-005	0.00000E+000	5.34840E-005	0.00000E+000	9	...........	1426.40
	30	2.6	4.75695E-005	-2.39287E-005	0.00000E+000	5.34840E-005	0.00000E+000	9	...........	1426.40
	31	2.7	4.73161E-005	-2.37729E-005	0.00000E+000	5.34840E-005	0.00000E+000	9	...........	1426.40
	32	2.8	4.86999E-005	-2.36148E-005	0.00000E+000	5.34840E-005	0.00000E+000	9	...........	1426.40
	33	2.9	4.81902E-005	-2.34586E-005	0.00000E+000	5.34840E-005	0.00000E+000	9	...........	1426.40
	34	3	4.75184E-005	-2.33310E-005	0.00000E+000	5.34840E-005	0.00000E+000	9	...........	1426.40
	35	3.1	4.80781E-005	-2.31933E-005	0.00000E+000	5.34840E-005	0.00000E+000	9	...........	1426.04
	36	3.2	4.77987E-005	-2.30696E-005	0.00000E+000	5.34840E-005	0.00000E+000	9	...........	1426.04
	37	3.3	4.71609E-005	-2.29338E-005	0.00000E+000	5.34840E-005	0.00000E+000	9	...........	1426.04
	38	3.4	4.80490E-005	-2.27800E-005	0.00000E+000	5.34840E-005	0.00000E+000	9	...........	1426.04
	39	3.5	4.78328E-005	-2.26469E-005	0.00000E+000	5.34840E-005	0.00000E+000	9	...........	1426.04
	40	3.6	4.70708E-005	-2.25322E-005	0.00000E+000	5.34840E-005	0.00000E+000	9	...........	1426.04
	41	3.7	4.78077E-005	-2.24117E-005	0.00000E+000	5.34840E-005	0.00000E+000	9	...........	1426.04
	42	3.8	4.65772E-005	-2.22998E-005	0.00000E+000	5.34840E-005	0.00000E+000	9	...........	1426.04
	43	3.9	4.84846E-005	-2.21735E-005	0.00000E+000	5.34840E-005	0.00000E+000	9	...........	1426.04
	44	4	4.66814E-005	-2.20681E-005	0.00000E+000	5.34840E-005	0.00000E+000	9	...........	1426.04
	45	4.1	4.88340E-005	-2.19685E-005	0.00000E+000	5.34840E-005	0.00000E+000	9	...........	1425.95
	46	4.2	4.81472E-005	-2.18894E-005	0.00000E+000	5.34840E-005	0.00000E+000	9	...........	1425.95
	47	4.3	4.80771E-005	-2.17954E-005	0.00000E+000	5.34840E-005	0.00000E+000	9	...........	1425.95
	48	4.4	4.94538E-005	-2.16828E-005	0.00000E+000	5.34840E-005	0.00000E+000	9	...........	1425.95
	49	4.5	4.90042E-005	-2.15844E-005	0.00000E+000	5.34840E-005	0.00000E+000	9	...........	1425.95
	50	4.6	4.92095E-005	-2.15051E-005	0.00000E+000	5.34840E-005	0.00000E+000	9	...........	1425.95
	51	4.7	4.74133E-005	-2.14218E-005	0.00000E+000	5.34840E-005	0.00000E+000	9	...........	1425.95
	52	4.8	4.83504E-005	-2.13212E-005	0.00000E+000	5.34840E-005	0.00000E+000	9	...........	1425.95
	53	4.9	4.87539E-005	-2.12419E-005	0.00000E+000	5.34840E-005	0.00000E+000	9	...........	1425.95
	54	5	4.85146E-005	-2.11458E-005	0.00000E+000	5.34840E-005	0.00000E+000	9	...........	1425.95
	55	5.1	4.67645E-005	-2.10603E-005	0.00000E+000	5.34840E-005	0.00000E+000	9	...........	1426.13
	56	5.2	4.83564E-005	-2.09652E-005	0.00000E+000	5.34840E-005	0.00000E+000	9	...........	1426.13
	57	5.3	4.70969E-005	-2.08832E-005	0.00000E+000	5.34840E-005	0.00000E+000	9	...........	1426.13
	58	5.4	4.79679E-005	-2.07953E-005	0.00000E+000	5.34840E-005	0.00000E+000	9	...........	1426.13
	59	5.5	4.92565E-005	-2.07080E-005	0.00000E+000	5.34840E-005	0.00000E+000	9	...........	1426.13
	60	5.6	4.77777E-005	-2.06254E-005	0.00000E+000	5.34840E-005	0.00000E+000	9	...........	1426.13
	61	5.7	4.75354E-005	-2.05439E-005	0.00000E+000	5.34840E-005	0.00000E+000	9	...........	1426.13
	62	5.8	4.74122E-005	-2.04682E-005	0.00000E+000	5.34840E-005	0.00000E+000	9	...........	1426.13
	63	5.9	4.87139E-005	-2.03820E-005	0.00000E+000	5.34840E-005	0.00000E+000	9	...........	1426.13
	64	6	4.77497E-005	-2.03038E-005	0.00000E+000	5.34840E-005	0.00000E+000	9	...........	1426.13
	65	6.1	4.87179E-005	-2.02203E-005	0.00000E+000	5.34840E-005	0.00000E+000	9	...........	1425.95
	66	7.1	4.74723E-005	-1.95247E-005	0.00000E+000	5.34840E-005	0.00000E+000	9	...........	1426.22
	67	8.1	4.73101E-005	-1.90032E-005	0.00000E+000	5.34840E-005	0.00000E+000	9	...........	1426.31
	68	9.1	4.62058E-005	-1.84585E-005	0.00000E+000	5.34840E-005	0.00000E+000	9	...........	1426.40
	69	10.1	4.72230E-005	-1.78557E-005	0.00000E+000	5.34840E-005	0.00000E+000	9	...........	1426.40
	70	11.1	4.68496E-005	-1.73894E-005	0.00000E+000	5.34840E-005	0.00000E+000	9	...........	1426.40
	71	12.1	4.65302E-005	-1.69679E-005	0.00000E+000	5.34840E-005	0.00000E+000	9	...........	1426.40
	72	13.1	4.69417E-005	-1.66582E-005	0.00000E+000	5.34840E-005	0.00000E+000	9	...........	1426.40
	73	14.1	4.72811E-005	-1.62407E-005	0.00000E+000	5.34840E-005	0.00000E+000	9	...........	1426.40
	74	15.1	4.72470E-005	-1.59957E-005	0.00000E+000	5.34840E-005	0.00000E+000	9	...........	1426.40
	75	16.1	4.82313E-005	-1.58638E-005	0.00000E+000	5.34840E-005	0.00000E+000	9	...........	1426.40
	76	26.1	4.75574E-005	-1.39670E-005	0.00000E+000	5.34840E-005	0.00000E+000	9	...........	1426.40
	77	36.1	4.67755E-005	-1.30863E-005	0.00000E+000	5.34840E-005	0.00000E+000	9	...........	1426.31
	78	46.1	4.62338E-005	-1.25998E-005	0.00000E+000	5.34840E-005	0.00000E+000	9	...........	1426.40
	79	56.1	4.60706E-005	-1.21550E-005	0.00000E+000	5.34840E-005	0.00000E+000	9	...........	1426.40
	80	66.1	4.67074E-005	-1.21190E-005	0.00000E+000	5.34840E-005	0.00000E+000	9	...........	1426.31
	81	76.1	4.79309E-005	-1.17358E-005	0.00000E+000	5.34840E-005	0.00000E+000	9	...........	1426.31
	82	86.1	4.58824E-005	-1.17597E-005	0.00000E+000	5.34840E-005	0.00000E+000	9	...........	1426.31
	83	96.1	4.60576E-005	-1.18693E-005	0.00000E+000	5.34840E-005	0.00000E+000	9	...........	1426.40
	84	106.1	4.67655E-005	-1.15975E-005	0.00000E+000	5.34840E-005	0.00000E+000	9	...........	1426.31
	85	116.1	4.62789E-005	-1.17771E-005	0.00000E+000	5.34840E-005	0.00000E+000	9	...........	1426.31
	86	216.1	4.69847E-005	-1.15056E-005	0.00000E+000	5.34840E-005	0.00000E+000	9	...........	1426.40
	87	300	4.80791E-005	-1.12129E-005	0.00000E+000	5.34840E-005	0.00000E+000	9	...........	1426.40
	88	300.1	-3.29270E-002	-4.03986E-004	0.00000E+000	-9.99460E-002	0.00000E+000	9	.........v.	1426.40
	89	300.2	-9.99781E-002	-2.91724E-004	0.00000E+000	-9.99460E-002	0.00000E+000	9	...........	1426.40
	90	300.3	-9.99791E-002	-2.23556E-004	0.00000E+000	-9.99460E-002	0.00000E+000	9	...........	1426.40
	91	300.4	-9.99787E-002	-1.79012E-004	0.00000E+000	-9.99460E-002	0.00000E+000	9	...........	1426.40
	92	300.5	-9.99767E-002	-1.48392E-004	0.00000E+000	-9.99460E-002	0.00000E+000	9	...........	1426.40
	93	300.6	-9.99790E-002	-1.26521E-004	0.00000E+000	-9.99460E-002	0.00000E+000	9	...........	1426.40
	94	300.7	-9.99775E-002	-1.10346E-004	0.00000E+000	-9.99460E-002	0.00000E+000	9	...........	1426.40
	95	300.8	-9.99780E-002	-9.80465E-005	0.00000E+000	-9.99460E-002	0.00000E+000	9	...........	1426.40
	96	300.9	-9.99781E-002	-8.84942E-005	0.00000E+000	-9.99460E-002	0.00000E+000	9	...........	1426.40
	97	301	-9.99779E-002	-8.08883E-005	0.00000E+000	-9.99460E-002	0.00000E+000	9	...........	1426.40
