EXPLAIN
TAG	CHRONOA
TITLE	LABEL	Chronoamperometry Scan	Test Identifier
DATE	LABEL	10/2/2022	Date
TIME	LABEL	15:24:07	Time
NOTES	NOTES	1	Notes...
	
PSTAT	PSTAT	IFC1010-21051	Potentiostat
VPRESTEP	POTEN	1.00000E-002	F	Pre-step Voltage (V)
TPRESTEP	QUANT	5.00000E-001	Pre-step Delay Time (s)
VSTEP1	POTEN	0.00000E+000	F	Step 1 Voltage (V)
TSTEP1	QUANT	3.00000E+002	Step 1 Time (s)
VSTEP2	POTEN	-1.00000E-001	F	Step 2 Voltage (V)
TSTEP2	QUANT	1.00000E+000	Step 2 Time (s)
SAMPLETIME	QUANT	1.00000E-001	Sample Period (s)
DECIMATE	TOGGLE	T	Decimate
ILIMIT	QUANT	1.00000E+000	Limit I (mA/cm^2)
IMODE	SELECTOR	1	I/E Range Mode
IRANGE	QUANT	3.00000E-001	Max Current (mA)
EQDELAY	QUANT	5.00000E+000	Equil. Time (s)
SAMPLINGMODE	SELECTOR	1	Sampling Mode
AREA	QUANT	1.00000E+000	Sample Area (cm^2)
IRCOMP	SELECTOR	0	IRComp
PFCOR	QUANT	5.00000E+001	PF Corr. (ohm)
SEQUENCER	TOGGLE	TRUE	Run as Sequence
PSTATMODEL	IQUANT	64	Pstat Model
PSTATSECTION	LABEL	IFC1010-21051	Pstat Section
PSTATSERIALNO	LABEL	21051	Pstat Serial Number
CTRLMODE	IQUANT	1	Control Mode
ELECTROMETER	IQUANT	0	RE=0 or CS=1
IESTAB	IQUANT	0	I/E Stability
CASPEED	IQUANT	4	Control Amp Speed
CONVENTION	IQUANT	1	Current Convention
ICHRANGE	IQUANT	2	Ich Range
ICHRANGEMODE	TOGGLE	T	Ich Auto Range
ICHOFFSETENABLE	TOGGLE	F	Ich Offset Enable
ICHOFFSET	QUANT	0	Ich Offset (V)
ICHFILTER	IQUANT	3	Ich Filter
VCHRANGE	IQUANT	3	Vch Range
VCHRANGEMODE	TOGGLE	T	Vch Auto Range
VCHOFFSETENABLE	TOGGLE	F	Vch Offset Enable
VCHOFFSET	QUANT	0	Vch Offset (V)
VCHFILTER	IQUANT	3	Vch Filter
IERANGELOWERLIMIT	IQUANT	4	I/E Range Lower Limit
IERANGEMODE	TOGGLE	F	I/E AutoRange
IERANGE	IQUANT	9	I/E Range
ACHSELECT	IQUANT	0	Ach Select
ACHRANGE	IQUANT	2	Ach Range
ACHOFFSETENABLE	TOGGLE	F	Ach Offset Enable
ACHOFFSET	QUANT	0	Ach Offset (V)
ACHFILTER	IQUANT	1	Ach Filter
SENSECABLEID	IQUANT	14	Sense Cable ID
PWRCABLEID	IQUANT	14	Power Cable ID
DCCALDATE	LABEL	1/24/2022	DC Calibration Date
ACCALDATE	LABEL	4/2/2018	AC Calibration Date
FRAMEWORKVERSION	QUANT	7.06	Framework Version
INSTRUMENTVERSION	LABEL	4.30	Instrument Version
CURVE	TABLE	98
	Pt	T	Vf	Im	Vu	Sig	Ach	IERange	Over	Temp
	#	s	V vs. Ref.	A	V	V	V	#	bits	deg C
	0	-0.4	9.13982E-003	-3.11024E-005	0.00000E+000	1.00559E-002	0.00000E+000	9	...........	1426.13
	1	-0.3	9.86319E-003	-3.07361E-005	0.00000E+000	1.00559E-002	0.00000E+000	9	...........	1426.13
	2	-0.2	1.00378E-002	-3.03915E-005	0.00000E+000	1.00559E-002	0.00000E+000	9	...........	1426.13
	3	-0.1	1.00544E-002	-3.00554E-005	0.00000E+000	1.00559E-002	0.00000E+000	9	...........	1426.13
	4	0	1.00554E-002	-2.97192E-005	0.00000E+000	1.00559E-002	0.00000E+000	9	...........	1426.13
	5	0.1	4.79830E-005	-7.25256E-005	0.00000E+000	5.34840E-005	0.00000E+000	9	...........	1426.13
	6	0.2	4.78007E-005	-6.21957E-005	0.00000E+000	5.34840E-005	0.00000E+000	9	...........	1426.13
	7	0.3	4.70358E-005	-5.52905E-005	0.00000E+000	5.34840E-005	0.00000E+000	9	...........	1426.13
	8	0.4	4.68886E-005	-5.03477E-005	0.00000E+000	5.34840E-005	0.00000E+000	9	...........	1426.13
	9	0.5	4.70158E-005	-4.66453E-005	0.00000E+000	5.34840E-005	0.00000E+000	9	...........	1426.13
	10	0.6	4.69266E-005	-4.37881E-005	0.00000E+000	5.34840E-005	0.00000E+000	9	...........	1426.13
	11	0.7	4.71369E-005	-4.15147E-005	0.00000E+000	5.34840E-005	0.00000E+000	9	...........	1426.13
	12	0.8	4.79159E-005	-3.96695E-005	0.00000E+000	5.34840E-005	0.00000E+000	9	...........	1426.13
	13	0.9	4.64931E-005	-3.81445E-005	0.00000E+000	5.34840E-005	0.00000E+000	9	...........	1426.13
	14	1	4.68005E-005	-3.68511E-005	0.00000E+000	5.34840E-005	0.00000E+000	9	...........	1426.13
	15	1.1	4.64721E-005	-3.57585E-005	0.00000E+000	5.34840E-005	0.00000E+000	9	...........	1426.13
	16	1.2	4.74413E-005	-3.47924E-005	0.00000E+000	5.34840E-005	0.00000E+000	9	...........	1426.13
	17	1.3	4.60926E-005	-3.39504E-005	0.00000E+000	5.34840E-005	0.00000E+000	9	...........	1426.49
	18	1.4	4.71139E-005	-3.31995E-005	0.00000E+000	5.34840E-005	0.00000E+000	9	...........	1426.49
	19	1.5	4.69747E-005	-3.25275E-005	0.00000E+000	5.34840E-005	0.00000E+000	9	...........	1426.49
	20	1.6	4.69026E-005	-3.19209E-005	0.00000E+000	5.34840E-005	0.00000E+000	9	...........	1426.49
	21	1.7	4.68446E-005	-3.13631E-005	0.00000E+000	5.34840E-005	0.00000E+000	9	...........	1426.49
	22	1.8	4.69757E-005	-3.08662E-005	0.00000E+000	5.34840E-005	0.00000E+000	9	...........	1426.49
	23	1.9	4.76456E-005	-3.03907E-005	0.00000E+000	5.34840E-005	0.00000E+000	9	...........	1426.49
	24	2	4.71229E-005	-2.99691E-005	0.00000E+000	5.34840E-005	0.00000E+000	9	...........	1426.49
	25	2.1	4.77617E-005	-2.95622E-005	0.00000E+000	5.34840E-005	0.00000E+000	9	...........	1426.49
	26	2.2	4.74753E-005	-2.91968E-005	0.00000E+000	5.34840E-005	0.00000E+000	9	...........	1426.49
	27	2.3	4.65752E-005	-2.88495E-005	0.00000E+000	5.34840E-005	0.00000E+000	9	...........	1426.31
	28	2.4	4.63029E-005	-2.85112E-005	0.00000E+000	5.34840E-005	0.00000E+000	9	...........	1426.31
	29	2.5	4.60396E-005	-2.81965E-005	0.00000E+000	5.34840E-005	0.00000E+000	9	...........	1426.31
	30	2.6	4.64411E-005	-2.78889E-005	0.00000E+000	5.34840E-005	0.00000E+000	9	...........	1426.31
	31	2.7	4.55430E-005	-2.76135E-005	0.00000E+000	5.34840E-005	0.00000E+000	9	...........	1426.31
	32	2.8	4.58744E-005	-2.73365E-005	0.00000E+000	5.34840E-005	0.00000E+000	9	...........	1426.31
	33	2.9	4.45387E-005	-2.70822E-005	0.00000E+000	5.34840E-005	0.00000E+000	9	...........	1426.31
	34	3	4.39600E-005	-2.68266E-005	0.00000E+000	5.34840E-005	0.00000E+000	9	...........	1426.31
	35	3.1	4.45347E-005	-2.65820E-005	0.00000E+000	5.34840E-005	0.00000E+000	9	...........	1426.31
	36	3.2	4.64861E-005	-2.63455E-005	0.00000E+000	5.34840E-005	0.00000E+000	9	...........	1426.31
	37	3.3	4.59404E-005	-2.61307E-005	0.00000E+000	5.34840E-005	0.00000E+000	9	...........	1426.40
	38	3.4	4.62308E-005	-2.59128E-005	0.00000E+000	5.34840E-005	0.00000E+000	9	...........	1426.40
	39	3.5	4.59885E-005	-2.57237E-005	0.00000E+000	5.34840E-005	0.00000E+000	9	...........	1426.40
	40	3.6	4.67104E-005	-2.55300E-005	0.00000E+000	5.34840E-005	0.00000E+000	9	...........	1426.40
	41	3.7	4.60426E-005	-2.53497E-005	0.00000E+000	5.34840E-005	0.00000E+000	9	...........	1426.40
	42	3.8	4.67464E-005	-2.51753E-005	0.00000E+000	5.34840E-005	0.00000E+000	9	...........	1426.40
	43	3.9	4.60866E-005	-2.50165E-005	0.00000E+000	5.34840E-005	0.00000E+000	9	...........	1426.40
	44	4	4.60185E-005	-2.48408E-005	0.00000E+000	5.34840E-005	0.00000E+000	9	...........	1426.40
	45	4.1	4.73502E-005	-2.46808E-005	0.00000E+000	5.34840E-005	0.00000E+000	9	...........	1426.40
	46	4.2	4.57762E-005	-2.45268E-005	0.00000E+000	5.34840E-005	0.00000E+000	9	...........	1426.40
	47	4.3	4.66343E-005	-2.43748E-005	0.00000E+000	5.34840E-005	0.00000E+000	9	...........	1426.40
	48	4.4	4.64761E-005	-2.42207E-005	0.00000E+000	5.34840E-005	0.00000E+000	9	...........	1426.40
	49	4.5	4.58924E-005	-2.40818E-005	0.00000E+000	5.34840E-005	0.00000E+000	9	...........	1426.40
	50	4.6	4.54929E-005	-2.39509E-005	0.00000E+000	5.34840E-005	0.00000E+000	9	...........	1426.40
	51	4.7	4.51875E-005	-2.38149E-005	0.00000E+000	5.34840E-005	0.00000E+000	9	...........	1426.40
	52	4.8	4.58373E-005	-2.36769E-005	0.00000E+000	5.34840E-005	0.00000E+000	9	...........	1426.40
	53	4.9	4.56961E-005	-2.35452E-005	0.00000E+000	5.34840E-005	0.00000E+000	9	...........	1426.40
	54	5	4.64981E-005	-2.34096E-005	0.00000E+000	5.34840E-005	0.00000E+000	9	...........	1426.40
	55	5.1	4.61247E-005	-2.32769E-005	0.00000E+000	5.34840E-005	0.00000E+000	9	...........	1426.40
	56	5.2	4.68686E-005	-2.31557E-005	0.00000E+000	5.34840E-005	0.00000E+000	9	...........	1426.40
	57	5.3	4.76986E-005	-2.30403E-005	0.00000E+000	5.34840E-005	0.00000E+000	9	...........	1426.40
	58	5.4	4.64901E-005	-2.29341E-005	0.00000E+000	5.34840E-005	0.00000E+000	9	...........	1426.40
	59	5.5	4.63189E-005	-2.28315E-005	0.00000E+000	5.34840E-005	0.00000E+000	9	...........	1426.40
	60	5.6	4.63890E-005	-2.27153E-005	0.00000E+000	5.34840E-005	0.00000E+000	9	...........	1426.40
	61	5.7	4.60466E-005	-2.26272E-005	0.00000E+000	5.34840E-005	0.00000E+000	9	...........	1426.40
	62	5.8	4.59394E-005	-2.25283E-005	0.00000E+000	5.34840E-005	0.00000E+000	9	...........	1426.40
	63	5.9	4.62558E-005	-2.24270E-005	0.00000E+000	5.34840E-005	0.00000E+000	9	...........	1426.40
	64	6	4.63760E-005	-2.23373E-005	0.00000E+000	5.34840E-005	0.00000E+000	9	...........	1426.40
	65	6.1	4.56010E-005	-2.22428E-005	0.00000E+000	5.34840E-005	0.00000E+000	9	...........	1426.40
	66	7.1	4.52646E-005	-2.13530E-005	0.00000E+000	5.34840E-005	0.00000E+000	9	...........	1426.40
	67	8.1	4.62959E-005	-2.05960E-005	0.00000E+000	5.34840E-005	0.00000E+000	9	...........	1426.40
	68	9.1	4.70208E-005	-1.98901E-005	0.00000E+000	5.34840E-005	0.00000E+000	9	...........	1426.49
	69	10.1	4.66073E-005	-1.93063E-005	0.00000E+000	5.34840E-005	0.00000E+000	9	...........	1426.49
	70	11.1	4.47310E-005	-1.88058E-005	0.00000E+000	5.34840E-005	0.00000E+000	9	...........	1426.49
	71	12.1	4.68866E-005	-1.83782E-005	0.00000E+000	5.34840E-005	0.00000E+000	9	...........	1426.49
	72	13.1	4.59895E-005	-1.79442E-005	0.00000E+000	5.34840E-005	0.00000E+000	9	...........	1426.49
	73	14.1	4.68225E-005	-1.75416E-005	0.00000E+000	5.34840E-005	0.00000E+000	9	...........	1426.49
	74	15.1	4.84886E-005	-1.72143E-005	0.00000E+000	5.34840E-005	0.00000E+000	9	...........	1426.49
	75	16.1	4.75945E-005	-1.68699E-005	0.00000E+000	5.34840E-005	0.00000E+000	9	...........	1426.49
	76	26.1	4.70558E-005	-1.53393E-005	0.00000E+000	5.34840E-005	0.00000E+000	9	...........	1426.57
	77	36.1	4.70708E-005	-1.42772E-005	0.00000E+000	5.34840E-005	0.00000E+000	9	...........	1426.49
	78	46.1	4.59024E-005	-1.41308E-005	0.00000E+000	5.34840E-005	0.00000E+000	9	...........	1426.49
	79	56.1	4.80681E-005	-1.39824E-005	0.00000E+000	5.34840E-005	0.00000E+000	9	...........	1426.49
	80	66.1	4.63509E-005	-1.36986E-005	0.00000E+000	5.34840E-005	0.00000E+000	9	...........	1426.49
	81	76.1	4.65121E-005	-1.38640E-005	0.00000E+000	5.34840E-005	0.00000E+000	9	...........	1426.49
	82	86.1	4.86077E-005	-1.37966E-005	0.00000E+000	5.34840E-005	0.00000E+000	9	...........	1426.49
	83	96.1	4.82773E-005	-1.36180E-005	0.00000E+000	5.34840E-005	0.00000E+000	9	...........	1426.49
	84	106.1	4.55570E-005	-1.38781E-005	0.00000E+000	5.34840E-005	0.00000E+000	9	...........	1426.57
	85	116.1	4.71790E-005	-1.36606E-005	0.00000E+000	5.34840E-005	0.00000E+000	9	...........	1426.49
	86	216.1	4.68676E-005	-1.37186E-005	0.00000E+000	5.34840E-005	0.00000E+000	9	...........	1426.57
	87	300	4.73532E-005	-1.33388E-005	0.00000E+000	5.34840E-005	0.00000E+000	9	...........	1426.57
	88	300.1	-3.29270E-002	-4.18786E-004	0.00000E+000	-9.99460E-002	0.00000E+000	9	.........v.	1426.57
	89	300.2	-9.99777E-002	-3.12007E-004	0.00000E+000	-9.99460E-002	0.00000E+000	9	...........	1426.57
	90	300.3	-9.99788E-002	-2.45516E-004	0.00000E+000	-9.99460E-002	0.00000E+000	9	...........	1426.57
	91	300.4	-9.99762E-002	-2.00053E-004	0.00000E+000	-9.99460E-002	0.00000E+000	9	...........	1426.57
	92	300.5	-9.99781E-002	-1.67235E-004	0.00000E+000	-9.99460E-002	0.00000E+000	9	...........	1426.57
	93	300.6	-9.99784E-002	-1.42679E-004	0.00000E+000	-9.99460E-002	0.00000E+000	9	...........	1426.57
	94	300.7	-9.99790E-002	-1.23800E-004	0.00000E+000	-9.99460E-002	0.00000E+000	9	...........	1426.57
	95	300.8	-9.99793E-002	-1.08998E-004	0.00000E+000	-9.99460E-002	0.00000E+000	9	...........	1426.57
	96	300.9	-9.99799E-002	-9.71895E-005	0.00000E+000	-9.99460E-002	0.00000E+000	9	...........	1426.57
	97	301	-9.99801E-002	-8.76467E-005	0.00000E+000	-9.99460E-002	0.00000E+000	9	...........	1426.57
