EXPLAIN
TAG	CHRONOA
TITLE	LABEL	Chronoamperometry Scan	Test Identifier
DATE	LABEL	10/2/2022	Date
TIME	LABEL	13:03:25	Time
NOTES	NOTES	1	Notes...
	
PSTAT	PSTAT	IFC1010-21051	Potentiostat
VPRESTEP	POTEN	3.00000E-001	F	Pre-step Voltage (V)
TPRESTEP	QUANT	5.00000E-001	Pre-step Delay Time (s)
VSTEP1	POTEN	4.00000E-001	F	Step 1 Voltage (V)
TSTEP1	QUANT	3.00000E+002	Step 1 Time (s)
VSTEP2	POTEN	3.00000E-001	F	Step 2 Voltage (V)
TSTEP2	QUANT	1.00000E+000	Step 2 Time (s)
SAMPLETIME	QUANT	1.00000E-001	Sample Period (s)
DECIMATE	TOGGLE	T	Decimate
ILIMIT	QUANT	1.00000E+000	Limit I (mA/cm^2)
IMODE	SELECTOR	1	I/E Range Mode
IRANGE	QUANT	3.00000E-001	Max Current (mA)
EQDELAY	QUANT	5.00000E+000	Equil. Time (s)
SAMPLINGMODE	SELECTOR	1	Sampling Mode
AREA	QUANT	1.00000E+000	Sample Area (cm^2)
IRCOMP	SELECTOR	0	IRComp
PFCOR	QUANT	5.00000E+001	PF Corr. (ohm)
SEQUENCER	TOGGLE	TRUE	Run as Sequence
PSTATMODEL	IQUANT	64	Pstat Model
PSTATSECTION	LABEL	IFC1010-21051	Pstat Section
PSTATSERIALNO	LABEL	21051	Pstat Serial Number
CTRLMODE	IQUANT	1	Control Mode
ELECTROMETER	IQUANT	0	RE=0 or CS=1
IESTAB	IQUANT	0	I/E Stability
CASPEED	IQUANT	4	Control Amp Speed
CONVENTION	IQUANT	1	Current Convention
ICHRANGE	IQUANT	2	Ich Range
ICHRANGEMODE	TOGGLE	T	Ich Auto Range
ICHOFFSETENABLE	TOGGLE	F	Ich Offset Enable
ICHOFFSET	QUANT	0	Ich Offset (V)
ICHFILTER	IQUANT	3	Ich Filter
VCHRANGE	IQUANT	3	Vch Range
VCHRANGEMODE	TOGGLE	T	Vch Auto Range
VCHOFFSETENABLE	TOGGLE	F	Vch Offset Enable
VCHOFFSET	QUANT	0	Vch Offset (V)
VCHFILTER	IQUANT	3	Vch Filter
IERANGELOWERLIMIT	IQUANT	4	I/E Range Lower Limit
IERANGEMODE	TOGGLE	F	I/E AutoRange
IERANGE	IQUANT	9	I/E Range
ACHSELECT	IQUANT	0	Ach Select
ACHRANGE	IQUANT	2	Ach Range
ACHOFFSETENABLE	TOGGLE	F	Ach Offset Enable
ACHOFFSET	QUANT	0	Ach Offset (V)
ACHFILTER	IQUANT	1	Ach Filter
SENSECABLEID	IQUANT	14	Sense Cable ID
PWRCABLEID	IQUANT	14	Power Cable ID
DCCALDATE	LABEL	1/24/2022	DC Calibration Date
ACCALDATE	LABEL	4/2/2018	AC Calibration Date
FRAMEWORKVERSION	QUANT	7.06	Framework Version
INSTRUMENTVERSION	LABEL	4.30	Instrument Version
CURVE	TABLE	98
	Pt	T	Vf	Im	Vu	Sig	Ach	IERange	Over	Temp
	#	s	V vs. Ref.	A	V	V	V	#	bits	deg C
	0	-0.4	2.99644E-001	7.21990E-006	0.00000E+000	3.00072E-001	0.00000E+000	9	...........	1425.87
	1	-0.3	3.00312E-001	7.16681E-006	0.00000E+000	3.00072E-001	0.00000E+000	9	...........	1425.87
	2	-0.2	3.00325E-001	7.05800E-006	0.00000E+000	3.00072E-001	0.00000E+000	9	...........	1425.87
	3	-0.1	3.00302E-001	6.98816E-006	0.00000E+000	3.00072E-001	0.00000E+000	9	...........	1425.87
	4	0	3.00311E-001	6.90801E-006	0.00000E+000	3.00072E-001	0.00000E+000	9	...........	1425.87
	5	0.1	4.00368E-001	4.94406E-004	0.00000E+000	4.00072E-001	0.00000E+000	9	...........	1425.87
	6	0.2	4.00366E-001	4.03070E-004	0.00000E+000	4.00072E-001	0.00000E+000	9	...........	1425.87
	7	0.3	4.00363E-001	3.42954E-004	0.00000E+000	4.00072E-001	0.00000E+000	9	...........	1425.87
	8	0.4	4.00364E-001	3.00682E-004	0.00000E+000	4.00072E-001	0.00000E+000	9	...........	1425.87
	9	0.5	4.00363E-001	2.69321E-004	0.00000E+000	4.00072E-001	0.00000E+000	9	...........	1425.87
	10	0.6	4.00364E-001	2.44868E-004	0.00000E+000	4.00072E-001	0.00000E+000	9	...........	1425.87
	11	0.7	4.00358E-001	2.25053E-004	0.00000E+000	4.00072E-001	0.00000E+000	9	...........	1425.87
	12	0.8	4.00356E-001	2.08712E-004	0.00000E+000	4.00072E-001	0.00000E+000	9	...........	1425.87
	13	0.9	4.00352E-001	1.94801E-004	0.00000E+000	4.00072E-001	0.00000E+000	9	...........	1425.87
	14	1	4.00343E-001	1.82930E-004	0.00000E+000	4.00072E-001	0.00000E+000	9	...........	1425.87
	15	1.1	4.00360E-001	1.72568E-004	0.00000E+000	4.00072E-001	0.00000E+000	9	...........	1425.87
	16	1.2	4.00360E-001	1.63473E-004	0.00000E+000	4.00072E-001	0.00000E+000	9	...........	1425.87
	17	1.3	4.00364E-001	1.55488E-004	0.00000E+000	4.00072E-001	0.00000E+000	9	...........	1425.87
	18	1.4	4.00363E-001	1.48268E-004	0.00000E+000	4.00072E-001	0.00000E+000	9	...........	1425.42
	19	1.5	4.00364E-001	1.41842E-004	0.00000E+000	4.00072E-001	0.00000E+000	9	...........	1425.42
	20	1.6	4.00366E-001	1.35982E-004	0.00000E+000	4.00072E-001	0.00000E+000	9	...........	1425.42
	21	1.7	4.00366E-001	1.30592E-004	0.00000E+000	4.00072E-001	0.00000E+000	9	...........	1425.42
	22	1.8	4.00361E-001	1.25698E-004	0.00000E+000	4.00072E-001	0.00000E+000	9	...........	1425.42
	23	1.9	4.00375E-001	1.21095E-004	0.00000E+000	4.00072E-001	0.00000E+000	9	...........	1425.42
	24	2	4.00363E-001	1.16907E-004	0.00000E+000	4.00072E-001	0.00000E+000	9	...........	1425.42
	25	2.1	4.00381E-001	1.12961E-004	0.00000E+000	4.00072E-001	0.00000E+000	9	...........	1425.42
	26	2.2	4.00365E-001	1.09309E-004	0.00000E+000	4.00072E-001	0.00000E+000	9	...........	1425.42
	27	2.3	4.00366E-001	1.05896E-004	0.00000E+000	4.00072E-001	0.00000E+000	9	...........	1425.42
	28	2.4	4.00356E-001	1.02664E-004	0.00000E+000	4.00072E-001	0.00000E+000	9	...........	1425.60
	29	2.5	4.00364E-001	9.96439E-005	0.00000E+000	4.00072E-001	0.00000E+000	9	...........	1425.60
	30	2.6	4.00361E-001	9.68056E-005	0.00000E+000	4.00072E-001	0.00000E+000	9	...........	1425.60
	31	2.7	4.00358E-001	9.41577E-005	0.00000E+000	4.00072E-001	0.00000E+000	9	...........	1425.60
	32	2.8	4.00358E-001	9.16461E-005	0.00000E+000	4.00072E-001	0.00000E+000	9	...........	1425.60
	33	2.9	4.00356E-001	8.92261E-005	0.00000E+000	4.00072E-001	0.00000E+000	9	...........	1425.60
	34	3	4.00354E-001	8.70755E-005	0.00000E+000	4.00072E-001	0.00000E+000	9	...........	1425.60
	35	3.1	4.00357E-001	8.49601E-005	0.00000E+000	4.00072E-001	0.00000E+000	9	...........	1425.60
	36	3.2	4.00353E-001	8.29663E-005	0.00000E+000	4.00072E-001	0.00000E+000	9	...........	1425.60
	37	3.3	4.00349E-001	8.10971E-005	0.00000E+000	4.00072E-001	0.00000E+000	9	...........	1425.60
	38	3.4	4.00355E-001	7.93139E-005	0.00000E+000	4.00072E-001	0.00000E+000	9	...........	1425.34
	39	3.5	4.00359E-001	7.76253E-005	0.00000E+000	4.00072E-001	0.00000E+000	9	...........	1425.34
	40	3.6	4.00350E-001	7.60671E-005	0.00000E+000	4.00072E-001	0.00000E+000	9	...........	1425.34
	41	3.7	4.00361E-001	7.45108E-005	0.00000E+000	4.00072E-001	0.00000E+000	9	...........	1425.34
	42	3.8	4.00366E-001	7.30459E-005	0.00000E+000	4.00072E-001	0.00000E+000	9	...........	1425.34
	43	3.9	4.00374E-001	7.16411E-005	0.00000E+000	4.00072E-001	0.00000E+000	9	...........	1425.34
	44	4	4.00381E-001	7.03027E-005	0.00000E+000	4.00072E-001	0.00000E+000	9	...........	1425.34
	45	4.1	4.00356E-001	6.90783E-005	0.00000E+000	4.00072E-001	0.00000E+000	9	...........	1425.34
	46	4.2	4.00360E-001	6.78848E-005	0.00000E+000	4.00072E-001	0.00000E+000	9	...........	1425.34
	47	4.3	4.00355E-001	6.67409E-005	0.00000E+000	4.00072E-001	0.00000E+000	9	...........	1425.34
	48	4.4	4.00353E-001	6.56057E-005	0.00000E+000	4.00072E-001	0.00000E+000	9	...........	1425.34
	49	4.5	4.00360E-001	6.45643E-005	0.00000E+000	4.00072E-001	0.00000E+000	9	...........	1425.34
	50	4.6	4.00366E-001	6.35531E-005	0.00000E+000	4.00072E-001	0.00000E+000	9	...........	1425.34
	51	4.7	4.00357E-001	6.25708E-005	0.00000E+000	4.00072E-001	0.00000E+000	9	...........	1425.34
	52	4.8	4.00354E-001	6.16042E-005	0.00000E+000	4.00072E-001	0.00000E+000	9	...........	1425.34
	53	4.9	4.00355E-001	6.06830E-005	0.00000E+000	4.00072E-001	0.00000E+000	9	...........	1425.34
	54	5	4.00364E-001	5.97908E-005	0.00000E+000	4.00072E-001	0.00000E+000	9	...........	1425.34
	55	5.1	4.00366E-001	5.89646E-005	0.00000E+000	4.00072E-001	0.00000E+000	9	...........	1425.34
	56	5.2	4.00362E-001	5.81638E-005	0.00000E+000	4.00072E-001	0.00000E+000	9	...........	1425.34
	57	5.3	4.00363E-001	5.73791E-005	0.00000E+000	4.00072E-001	0.00000E+000	9	...........	1425.34
	58	5.4	4.00367E-001	5.66187E-005	0.00000E+000	4.00072E-001	0.00000E+000	9	...........	1425.34
	59	5.5	4.00362E-001	5.59072E-005	0.00000E+000	4.00072E-001	0.00000E+000	9	...........	1425.34
	60	5.6	4.00362E-001	5.52256E-005	0.00000E+000	4.00072E-001	0.00000E+000	9	...........	1425.34
	61	5.7	4.00366E-001	5.45547E-005	0.00000E+000	4.00072E-001	0.00000E+000	9	...........	1425.34
	62	5.8	4.00370E-001	5.39324E-005	0.00000E+000	4.00072E-001	0.00000E+000	9	...........	1425.34
	63	5.9	4.00369E-001	5.32881E-005	0.00000E+000	4.00072E-001	0.00000E+000	9	...........	1425.34
	64	6	4.00362E-001	5.26312E-005	0.00000E+000	4.00072E-001	0.00000E+000	9	...........	1425.34
	65	6.1	4.00365E-001	5.20943E-005	0.00000E+000	4.00072E-001	0.00000E+000	9	...........	1425.34
	66	7.1	4.00365E-001	4.72154E-005	0.00000E+000	4.00072E-001	0.00000E+000	9	...........	1425.34
	67	8.1	4.00365E-001	4.35659E-005	0.00000E+000	4.00072E-001	0.00000E+000	9	...........	1425.78
	68	9.1	4.00360E-001	4.06903E-005	0.00000E+000	4.00072E-001	0.00000E+000	9	...........	1425.87
	69	10.1	4.00354E-001	3.82844E-005	0.00000E+000	4.00072E-001	0.00000E+000	9	...........	1425.87
	70	11.1	4.00352E-001	3.63091E-005	0.00000E+000	4.00072E-001	0.00000E+000	9	...........	1425.69
	71	12.1	4.00371E-001	3.46804E-005	0.00000E+000	4.00072E-001	0.00000E+000	9	...........	1425.87
	72	13.1	4.00361E-001	3.31851E-005	0.00000E+000	4.00072E-001	0.00000E+000	9	...........	1425.87
	73	14.1	4.00366E-001	3.17861E-005	0.00000E+000	4.00072E-001	0.00000E+000	9	...........	1425.87
	74	15.1	4.00359E-001	3.06276E-005	0.00000E+000	4.00072E-001	0.00000E+000	9	...........	1425.87
	75	16.1	4.00364E-001	2.96751E-005	0.00000E+000	4.00072E-001	0.00000E+000	9	...........	1425.87
	76	26.1	4.00368E-001	2.38184E-005	0.00000E+000	4.00072E-001	0.00000E+000	9	...........	1425.87
	77	36.1	4.00362E-001	2.10821E-005	0.00000E+000	4.00072E-001	0.00000E+000	9	...........	1425.87
	78	46.1	4.00364E-001	1.93761E-005	0.00000E+000	4.00072E-001	0.00000E+000	9	...........	1425.87
	79	56.1	4.00350E-001	1.83124E-005	0.00000E+000	4.00072E-001	0.00000E+000	9	...........	1425.87
	80	66.1	4.00373E-001	1.77641E-005	0.00000E+000	4.00072E-001	0.00000E+000	9	...........	1425.87
	81	76.1	4.00359E-001	1.74702E-005	0.00000E+000	4.00072E-001	0.00000E+000	9	...........	1425.87
	82	86.1	4.00358E-001	1.71075E-005	0.00000E+000	4.00072E-001	0.00000E+000	9	...........	1425.87
	83	96.1	4.00364E-001	1.67120E-005	0.00000E+000	4.00072E-001	0.00000E+000	9	...........	1425.87
	84	106.1	4.00365E-001	1.64711E-005	0.00000E+000	4.00072E-001	0.00000E+000	9	...........	1425.87
	85	116.1	4.00366E-001	1.65451E-005	0.00000E+000	4.00072E-001	0.00000E+000	9	...........	1425.87
	86	216.1	4.00354E-001	1.59402E-005	0.00000E+000	4.00072E-001	0.00000E+000	9	...........	1425.87
	87	300	4.00368E-001	1.60466E-005	0.00000E+000	4.00072E-001	0.00000E+000	9	...........	1425.87
	88	300.1	3.00322E-001	-4.72154E-004	0.00000E+000	3.00072E-001	0.00000E+000	9	...........	1425.87
	89	300.2	3.00322E-001	-4.06778E-004	0.00000E+000	3.00072E-001	0.00000E+000	9	...........	1425.87
	90	300.3	3.00331E-001	-3.53981E-004	0.00000E+000	3.00072E-001	0.00000E+000	9	...........	1425.87
	91	300.4	3.00332E-001	-3.09759E-004	0.00000E+000	3.00072E-001	0.00000E+000	9	...........	1425.87
	92	300.5	3.00319E-001	-2.72405E-004	0.00000E+000	3.00072E-001	0.00000E+000	9	...........	1425.87
	93	300.6	3.00332E-001	-2.40749E-004	0.00000E+000	3.00072E-001	0.00000E+000	9	...........	1425.87
	94	300.7	3.00315E-001	-2.14058E-004	0.00000E+000	3.00072E-001	0.00000E+000	9	...........	1425.87
	95	300.8	3.00308E-001	-1.91444E-004	0.00000E+000	3.00072E-001	0.00000E+000	9	...........	1425.87
	96	300.9	3.00317E-001	-1.72335E-004	0.00000E+000	3.00072E-001	0.00000E+000	9	...........	1425.87
	97	301	3.00321E-001	-1.56120E-004	0.00000E+000	3.00072E-001	0.00000E+000	9	...........	1425.87
