EXPLAIN
TAG	CHRONOA
TITLE	LABEL	Chronoamperometry Scan	Test Identifier
DATE	LABEL	10/2/2022	Date
TIME	LABEL	17:32:05	Time
NOTES	NOTES	1	Notes...
	
PSTAT	PSTAT	IFC1010-21051	Potentiostat
VPRESTEP	POTEN	3.00000E-001	F	Pre-step Voltage (V)
TPRESTEP	QUANT	5.00000E-001	Pre-step Delay Time (s)
VSTEP1	POTEN	4.00000E-001	F	Step 1 Voltage (V)
TSTEP1	QUANT	3.00000E+002	Step 1 Time (s)
VSTEP2	POTEN	3.00000E-001	F	Step 2 Voltage (V)
TSTEP2	QUANT	1.00000E+000	Step 2 Time (s)
SAMPLETIME	QUANT	1.00000E-001	Sample Period (s)
DECIMATE	TOGGLE	T	Decimate
ILIMIT	QUANT	1.00000E+000	Limit I (mA/cm^2)
IMODE	SELECTOR	1	I/E Range Mode
IRANGE	QUANT	3.00000E-001	Max Current (mA)
EQDELAY	QUANT	5.00000E+000	Equil. Time (s)
SAMPLINGMODE	SELECTOR	1	Sampling Mode
AREA	QUANT	1.00000E+000	Sample Area (cm^2)
IRCOMP	SELECTOR	0	IRComp
PFCOR	QUANT	5.00000E+001	PF Corr. (ohm)
SEQUENCER	TOGGLE	TRUE	Run as Sequence
PSTATMODEL	IQUANT	64	Pstat Model
PSTATSECTION	LABEL	IFC1010-21051	Pstat Section
PSTATSERIALNO	LABEL	21051	Pstat Serial Number
CTRLMODE	IQUANT	1	Control Mode
ELECTROMETER	IQUANT	0	RE=0 or CS=1
IESTAB	IQUANT	0	I/E Stability
CASPEED	IQUANT	4	Control Amp Speed
CONVENTION	IQUANT	1	Current Convention
ICHRANGE	IQUANT	2	Ich Range
ICHRANGEMODE	TOGGLE	T	Ich Auto Range
ICHOFFSETENABLE	TOGGLE	F	Ich Offset Enable
ICHOFFSET	QUANT	0	Ich Offset (V)
ICHFILTER	IQUANT	3	Ich Filter
VCHRANGE	IQUANT	3	Vch Range
VCHRANGEMODE	TOGGLE	T	Vch Auto Range
VCHOFFSETENABLE	TOGGLE	F	Vch Offset Enable
VCHOFFSET	QUANT	0	Vch Offset (V)
VCHFILTER	IQUANT	3	Vch Filter
IERANGELOWERLIMIT	IQUANT	4	I/E Range Lower Limit
IERANGEMODE	TOGGLE	F	I/E AutoRange
IERANGE	IQUANT	9	I/E Range
ACHSELECT	IQUANT	0	Ach Select
ACHRANGE	IQUANT	2	Ach Range
ACHOFFSETENABLE	TOGGLE	F	Ach Offset Enable
ACHOFFSET	QUANT	0	Ach Offset (V)
ACHFILTER	IQUANT	1	Ach Filter
SENSECABLEID	IQUANT	14	Sense Cable ID
PWRCABLEID	IQUANT	14	Power Cable ID
DCCALDATE	LABEL	1/24/2022	DC Calibration Date
ACCALDATE	LABEL	4/2/2018	AC Calibration Date
FRAMEWORKVERSION	QUANT	7.06	Framework Version
INSTRUMENTVERSION	LABEL	4.30	Instrument Version
CURVE	TABLE	98
	Pt	T	Vf	Im	Vu	Sig	Ach	IERange	Over	Temp
	#	s	V vs. Ref.	A	V	V	V	#	bits	deg C
	0	-0.4	2.99621E-001	1.04216E-005	0.00000E+000	3.00072E-001	0.00000E+000	9	...........	1426.13
	1	-0.3	3.00317E-001	1.03694E-005	0.00000E+000	3.00072E-001	0.00000E+000	9	...........	1426.13
	2	-0.2	3.00309E-001	1.02733E-005	0.00000E+000	3.00072E-001	0.00000E+000	9	...........	1426.13
	3	-0.1	3.00321E-001	1.01773E-005	0.00000E+000	3.00072E-001	0.00000E+000	9	...........	1426.13
	4	0	3.00331E-001	1.00644E-005	0.00000E+000	3.00072E-001	0.00000E+000	9	...........	1426.13
	5	0.1	4.00366E-001	5.00041E-004	0.00000E+000	4.00072E-001	0.00000E+000	9	...........	1426.13
	6	0.2	4.00356E-001	4.14715E-004	0.00000E+000	4.00072E-001	0.00000E+000	9	...........	1426.13
	7	0.3	4.00357E-001	3.61881E-004	0.00000E+000	4.00072E-001	0.00000E+000	9	...........	1426.13
	8	0.4	4.00356E-001	3.24857E-004	0.00000E+000	4.00072E-001	0.00000E+000	9	...........	1426.13
	9	0.5	4.00361E-001	2.96986E-004	0.00000E+000	4.00072E-001	0.00000E+000	9	...........	1426.13
	10	0.6	4.00361E-001	2.75027E-004	0.00000E+000	4.00072E-001	0.00000E+000	9	...........	1426.13
	11	0.7	4.00359E-001	2.57314E-004	0.00000E+000	4.00072E-001	0.00000E+000	9	...........	1426.13
	12	0.8	4.00352E-001	2.42545E-004	0.00000E+000	4.00072E-001	0.00000E+000	9	...........	1426.13
	13	0.9	4.00357E-001	2.30051E-004	0.00000E+000	4.00072E-001	0.00000E+000	9	...........	1426.13
	14	1	4.00349E-001	2.19262E-004	0.00000E+000	4.00072E-001	0.00000E+000	9	...........	1426.13
	15	1.1	4.00353E-001	2.09844E-004	0.00000E+000	4.00072E-001	0.00000E+000	9	...........	1425.95
	16	1.2	4.00358E-001	2.01528E-004	0.00000E+000	4.00072E-001	0.00000E+000	9	...........	1425.95
	17	1.3	4.00346E-001	1.94074E-004	0.00000E+000	4.00072E-001	0.00000E+000	9	...........	1425.95
	18	1.4	4.00349E-001	1.87296E-004	0.00000E+000	4.00072E-001	0.00000E+000	9	...........	1425.95
	19	1.5	4.00350E-001	1.81198E-004	0.00000E+000	4.00072E-001	0.00000E+000	9	...........	1425.95
	20	1.6	4.00356E-001	1.75582E-004	0.00000E+000	4.00072E-001	0.00000E+000	9	...........	1425.95
	21	1.7	4.00346E-001	1.70402E-004	0.00000E+000	4.00072E-001	0.00000E+000	9	...........	1425.95
	22	1.8	4.00370E-001	1.65612E-004	0.00000E+000	4.00072E-001	0.00000E+000	9	...........	1425.95
	23	1.9	4.00348E-001	1.61212E-004	0.00000E+000	4.00072E-001	0.00000E+000	9	...........	1425.95
	24	2	4.00362E-001	1.57082E-004	0.00000E+000	4.00072E-001	0.00000E+000	9	...........	1425.95
	25	2.1	4.00362E-001	1.53223E-004	0.00000E+000	4.00072E-001	0.00000E+000	9	...........	1426.04
	26	2.2	4.00369E-001	1.49557E-004	0.00000E+000	4.00072E-001	0.00000E+000	9	...........	1426.04
	27	2.3	4.00356E-001	1.46187E-004	0.00000E+000	4.00072E-001	0.00000E+000	9	...........	1426.04
	28	2.4	4.00348E-001	1.42957E-004	0.00000E+000	4.00072E-001	0.00000E+000	9	...........	1426.04
	29	2.5	4.00355E-001	1.39866E-004	0.00000E+000	4.00072E-001	0.00000E+000	9	...........	1426.04
	30	2.6	4.00368E-001	1.37021E-004	0.00000E+000	4.00072E-001	0.00000E+000	9	...........	1426.04
	31	2.7	4.00357E-001	1.34295E-004	0.00000E+000	4.00072E-001	0.00000E+000	9	...........	1426.04
	32	2.8	4.00372E-001	1.31615E-004	0.00000E+000	4.00072E-001	0.00000E+000	9	...........	1426.04
	33	2.9	4.00360E-001	1.29221E-004	0.00000E+000	4.00072E-001	0.00000E+000	9	...........	1426.04
	34	3	4.00352E-001	1.26856E-004	0.00000E+000	4.00072E-001	0.00000E+000	9	...........	1426.04
	35	3.1	4.00356E-001	1.24574E-004	0.00000E+000	4.00072E-001	0.00000E+000	9	...........	1426.04
	36	3.2	4.00354E-001	1.22426E-004	0.00000E+000	4.00072E-001	0.00000E+000	9	...........	1426.04
	37	3.3	4.00354E-001	1.20365E-004	0.00000E+000	4.00072E-001	0.00000E+000	9	...........	1426.04
	38	3.4	4.00359E-001	1.18334E-004	0.00000E+000	4.00072E-001	0.00000E+000	9	...........	1426.04
	39	3.5	4.00370E-001	1.16488E-004	0.00000E+000	4.00072E-001	0.00000E+000	9	...........	1426.04
	40	3.6	4.00356E-001	1.14640E-004	0.00000E+000	4.00072E-001	0.00000E+000	9	...........	1426.04
	41	3.7	4.00364E-001	1.12844E-004	0.00000E+000	4.00072E-001	0.00000E+000	9	...........	1426.04
	42	3.8	4.00351E-001	1.11151E-004	0.00000E+000	4.00072E-001	0.00000E+000	9	...........	1426.04
	43	3.9	4.00368E-001	1.09502E-004	0.00000E+000	4.00072E-001	0.00000E+000	9	...........	1426.04
	44	4	4.00362E-001	1.07972E-004	0.00000E+000	4.00072E-001	0.00000E+000	9	...........	1426.04
	45	4.1	4.00360E-001	1.06465E-004	0.00000E+000	4.00072E-001	0.00000E+000	9	...........	1426.04
	46	4.2	4.00351E-001	1.04970E-004	0.00000E+000	4.00072E-001	0.00000E+000	9	...........	1426.04
	47	4.3	4.00356E-001	1.03556E-004	0.00000E+000	4.00072E-001	0.00000E+000	9	...........	1426.04
	48	4.4	4.00347E-001	1.02151E-004	0.00000E+000	4.00072E-001	0.00000E+000	9	...........	1426.04
	49	4.5	4.00361E-001	1.00816E-004	0.00000E+000	4.00072E-001	0.00000E+000	9	...........	1426.04
	50	4.6	4.00350E-001	9.95890E-005	0.00000E+000	4.00072E-001	0.00000E+000	9	...........	1426.04
	51	4.7	4.00360E-001	9.82838E-005	0.00000E+000	4.00072E-001	0.00000E+000	9	...........	1426.04
	52	4.8	4.00354E-001	9.71167E-005	0.00000E+000	4.00072E-001	0.00000E+000	9	...........	1426.04
	53	4.9	4.00355E-001	9.59220E-005	0.00000E+000	4.00072E-001	0.00000E+000	9	...........	1426.04
	54	5	4.00356E-001	9.47680E-005	0.00000E+000	4.00072E-001	0.00000E+000	9	...........	1426.04
	55	5.1	4.00362E-001	9.36652E-005	0.00000E+000	4.00072E-001	0.00000E+000	9	...........	1426.04
	56	5.2	4.00364E-001	9.25629E-005	0.00000E+000	4.00072E-001	0.00000E+000	9	...........	1426.04
	57	5.3	4.00357E-001	9.15555E-005	0.00000E+000	4.00072E-001	0.00000E+000	9	...........	1426.04
	58	5.4	4.00362E-001	9.05066E-005	0.00000E+000	4.00072E-001	0.00000E+000	9	...........	1426.04
	59	5.5	4.00356E-001	8.95164E-005	0.00000E+000	4.00072E-001	0.00000E+000	9	...........	1426.04
	60	5.6	4.00363E-001	8.85542E-005	0.00000E+000	4.00072E-001	0.00000E+000	9	...........	1426.04
	61	5.7	4.00355E-001	8.75988E-005	0.00000E+000	4.00072E-001	0.00000E+000	9	...........	1426.04
	62	5.8	4.00357E-001	8.66822E-005	0.00000E+000	4.00072E-001	0.00000E+000	9	...........	1426.04
	63	5.9	4.00364E-001	8.57582E-005	0.00000E+000	4.00072E-001	0.00000E+000	9	...........	1426.04
	64	6	4.00354E-001	8.48634E-005	0.00000E+000	4.00072E-001	0.00000E+000	9	...........	1426.04
	65	6.1	4.00355E-001	8.39916E-005	0.00000E+000	4.00072E-001	0.00000E+000	9	...........	1426.04
	66	7.1	4.00365E-001	7.63930E-005	0.00000E+000	4.00072E-001	0.00000E+000	9	...........	1426.13
	67	8.1	4.00355E-001	7.00625E-005	0.00000E+000	4.00072E-001	0.00000E+000	9	...........	1426.13
	68	9.1	4.00357E-001	6.46671E-005	0.00000E+000	4.00072E-001	0.00000E+000	9	...........	1426.13
	69	10.1	4.00353E-001	6.00589E-005	0.00000E+000	4.00072E-001	0.00000E+000	9	...........	1426.13
	70	11.1	4.00351E-001	5.60446E-005	0.00000E+000	4.00072E-001	0.00000E+000	9	...........	1426.13
	71	12.1	4.00355E-001	5.25883E-005	0.00000E+000	4.00072E-001	0.00000E+000	9	...........	1426.22
	72	13.1	4.00360E-001	4.96139E-005	0.00000E+000	4.00072E-001	0.00000E+000	9	...........	1426.13
	73	14.1	4.00347E-001	4.69662E-005	0.00000E+000	4.00072E-001	0.00000E+000	9	...........	1426.13
	74	15.1	4.00353E-001	4.45787E-005	0.00000E+000	4.00072E-001	0.00000E+000	9	...........	1426.13
	75	16.1	4.00356E-001	4.24774E-005	0.00000E+000	4.00072E-001	0.00000E+000	9	...........	1426.13
	76	26.1	4.00353E-001	3.01392E-005	0.00000E+000	4.00072E-001	0.00000E+000	9	...........	1426.13
	77	36.1	4.00354E-001	2.50374E-005	0.00000E+000	4.00072E-001	0.00000E+000	9	...........	1426.13
	78	46.1	4.00366E-001	2.24264E-005	0.00000E+000	4.00072E-001	0.00000E+000	9	...........	1426.13
	79	56.1	4.00352E-001	2.07389E-005	0.00000E+000	4.00072E-001	0.00000E+000	9	...........	1426.22
	80	66.1	4.00355E-001	1.95029E-005	0.00000E+000	4.00072E-001	0.00000E+000	9	...........	1426.13
	81	76.1	4.00365E-001	1.88699E-005	0.00000E+000	4.00072E-001	0.00000E+000	9	...........	1426.13
	82	86.1	4.00356E-001	1.82803E-005	0.00000E+000	4.00072E-001	0.00000E+000	9	...........	1426.13
	83	96.1	4.00348E-001	1.76241E-005	0.00000E+000	4.00072E-001	0.00000E+000	9	...........	1426.13
	84	106.1	4.00374E-001	1.73125E-005	0.00000E+000	4.00072E-001	0.00000E+000	9	...........	1426.13
	85	116.1	4.00362E-001	1.71894E-005	0.00000E+000	4.00072E-001	0.00000E+000	9	...........	1426.22
	86	216.1	4.00362E-001	1.58831E-005	0.00000E+000	4.00072E-001	0.00000E+000	9	...........	1426.22
	87	300	4.00356E-001	1.52358E-005	0.00000E+000	4.00072E-001	0.00000E+000	9	...........	1426.13
	88	300.1	3.00327E-001	-3.80128E-004	0.00000E+000	3.00072E-001	0.00000E+000	9	...........	1426.13
	89	300.2	3.00316E-001	-2.79455E-004	0.00000E+000	3.00072E-001	0.00000E+000	9	...........	1426.13
	90	300.3	3.00314E-001	-2.17946E-004	0.00000E+000	3.00072E-001	0.00000E+000	9	...........	1426.13
	91	300.4	3.00301E-001	-1.77502E-004	0.00000E+000	3.00072E-001	0.00000E+000	9	...........	1426.13
	92	300.5	3.00313E-001	-1.49709E-004	0.00000E+000	3.00072E-001	0.00000E+000	9	...........	1426.13
	93	300.6	3.00301E-001	-1.29830E-004	0.00000E+000	3.00072E-001	0.00000E+000	9	...........	1426.13
	94	300.7	3.00306E-001	-1.15047E-004	0.00000E+000	3.00072E-001	0.00000E+000	9	...........	1426.13
	95	300.8	3.00309E-001	-1.03675E-004	0.00000E+000	3.00072E-001	0.00000E+000	9	...........	1426.13
	96	300.9	3.00315E-001	-9.46546E-005	0.00000E+000	3.00072E-001	0.00000E+000	9	...........	1426.13
	97	301	3.00311E-001	-8.73268E-005	0.00000E+000	3.00072E-001	0.00000E+000	9	...........	1426.13
