EXPLAIN
TAG	CHRONOA
TITLE	LABEL	Chronoamperometry Scan	Test Identifier
DATE	LABEL	10/2/2022	Date
TIME	LABEL	19:02:19	Time
NOTES	NOTES	1	Notes...
	
PSTAT	PSTAT	IFC1010-21051	Potentiostat
VPRESTEP	POTEN	-3.00000E-001	F	Pre-step Voltage (V)
TPRESTEP	QUANT	5.00000E-001	Pre-step Delay Time (s)
VSTEP1	POTEN	-4.00000E-001	F	Step 1 Voltage (V)
TSTEP1	QUANT	3.00000E+002	Step 1 Time (s)
VSTEP2	POTEN	-5.00000E-001	F	Step 2 Voltage (V)
TSTEP2	QUANT	1.00000E+000	Step 2 Time (s)
SAMPLETIME	QUANT	1.00000E-001	Sample Period (s)
DECIMATE	TOGGLE	T	Decimate
ILIMIT	QUANT	1.00000E+000	Limit I (mA/cm^2)
IMODE	SELECTOR	1	I/E Range Mode
IRANGE	QUANT	3.00000E-001	Max Current (mA)
EQDELAY	QUANT	5.00000E+000	Equil. Time (s)
SAMPLINGMODE	SELECTOR	1	Sampling Mode
AREA	QUANT	1.00000E+000	Sample Area (cm^2)
IRCOMP	SELECTOR	0	IRComp
PFCOR	QUANT	5.00000E+001	PF Corr. (ohm)
SEQUENCER	TOGGLE	TRUE	Run as Sequence
PSTATMODEL	IQUANT	64	Pstat Model
PSTATSECTION	LABEL	IFC1010-21051	Pstat Section
PSTATSERIALNO	LABEL	21051	Pstat Serial Number
CTRLMODE	IQUANT	1	Control Mode
ELECTROMETER	IQUANT	0	RE=0 or CS=1
IESTAB	IQUANT	0	I/E Stability
CASPEED	IQUANT	4	Control Amp Speed
CONVENTION	IQUANT	1	Current Convention
ICHRANGE	IQUANT	2	Ich Range
ICHRANGEMODE	TOGGLE	T	Ich Auto Range
ICHOFFSETENABLE	TOGGLE	F	Ich Offset Enable
ICHOFFSET	QUANT	0	Ich Offset (V)
ICHFILTER	IQUANT	3	Ich Filter
VCHRANGE	IQUANT	3	Vch Range
VCHRANGEMODE	TOGGLE	T	Vch Auto Range
VCHOFFSETENABLE	TOGGLE	F	Vch Offset Enable
VCHOFFSET	QUANT	0	Vch Offset (V)
VCHFILTER	IQUANT	3	Vch Filter
IERANGELOWERLIMIT	IQUANT	4	I/E Range Lower Limit
IERANGEMODE	TOGGLE	F	I/E AutoRange
IERANGE	IQUANT	9	I/E Range
ACHSELECT	IQUANT	0	Ach Select
ACHRANGE	IQUANT	2	Ach Range
ACHOFFSETENABLE	TOGGLE	F	Ach Offset Enable
ACHOFFSET	QUANT	0	Ach Offset (V)
ACHFILTER	IQUANT	1	Ach Filter
SENSECABLEID	IQUANT	14	Sense Cable ID
PWRCABLEID	IQUANT	14	Power Cable ID
DCCALDATE	LABEL	1/24/2022	DC Calibration Date
ACCALDATE	LABEL	4/2/2018	AC Calibration Date
FRAMEWORKVERSION	QUANT	7.06	Framework Version
INSTRUMENTVERSION	LABEL	4.30	Instrument Version
CURVE	TABLE	98
	Pt	T	Vf	Im	Vu	Sig	Ach	IERange	Over	Temp
	#	s	V vs. Ref.	A	V	V	V	#	bits	deg C
	0	-0.4	-3.01283E-001	-6.39556E-005	0.00000E+000	-3.00011E-001	0.00000E+000	9	...........	1426.22
	1	-0.3	-3.00685E-001	-6.38732E-005	0.00000E+000	-3.00011E-001	0.00000E+000	9	...........	1426.22
	2	-0.2	-3.00688E-001	-6.37291E-005	0.00000E+000	-3.00011E-001	0.00000E+000	9	...........	1426.22
	3	-0.1	-3.00696E-001	-6.35935E-005	0.00000E+000	-3.00011E-001	0.00000E+000	9	...........	1426.22
	4	0	-3.00692E-001	-6.34079E-005	0.00000E+000	-3.00011E-001	0.00000E+000	9	...........	1426.22
	5	0.1	-4.00742E-001	-3.75704E-004	0.00000E+000	-4.00011E-001	0.00000E+000	9	...........	1426.22
	6	0.2	-4.00720E-001	-2.90236E-004	0.00000E+000	-4.00011E-001	0.00000E+000	9	...........	1426.22
	7	0.3	-4.00736E-001	-2.62618E-004	0.00000E+000	-4.00011E-001	0.00000E+000	9	...........	1426.22
	8	0.4	-4.00731E-001	-2.49070E-004	0.00000E+000	-4.00011E-001	0.00000E+000	9	...........	1426.22
	9	0.5	-4.00736E-001	-2.40469E-004	0.00000E+000	-4.00011E-001	0.00000E+000	9	...........	1425.85
	10	0.6	-4.00729E-001	-2.34107E-004	0.00000E+000	-4.00011E-001	0.00000E+000	9	...........	1425.78
	11	0.7	-4.00730E-001	-2.28902E-004	0.00000E+000	-4.00011E-001	0.00000E+000	9	...........	1425.78
	12	0.8	-4.00738E-001	-2.24506E-004	0.00000E+000	-4.00011E-001	0.00000E+000	9	...........	1425.78
	13	0.9	-4.00738E-001	-2.20591E-004	0.00000E+000	-4.00011E-001	0.00000E+000	9	...........	1425.78
	14	1	-4.00733E-001	-2.17067E-004	0.00000E+000	-4.00011E-001	0.00000E+000	9	...........	1425.78
	15	1.1	-4.00728E-001	-2.13804E-004	0.00000E+000	-4.00011E-001	0.00000E+000	9	...........	1425.78
	16	1.2	-4.00728E-001	-2.10831E-004	0.00000E+000	-4.00011E-001	0.00000E+000	9	...........	1425.78
	17	1.3	-4.00720E-001	-2.08072E-004	0.00000E+000	-4.00011E-001	0.00000E+000	9	...........	1425.78
	18	1.4	-4.00722E-001	-2.05498E-004	0.00000E+000	-4.00011E-001	0.00000E+000	9	...........	1425.78
	19	1.5	-4.00727E-001	-2.03111E-004	0.00000E+000	-4.00011E-001	0.00000E+000	9	...........	1426.00
	20	1.6	-4.00729E-001	-2.00816E-004	0.00000E+000	-4.00011E-001	0.00000E+000	9	...........	1426.04
	21	1.7	-4.00741E-001	-1.98664E-004	0.00000E+000	-4.00011E-001	0.00000E+000	9	...........	1426.04
	22	1.8	-4.00728E-001	-1.96606E-004	0.00000E+000	-4.00011E-001	0.00000E+000	9	...........	1426.04
	23	1.9	-4.00718E-001	-1.94617E-004	0.00000E+000	-4.00011E-001	0.00000E+000	9	...........	1426.04
	24	2	-4.00722E-001	-1.92802E-004	0.00000E+000	-4.00011E-001	0.00000E+000	9	...........	1426.04
	25	2.1	-4.00716E-001	-1.91022E-004	0.00000E+000	-4.00011E-001	0.00000E+000	9	...........	1426.04
	26	2.2	-4.00733E-001	-1.89289E-004	0.00000E+000	-4.00011E-001	0.00000E+000	9	...........	1426.04
	27	2.3	-4.00733E-001	-1.87660E-004	0.00000E+000	-4.00011E-001	0.00000E+000	9	...........	1426.04
	28	2.4	-4.00731E-001	-1.86100E-004	0.00000E+000	-4.00011E-001	0.00000E+000	9	...........	1426.04
	29	2.5	-4.00731E-001	-1.84620E-004	0.00000E+000	-4.00011E-001	0.00000E+000	9	...........	1426.04
	30	2.6	-4.00723E-001	-1.83197E-004	0.00000E+000	-4.00011E-001	0.00000E+000	9	...........	1426.04
	31	2.7	-4.00724E-001	-1.81786E-004	0.00000E+000	-4.00011E-001	0.00000E+000	9	...........	1426.04
	32	2.8	-4.00726E-001	-1.80454E-004	0.00000E+000	-4.00011E-001	0.00000E+000	9	...........	1426.04
	33	2.9	-4.00730E-001	-1.79111E-004	0.00000E+000	-4.00011E-001	0.00000E+000	9	...........	1426.04
	34	3	-4.00735E-001	-1.77890E-004	0.00000E+000	-4.00011E-001	0.00000E+000	9	...........	1426.04
	35	3.1	-4.00732E-001	-1.76648E-004	0.00000E+000	-4.00011E-001	0.00000E+000	9	...........	1426.04
	36	3.2	-4.00723E-001	-1.75405E-004	0.00000E+000	-4.00011E-001	0.00000E+000	9	...........	1426.04
	37	3.3	-4.00732E-001	-1.74265E-004	0.00000E+000	-4.00011E-001	0.00000E+000	9	...........	1426.04
	38	3.4	-4.00716E-001	-1.73106E-004	0.00000E+000	-4.00011E-001	0.00000E+000	9	...........	1426.04
	39	3.5	-4.00724E-001	-1.72053E-004	0.00000E+000	-4.00011E-001	0.00000E+000	9	...........	1426.04
	40	3.6	-4.00729E-001	-1.70987E-004	0.00000E+000	-4.00011E-001	0.00000E+000	9	...........	1426.04
	41	3.7	-4.00730E-001	-1.69944E-004	0.00000E+000	-4.00011E-001	0.00000E+000	9	...........	1426.04
	42	3.8	-4.00731E-001	-1.68907E-004	0.00000E+000	-4.00011E-001	0.00000E+000	9	...........	1426.04
	43	3.9	-4.00726E-001	-1.67966E-004	0.00000E+000	-4.00011E-001	0.00000E+000	9	...........	1426.04
	44	4	-4.00729E-001	-1.66989E-004	0.00000E+000	-4.00011E-001	0.00000E+000	9	...........	1426.04
	45	4.1	-4.00726E-001	-1.66087E-004	0.00000E+000	-4.00011E-001	0.00000E+000	9	...........	1426.04
	46	4.2	-4.00720E-001	-1.65172E-004	0.00000E+000	-4.00011E-001	0.00000E+000	9	...........	1426.04
	47	4.3	-4.00722E-001	-1.64253E-004	0.00000E+000	-4.00011E-001	0.00000E+000	9	...........	1426.04
	48	4.4	-4.00733E-001	-1.63470E-004	0.00000E+000	-4.00011E-001	0.00000E+000	9	...........	1426.04
	49	4.5	-4.00732E-001	-1.62693E-004	0.00000E+000	-4.00011E-001	0.00000E+000	9	...........	1426.04
	50	4.6	-4.00730E-001	-1.61890E-004	0.00000E+000	-4.00011E-001	0.00000E+000	9	...........	1426.04
	51	4.7	-4.00737E-001	-1.61100E-004	0.00000E+000	-4.00011E-001	0.00000E+000	9	...........	1426.04
	52	4.8	-4.00723E-001	-1.60320E-004	0.00000E+000	-4.00011E-001	0.00000E+000	9	...........	1426.04
	53	4.9	-4.00726E-001	-1.59597E-004	0.00000E+000	-4.00011E-001	0.00000E+000	9	...........	1426.04
	54	5	-4.00722E-001	-1.58903E-004	0.00000E+000	-4.00011E-001	0.00000E+000	9	...........	1426.04
	55	5.1	-4.00720E-001	-1.58188E-004	0.00000E+000	-4.00011E-001	0.00000E+000	9	...........	1426.04
	56	5.2	-4.00721E-001	-1.57486E-004	0.00000E+000	-4.00011E-001	0.00000E+000	9	...........	1426.04
	57	5.3	-4.00717E-001	-1.56779E-004	0.00000E+000	-4.00011E-001	0.00000E+000	9	...........	1426.04
	58	5.4	-4.00729E-001	-1.56111E-004	0.00000E+000	-4.00011E-001	0.00000E+000	9	...........	1426.04
	59	5.5	-4.00731E-001	-1.55488E-004	0.00000E+000	-4.00011E-001	0.00000E+000	9	...........	1426.04
	60	5.6	-4.00723E-001	-1.54813E-004	0.00000E+000	-4.00011E-001	0.00000E+000	9	...........	1426.04
	61	5.7	-4.00728E-001	-1.54263E-004	0.00000E+000	-4.00011E-001	0.00000E+000	9	...........	1426.04
	62	5.8	-4.00733E-001	-1.53652E-004	0.00000E+000	-4.00011E-001	0.00000E+000	9	...........	1426.04
	63	5.9	-4.00721E-001	-1.52985E-004	0.00000E+000	-4.00011E-001	0.00000E+000	9	...........	1426.04
	64	6	-4.00732E-001	-1.52404E-004	0.00000E+000	-4.00011E-001	0.00000E+000	9	...........	1426.04
	65	6.1	-4.00724E-001	-1.51770E-004	0.00000E+000	-4.00011E-001	0.00000E+000	9	...........	1426.04
	66	7.1	-4.00727E-001	-1.46225E-004	0.00000E+000	-4.00011E-001	0.00000E+000	9	...........	1426.04
	67	8.1	-4.00734E-001	-1.41522E-004	0.00000E+000	-4.00011E-001	0.00000E+000	9	...........	1426.04
	68	9.1	-4.00717E-001	-1.37365E-004	0.00000E+000	-4.00011E-001	0.00000E+000	9	...........	1426.04
	69	10.1	-4.00727E-001	-1.33503E-004	0.00000E+000	-4.00011E-001	0.00000E+000	9	...........	1426.13
	70	11.1	-4.00720E-001	-1.30193E-004	0.00000E+000	-4.00011E-001	0.00000E+000	9	...........	1426.13
	71	12.1	-4.00739E-001	-1.27466E-004	0.00000E+000	-4.00011E-001	0.00000E+000	9	...........	1426.13
	72	13.1	-4.00713E-001	-1.24765E-004	0.00000E+000	-4.00011E-001	0.00000E+000	9	...........	1426.13
	73	14.1	-4.00741E-001	-1.22684E-004	0.00000E+000	-4.00011E-001	0.00000E+000	9	...........	1426.13
	74	15.1	-4.00718E-001	-1.20727E-004	0.00000E+000	-4.00011E-001	0.00000E+000	9	...........	1426.13
	75	16.1	-4.00732E-001	-1.18696E-004	0.00000E+000	-4.00011E-001	0.00000E+000	9	...........	1426.13
	76	26.1	-4.00730E-001	-1.04627E-004	0.00000E+000	-4.00011E-001	0.00000E+000	9	...........	1426.13
	77	36.1	-4.00727E-001	-9.63057E-005	0.00000E+000	-4.00011E-001	0.00000E+000	9	...........	1426.13
	78	46.1	-4.00718E-001	-9.01060E-005	0.00000E+000	-4.00011E-001	0.00000E+000	9	...........	1426.22
	79	56.1	-4.00730E-001	-8.61374E-005	0.00000E+000	-4.00011E-001	0.00000E+000	9	...........	1426.22
	80	66.1	-4.00738E-001	-8.23472E-005	0.00000E+000	-4.00011E-001	0.00000E+000	9	...........	1426.22
	81	76.1	-4.00722E-001	-8.00150E-005	0.00000E+000	-4.00011E-001	0.00000E+000	9	...........	1426.22
	82	86.1	-4.00712E-001	-7.73700E-005	0.00000E+000	-4.00011E-001	0.00000E+000	9	...........	1426.22
	83	96.1	-4.00724E-001	-7.55370E-005	0.00000E+000	-4.00011E-001	0.00000E+000	9	...........	1426.22
	84	106.1	-4.00719E-001	-7.38437E-005	0.00000E+000	-4.00011E-001	0.00000E+000	9	...........	1426.22
	85	116.1	-4.00720E-001	-7.24866E-005	0.00000E+000	-4.00011E-001	0.00000E+000	9	...........	1426.22
	86	216.1	-4.00732E-001	-6.56490E-005	0.00000E+000	-4.00011E-001	0.00000E+000	9	...........	1426.22
	87	300	-4.00730E-001	-6.29835E-005	0.00000E+000	-4.00011E-001	0.00000E+000	9	...........	1426.22
	88	300.1	-5.00737E-001	-3.85034E-004	0.00000E+000	-5.00010E-001	0.00000E+000	9	...........	1426.22
	89	300.2	-5.00726E-001	-2.83500E-004	0.00000E+000	-5.00010E-001	0.00000E+000	9	...........	1426.22
	90	300.3	-5.00724E-001	-2.46537E-004	0.00000E+000	-5.00010E-001	0.00000E+000	9	...........	1426.22
	91	300.4	-5.00725E-001	-2.27429E-004	0.00000E+000	-5.00010E-001	0.00000E+000	9	...........	1426.22
	92	300.5	-5.00744E-001	-2.15213E-004	0.00000E+000	-5.00010E-001	0.00000E+000	9	...........	1426.22
	93	300.6	-5.00722E-001	-2.06335E-004	0.00000E+000	-5.00010E-001	0.00000E+000	9	...........	1426.22
	94	300.7	-5.00740E-001	-1.99605E-004	0.00000E+000	-5.00010E-001	0.00000E+000	9	...........	1426.22
	95	300.8	-5.00735E-001	-1.93959E-004	0.00000E+000	-5.00010E-001	0.00000E+000	9	...........	1426.22
	96	300.9	-5.00732E-001	-1.89248E-004	0.00000E+000	-5.00010E-001	0.00000E+000	9	...........	1426.22
	97	301	-5.00730E-001	-1.85210E-004	0.00000E+000	-5.00010E-001	0.00000E+000	9	...........	1426.22
