EXPLAIN
TAG	CHRONOA
TITLE	LABEL	Chronoamperometry Scan	Test Identifier
DATE	LABEL	10/2/2022	Date
TIME	LABEL	18:40:46	Time
NOTES	NOTES	1	Notes...
	
PSTAT	PSTAT	IFC1010-21051	Potentiostat
VPRESTEP	POTEN	1.00000E-002	F	Pre-step Voltage (V)
TPRESTEP	QUANT	5.00000E-001	Pre-step Delay Time (s)
VSTEP1	POTEN	0.00000E+000	F	Step 1 Voltage (V)
TSTEP1	QUANT	3.00000E+002	Step 1 Time (s)
VSTEP2	POTEN	-1.00000E-001	F	Step 2 Voltage (V)
TSTEP2	QUANT	1.00000E+000	Step 2 Time (s)
SAMPLETIME	QUANT	1.00000E-001	Sample Period (s)
DECIMATE	TOGGLE	T	Decimate
ILIMIT	QUANT	1.00000E+000	Limit I (mA/cm^2)
IMODE	SELECTOR	1	I/E Range Mode
IRANGE	QUANT	3.00000E-001	Max Current (mA)
EQDELAY	QUANT	5.00000E+000	Equil. Time (s)
SAMPLINGMODE	SELECTOR	1	Sampling Mode
AREA	QUANT	1.00000E+000	Sample Area (cm^2)
IRCOMP	SELECTOR	0	IRComp
PFCOR	QUANT	5.00000E+001	PF Corr. (ohm)
SEQUENCER	TOGGLE	TRUE	Run as Sequence
PSTATMODEL	IQUANT	64	Pstat Model
PSTATSECTION	LABEL	IFC1010-21051	Pstat Section
PSTATSERIALNO	LABEL	21051	Pstat Serial Number
CTRLMODE	IQUANT	1	Control Mode
ELECTROMETER	IQUANT	0	RE=0 or CS=1
IESTAB	IQUANT	0	I/E Stability
CASPEED	IQUANT	4	Control Amp Speed
CONVENTION	IQUANT	1	Current Convention
ICHRANGE	IQUANT	2	Ich Range
ICHRANGEMODE	TOGGLE	T	Ich Auto Range
ICHOFFSETENABLE	TOGGLE	F	Ich Offset Enable
ICHOFFSET	QUANT	0	Ich Offset (V)
ICHFILTER	IQUANT	3	Ich Filter
VCHRANGE	IQUANT	3	Vch Range
VCHRANGEMODE	TOGGLE	T	Vch Auto Range
VCHOFFSETENABLE	TOGGLE	F	Vch Offset Enable
VCHOFFSET	QUANT	0	Vch Offset (V)
VCHFILTER	IQUANT	3	Vch Filter
IERANGELOWERLIMIT	IQUANT	4	I/E Range Lower Limit
IERANGEMODE	TOGGLE	F	I/E AutoRange
IERANGE	IQUANT	9	I/E Range
ACHSELECT	IQUANT	0	Ach Select
ACHRANGE	IQUANT	2	Ach Range
ACHOFFSETENABLE	TOGGLE	F	Ach Offset Enable
ACHOFFSET	QUANT	0	Ach Offset (V)
ACHFILTER	IQUANT	1	Ach Filter
SENSECABLEID	IQUANT	14	Sense Cable ID
PWRCABLEID	IQUANT	14	Power Cable ID
DCCALDATE	LABEL	1/24/2022	DC Calibration Date
ACCALDATE	LABEL	4/2/2018	AC Calibration Date
FRAMEWORKVERSION	QUANT	7.06	Framework Version
INSTRUMENTVERSION	LABEL	4.30	Instrument Version
CURVE	TABLE	98
	Pt	T	Vf	Im	Vu	Sig	Ach	IERange	Over	Temp
	#	s	V vs. Ref.	A	V	V	V	#	bits	deg C
	0	-0.4	9.22991E-003	-1.17947E-005	0.00000E+000	1.00559E-002	0.00000E+000	9	...........	1426.22
	1	-0.3	9.87390E-003	-1.16996E-005	0.00000E+000	1.00559E-002	0.00000E+000	9	...........	1426.22
	2	-0.2	1.00413E-002	-1.16080E-005	0.00000E+000	1.00559E-002	0.00000E+000	9	...........	1426.22
	3	-0.1	1.00557E-002	-1.15264E-005	0.00000E+000	1.00559E-002	0.00000E+000	9	...........	1426.22
	4	0	1.00558E-002	-1.14402E-005	0.00000E+000	1.00559E-002	0.00000E+000	9	...........	1426.22
	5	0.1	4.76696E-005	-3.32159E-005	0.00000E+000	5.34840E-005	0.00000E+000	9	...........	1426.22
	6	0.2	4.77487E-005	-2.17926E-005	0.00000E+000	5.34840E-005	0.00000E+000	9	...........	1426.22
	7	0.3	4.79419E-005	-1.81718E-005	0.00000E+000	5.34840E-005	0.00000E+000	9	...........	1426.22
	8	0.4	4.90913E-005	-1.66685E-005	0.00000E+000	5.34840E-005	0.00000E+000	9	...........	1426.22
	9	0.5	4.87079E-005	-1.58720E-005	0.00000E+000	5.34840E-005	0.00000E+000	9	...........	1426.22
	10	0.6	4.79940E-005	-1.53713E-005	0.00000E+000	5.34840E-005	0.00000E+000	9	...........	1426.22
	11	0.7	4.76135E-005	-1.50072E-005	0.00000E+000	5.34840E-005	0.00000E+000	9	...........	1426.22
	12	0.8	4.77947E-005	-1.47159E-005	0.00000E+000	5.34840E-005	0.00000E+000	9	...........	1425.95
	13	0.9	4.86989E-005	-1.44733E-005	0.00000E+000	5.34840E-005	0.00000E+000	9	...........	1425.95
	14	1	4.87259E-005	-1.42708E-005	0.00000E+000	5.34840E-005	0.00000E+000	9	...........	1425.95
	15	1.1	4.73292E-005	-1.40913E-005	0.00000E+000	5.34840E-005	0.00000E+000	9	...........	1425.95
	16	1.2	4.71019E-005	-1.39202E-005	0.00000E+000	5.34840E-005	0.00000E+000	9	...........	1425.95
	17	1.3	4.63129E-005	-1.37701E-005	0.00000E+000	5.34840E-005	0.00000E+000	9	...........	1425.95
	18	1.4	4.63810E-005	-1.36174E-005	0.00000E+000	5.34840E-005	0.00000E+000	9	...........	1425.95
	19	1.5	4.61197E-005	-1.34873E-005	0.00000E+000	5.34840E-005	0.00000E+000	9	...........	1425.95
	20	1.6	4.66263E-005	-1.33622E-005	0.00000E+000	5.34840E-005	0.00000E+000	9	...........	1425.95
	21	1.7	4.74353E-005	-1.32381E-005	0.00000E+000	5.34840E-005	0.00000E+000	9	...........	1425.95
	22	1.8	4.69387E-005	-1.31260E-005	0.00000E+000	5.34840E-005	0.00000E+000	9	...........	1426.49
	23	1.9	4.65722E-005	-1.30126E-005	0.00000E+000	5.34840E-005	0.00000E+000	9	...........	1426.49
	24	2	4.76445E-005	-1.29127E-005	0.00000E+000	5.34840E-005	0.00000E+000	9	...........	1426.49
	25	2.1	4.84395E-005	-1.28188E-005	0.00000E+000	5.34840E-005	0.00000E+000	9	...........	1426.49
	26	2.2	4.69797E-005	-1.27275E-005	0.00000E+000	5.34840E-005	0.00000E+000	9	...........	1426.49
	27	2.3	4.68065E-005	-1.26243E-005	0.00000E+000	5.34840E-005	0.00000E+000	9	...........	1426.49
	28	2.4	4.68916E-005	-1.25433E-005	0.00000E+000	5.34840E-005	0.00000E+000	9	...........	1426.49
	29	2.5	4.65572E-005	-1.24599E-005	0.00000E+000	5.34840E-005	0.00000E+000	9	...........	1426.49
	30	2.6	4.65452E-005	-1.23756E-005	0.00000E+000	5.34840E-005	0.00000E+000	9	...........	1426.49
	31	2.7	4.76696E-005	-1.22893E-005	0.00000E+000	5.34840E-005	0.00000E+000	9	...........	1426.49
	32	2.8	4.74022E-005	-1.22149E-005	0.00000E+000	5.34840E-005	0.00000E+000	9	...........	1426.13
	33	2.9	4.66273E-005	-1.21365E-005	0.00000E+000	5.34840E-005	0.00000E+000	9	...........	1426.13
	34	3	4.84355E-005	-1.20497E-005	0.00000E+000	5.34840E-005	0.00000E+000	9	...........	1426.13
	35	3.1	4.77236E-005	-1.19845E-005	0.00000E+000	5.34840E-005	0.00000E+000	9	...........	1426.13
	36	3.2	4.78518E-005	-1.19053E-005	0.00000E+000	5.34840E-005	0.00000E+000	9	...........	1426.13
	37	3.3	4.68446E-005	-1.18384E-005	0.00000E+000	5.34840E-005	0.00000E+000	9	...........	1426.13
	38	3.4	4.64781E-005	-1.17702E-005	0.00000E+000	5.34840E-005	0.00000E+000	9	...........	1426.13
	39	3.5	4.71730E-005	-1.17165E-005	0.00000E+000	5.34840E-005	0.00000E+000	9	...........	1426.13
	40	3.6	4.68766E-005	-1.16513E-005	0.00000E+000	5.34840E-005	0.00000E+000	9	...........	1426.13
	41	3.7	4.73121E-005	-1.15990E-005	0.00000E+000	5.34840E-005	0.00000E+000	9	...........	1426.13
	42	3.8	4.67875E-005	-1.15276E-005	0.00000E+000	5.34840E-005	0.00000E+000	9	...........	1426.57
	43	3.9	4.66213E-005	-1.14739E-005	0.00000E+000	5.34840E-005	0.00000E+000	9	...........	1426.57
	44	4	4.75785E-005	-1.14169E-005	0.00000E+000	5.34840E-005	0.00000E+000	9	...........	1426.57
	45	4.1	4.79229E-005	-1.13560E-005	0.00000E+000	5.34840E-005	0.00000E+000	9	...........	1426.57
	46	4.2	4.82563E-005	-1.13056E-005	0.00000E+000	5.34840E-005	0.00000E+000	9	...........	1426.57
	47	4.3	4.72120E-005	-1.12602E-005	0.00000E+000	5.34840E-005	0.00000E+000	9	...........	1426.57
	48	4.4	4.75745E-005	-1.11970E-005	0.00000E+000	5.34840E-005	0.00000E+000	9	...........	1426.57
	49	4.5	4.79649E-005	-1.11636E-005	0.00000E+000	5.34840E-005	0.00000E+000	9	...........	1426.57
	50	4.6	4.77857E-005	-1.11057E-005	0.00000E+000	5.34840E-005	0.00000E+000	9	...........	1426.57
	51	4.7	4.81221E-005	-1.10566E-005	0.00000E+000	5.34840E-005	0.00000E+000	9	...........	1426.57
	52	4.8	4.63439E-005	-1.10099E-005	0.00000E+000	5.34840E-005	0.00000E+000	9	...........	1426.13
	53	4.9	4.71159E-005	-1.09599E-005	0.00000E+000	5.34840E-005	0.00000E+000	9	...........	1426.13
	54	5	4.61107E-005	-1.09261E-005	0.00000E+000	5.34840E-005	0.00000E+000	9	...........	1426.13
	55	5.1	4.74813E-005	-1.08862E-005	0.00000E+000	5.34840E-005	0.00000E+000	9	...........	1426.13
	56	5.2	4.74373E-005	-1.08351E-005	0.00000E+000	5.34840E-005	0.00000E+000	9	...........	1426.13
	57	5.3	4.74032E-005	-1.07944E-005	0.00000E+000	5.34840E-005	0.00000E+000	9	...........	1426.13
	58	5.4	4.70688E-005	-1.07528E-005	0.00000E+000	5.34840E-005	0.00000E+000	9	...........	1426.13
	59	5.5	4.70448E-005	-1.07201E-005	0.00000E+000	5.34840E-005	0.00000E+000	9	...........	1426.13
	60	5.6	4.69297E-005	-1.06751E-005	0.00000E+000	5.34840E-005	0.00000E+000	9	...........	1426.13
	61	5.7	4.75945E-005	-1.06315E-005	0.00000E+000	5.34840E-005	0.00000E+000	9	...........	1426.13
	62	5.8	4.67454E-005	-1.06000E-005	0.00000E+000	5.34840E-005	0.00000E+000	9	...........	1426.57
	63	5.9	4.66223E-005	-1.05520E-005	0.00000E+000	5.34840E-005	0.00000E+000	9	...........	1426.57
	64	6	4.71499E-005	-1.05214E-005	0.00000E+000	5.34840E-005	0.00000E+000	9	...........	1426.57
	65	6.1	4.64130E-005	-1.04906E-005	0.00000E+000	5.34840E-005	0.00000E+000	9	...........	1426.57
	66	7.1	4.72320E-005	-1.01347E-005	0.00000E+000	5.34840E-005	0.00000E+000	9	...........	1426.13
	67	8.1	4.72530E-005	-9.84948E-006	0.00000E+000	5.34840E-005	0.00000E+000	9	...........	1426.57
	68	9.1	4.69998E-005	-9.58337E-006	0.00000E+000	5.34840E-005	0.00000E+000	9	...........	1426.57
	69	10.1	4.56421E-005	-9.28840E-006	0.00000E+000	5.34840E-005	0.00000E+000	9	...........	1426.57
	70	11.1	4.64821E-005	-9.02293E-006	0.00000E+000	5.34840E-005	0.00000E+000	9	...........	1426.57
	71	12.1	4.60746E-005	-8.84608E-006	0.00000E+000	5.34840E-005	0.00000E+000	9	...........	1426.57
	72	13.1	4.65021E-005	-8.66035E-006	0.00000E+000	5.34840E-005	0.00000E+000	9	...........	1426.57
	73	14.1	4.65512E-005	-8.51774E-006	0.00000E+000	5.34840E-005	0.00000E+000	9	...........	1426.57
	74	15.1	4.63089E-005	-8.36562E-006	0.00000E+000	5.34840E-005	0.00000E+000	9	...........	1426.57
	75	16.1	4.66573E-005	-8.25390E-006	0.00000E+000	5.34840E-005	0.00000E+000	9	...........	1426.57
	76	26.1	4.59304E-005	-7.61588E-006	0.00000E+000	5.34840E-005	0.00000E+000	9	...........	1426.57
	77	36.1	4.64351E-005	-7.12670E-006	0.00000E+000	5.34840E-005	0.00000E+000	9	...........	1426.57
	78	46.1	4.56701E-005	-6.47026E-006	0.00000E+000	5.34840E-005	0.00000E+000	9	...........	1426.57
	79	56.1	4.76736E-005	-6.45621E-006	0.00000E+000	5.34840E-005	0.00000E+000	9	...........	1426.57
	80	66.1	4.55219E-005	-6.30319E-006	0.00000E+000	5.34840E-005	0.00000E+000	9	...........	1426.57
	81	76.1	4.60406E-005	-6.22824E-006	0.00000E+000	5.34840E-005	0.00000E+000	9	...........	1426.57
	82	86.1	4.61397E-005	-6.05830E-006	0.00000E+000	5.34840E-005	0.00000E+000	9	...........	1426.57
	83	96.1	4.60516E-005	-5.68121E-006	0.00000E+000	5.34840E-005	0.00000E+000	9	...........	1426.57
	84	106.1	4.71970E-005	-5.71715E-006	0.00000E+000	5.34840E-005	0.00000E+000	9	...........	1426.57
	85	116.1	4.78508E-005	-5.97401E-006	0.00000E+000	5.34840E-005	0.00000E+000	9	...........	1426.57
	86	216.1	4.75374E-005	-5.49889E-006	0.00000E+000	5.34840E-005	0.00000E+000	9	...........	1426.57
	87	300	4.71860E-005	-5.35598E-006	0.00000E+000	5.34840E-005	0.00000E+000	9	...........	1426.57
	88	300.1	-3.29270E-002	-2.08835E-004	0.00000E+000	-9.99460E-002	0.00000E+000	9	.........v.	1426.57
	89	300.2	-9.99798E-002	-1.08563E-004	0.00000E+000	-9.99460E-002	0.00000E+000	9	...........	1426.57
	90	300.3	-9.99795E-002	-8.25318E-005	0.00000E+000	-9.99460E-002	0.00000E+000	9	...........	1426.57
	91	300.4	-9.99797E-002	-7.28315E-005	0.00000E+000	-9.99460E-002	0.00000E+000	9	...........	1426.57
	92	300.5	-9.99794E-002	-6.77787E-005	0.00000E+000	-9.99460E-002	0.00000E+000	9	...........	1426.57
	93	300.6	-9.99796E-002	-6.44460E-005	0.00000E+000	-9.99460E-002	0.00000E+000	9	...........	1426.57
	94	300.7	-9.99774E-002	-6.19184E-005	0.00000E+000	-9.99460E-002	0.00000E+000	9	...........	1426.57
	95	300.8	-9.99778E-002	-5.98861E-005	0.00000E+000	-9.99460E-002	0.00000E+000	9	...........	1426.57
	96	300.9	-9.99792E-002	-5.81610E-005	0.00000E+000	-9.99460E-002	0.00000E+000	9	...........	1426.57
	97	301	-9.99794E-002	-5.66528E-005	0.00000E+000	-9.99460E-002	0.00000E+000	9	...........	1426.57
