EXPLAIN
TAG	CHRONOA
TITLE	LABEL	Chronoamperometry Scan	Test Identifier
DATE	LABEL	10/2/2022	Date
TIME	LABEL	15:04:20	Time
NOTES	NOTES	1	Notes...
	
PSTAT	PSTAT	IFC1010-21051	Potentiostat
VPRESTEP	POTEN	-3.00000E-001	F	Pre-step Voltage (V)
TPRESTEP	QUANT	5.00000E-001	Pre-step Delay Time (s)
VSTEP1	POTEN	-4.00000E-001	F	Step 1 Voltage (V)
TSTEP1	QUANT	3.00000E+002	Step 1 Time (s)
VSTEP2	POTEN	-5.00000E-001	F	Step 2 Voltage (V)
TSTEP2	QUANT	1.00000E+000	Step 2 Time (s)
SAMPLETIME	QUANT	1.00000E-001	Sample Period (s)
DECIMATE	TOGGLE	T	Decimate
ILIMIT	QUANT	1.00000E+000	Limit I (mA/cm^2)
IMODE	SELECTOR	1	I/E Range Mode
IRANGE	QUANT	3.00000E-001	Max Current (mA)
EQDELAY	QUANT	5.00000E+000	Equil. Time (s)
SAMPLINGMODE	SELECTOR	1	Sampling Mode
AREA	QUANT	1.00000E+000	Sample Area (cm^2)
IRCOMP	SELECTOR	0	IRComp
PFCOR	QUANT	5.00000E+001	PF Corr. (ohm)
SEQUENCER	TOGGLE	TRUE	Run as Sequence
PSTATMODEL	IQUANT	64	Pstat Model
PSTATSECTION	LABEL	IFC1010-21051	Pstat Section
PSTATSERIALNO	LABEL	21051	Pstat Serial Number
CTRLMODE	IQUANT	1	Control Mode
ELECTROMETER	IQUANT	0	RE=0 or CS=1
IESTAB	IQUANT	0	I/E Stability
CASPEED	IQUANT	4	Control Amp Speed
CONVENTION	IQUANT	1	Current Convention
ICHRANGE	IQUANT	2	Ich Range
ICHRANGEMODE	TOGGLE	T	Ich Auto Range
ICHOFFSETENABLE	TOGGLE	F	Ich Offset Enable
ICHOFFSET	QUANT	0	Ich Offset (V)
ICHFILTER	IQUANT	3	Ich Filter
VCHRANGE	IQUANT	3	Vch Range
VCHRANGEMODE	TOGGLE	T	Vch Auto Range
VCHOFFSETENABLE	TOGGLE	F	Vch Offset Enable
VCHOFFSET	QUANT	0	Vch Offset (V)
VCHFILTER	IQUANT	3	Vch Filter
IERANGELOWERLIMIT	IQUANT	4	I/E Range Lower Limit
IERANGEMODE	TOGGLE	F	I/E AutoRange
IERANGE	IQUANT	9	I/E Range
ACHSELECT	IQUANT	0	Ach Select
ACHRANGE	IQUANT	2	Ach Range
ACHOFFSETENABLE	TOGGLE	F	Ach Offset Enable
ACHOFFSET	QUANT	0	Ach Offset (V)
ACHFILTER	IQUANT	1	Ach Filter
SENSECABLEID	IQUANT	14	Sense Cable ID
PWRCABLEID	IQUANT	14	Power Cable ID
DCCALDATE	LABEL	1/24/2022	DC Calibration Date
ACCALDATE	LABEL	4/2/2018	AC Calibration Date
FRAMEWORKVERSION	QUANT	7.06	Framework Version
INSTRUMENTVERSION	LABEL	4.30	Instrument Version
CURVE	TABLE	98
	Pt	T	Vf	Im	Vu	Sig	Ach	IERange	Over	Temp
	#	s	V vs. Ref.	A	V	V	V	#	bits	deg C
	0	-0.4	-3.01262E-001	-6.39590E-005	0.00000E+000	-3.00011E-001	0.00000E+000	9	...........	1426.13
	1	-0.3	-3.00679E-001	-6.38145E-005	0.00000E+000	-3.00011E-001	0.00000E+000	9	...........	1426.13
	2	-0.2	-3.00682E-001	-6.36268E-005	0.00000E+000	-3.00011E-001	0.00000E+000	9	...........	1426.13
	3	-0.1	-3.00689E-001	-6.34847E-005	0.00000E+000	-3.00011E-001	0.00000E+000	9	...........	1426.13
	4	0	-3.00686E-001	-6.33182E-005	0.00000E+000	-3.00011E-001	0.00000E+000	9	...........	1426.13
	5	0.1	-4.00729E-001	-5.17493E-004	0.00000E+000	-4.00011E-001	0.00000E+000	9	...........	1426.13
	6	0.2	-4.00732E-001	-4.14488E-004	0.00000E+000	-4.00011E-001	0.00000E+000	9	...........	1426.13
	7	0.3	-4.00733E-001	-3.44978E-004	0.00000E+000	-4.00011E-001	0.00000E+000	9	...........	1426.13
	8	0.4	-4.00724E-001	-2.98924E-004	0.00000E+000	-4.00011E-001	0.00000E+000	9	...........	1426.13
	9	0.5	-4.00731E-001	-2.67275E-004	0.00000E+000	-4.00011E-001	0.00000E+000	9	...........	1426.13
	10	0.6	-4.00732E-001	-2.44612E-004	0.00000E+000	-4.00011E-001	0.00000E+000	9	...........	1426.13
	11	0.7	-4.00736E-001	-2.27856E-004	0.00000E+000	-4.00011E-001	0.00000E+000	9	...........	1426.13
	12	0.8	-4.00735E-001	-2.15147E-004	0.00000E+000	-4.00011E-001	0.00000E+000	9	...........	1426.13
	13	0.9	-4.00722E-001	-2.05203E-004	0.00000E+000	-4.00011E-001	0.00000E+000	9	...........	1426.13
	14	1	-4.00721E-001	-1.97196E-004	0.00000E+000	-4.00011E-001	0.00000E+000	9	...........	1426.13
	15	1.1	-4.00731E-001	-1.90686E-004	0.00000E+000	-4.00011E-001	0.00000E+000	9	...........	1426.13
	16	1.2	-4.00726E-001	-1.85230E-004	0.00000E+000	-4.00011E-001	0.00000E+000	9	...........	1426.13
	17	1.3	-4.00737E-001	-1.80562E-004	0.00000E+000	-4.00011E-001	0.00000E+000	9	...........	1426.13
	18	1.4	-4.00732E-001	-1.76559E-004	0.00000E+000	-4.00011E-001	0.00000E+000	9	...........	1426.13
	19	1.5	-4.00728E-001	-1.73051E-004	0.00000E+000	-4.00011E-001	0.00000E+000	9	...........	1426.04
	20	1.6	-4.00720E-001	-1.69912E-004	0.00000E+000	-4.00011E-001	0.00000E+000	9	...........	1426.04
	21	1.7	-4.00715E-001	-1.67061E-004	0.00000E+000	-4.00011E-001	0.00000E+000	9	...........	1426.04
	22	1.8	-4.00733E-001	-1.64542E-004	0.00000E+000	-4.00011E-001	0.00000E+000	9	...........	1426.04
	23	1.9	-4.00733E-001	-1.62226E-004	0.00000E+000	-4.00011E-001	0.00000E+000	9	...........	1426.04
	24	2	-4.00727E-001	-1.60078E-004	0.00000E+000	-4.00011E-001	0.00000E+000	9	...........	1426.04
	25	2.1	-4.00727E-001	-1.58103E-004	0.00000E+000	-4.00011E-001	0.00000E+000	9	...........	1426.04
	26	2.2	-4.00721E-001	-1.56250E-004	0.00000E+000	-4.00011E-001	0.00000E+000	9	...........	1426.04
	27	2.3	-4.00730E-001	-1.54535E-004	0.00000E+000	-4.00011E-001	0.00000E+000	9	...........	1426.04
	28	2.4	-4.00741E-001	-1.52894E-004	0.00000E+000	-4.00011E-001	0.00000E+000	9	...........	1426.04
	29	2.5	-4.00740E-001	-1.51369E-004	0.00000E+000	-4.00011E-001	0.00000E+000	9	...........	1425.69
	30	2.6	-4.00734E-001	-1.49914E-004	0.00000E+000	-4.00011E-001	0.00000E+000	9	...........	1425.69
	31	2.7	-4.00732E-001	-1.48528E-004	0.00000E+000	-4.00011E-001	0.00000E+000	9	...........	1425.69
	32	2.8	-4.00738E-001	-1.47249E-004	0.00000E+000	-4.00011E-001	0.00000E+000	9	...........	1425.69
	33	2.9	-4.00728E-001	-1.46000E-004	0.00000E+000	-4.00011E-001	0.00000E+000	9	...........	1425.69
	34	3	-4.00708E-001	-1.44760E-004	0.00000E+000	-4.00011E-001	0.00000E+000	9	...........	1425.69
	35	3.1	-4.00725E-001	-1.43662E-004	0.00000E+000	-4.00011E-001	0.00000E+000	9	...........	1425.69
	36	3.2	-4.00721E-001	-1.42560E-004	0.00000E+000	-4.00011E-001	0.00000E+000	9	...........	1425.69
	37	3.3	-4.00716E-001	-1.41495E-004	0.00000E+000	-4.00011E-001	0.00000E+000	9	...........	1425.69
	38	3.4	-4.00727E-001	-1.40505E-004	0.00000E+000	-4.00011E-001	0.00000E+000	9	...........	1425.69
	39	3.5	-4.00738E-001	-1.39577E-004	0.00000E+000	-4.00011E-001	0.00000E+000	9	...........	1426.04
	40	3.6	-4.00723E-001	-1.38636E-004	0.00000E+000	-4.00011E-001	0.00000E+000	9	...........	1426.04
	41	3.7	-4.00711E-001	-1.37727E-004	0.00000E+000	-4.00011E-001	0.00000E+000	9	...........	1426.04
	42	3.8	-4.00720E-001	-1.36866E-004	0.00000E+000	-4.00011E-001	0.00000E+000	9	...........	1426.04
	43	3.9	-4.00715E-001	-1.35962E-004	0.00000E+000	-4.00011E-001	0.00000E+000	9	...........	1426.04
	44	4	-4.00732E-001	-1.35195E-004	0.00000E+000	-4.00011E-001	0.00000E+000	9	...........	1426.04
	45	4.1	-4.00721E-001	-1.34376E-004	0.00000E+000	-4.00011E-001	0.00000E+000	9	...........	1426.04
	46	4.2	-4.00733E-001	-1.33675E-004	0.00000E+000	-4.00011E-001	0.00000E+000	9	...........	1426.04
	47	4.3	-4.00734E-001	-1.32903E-004	0.00000E+000	-4.00011E-001	0.00000E+000	9	...........	1426.04
	48	4.4	-4.00730E-001	-1.32147E-004	0.00000E+000	-4.00011E-001	0.00000E+000	9	...........	1426.04
	49	4.5	-4.00730E-001	-1.31453E-004	0.00000E+000	-4.00011E-001	0.00000E+000	9	...........	1425.95
	50	4.6	-4.00723E-001	-1.30739E-004	0.00000E+000	-4.00011E-001	0.00000E+000	9	...........	1425.95
	51	4.7	-4.00734E-001	-1.30108E-004	0.00000E+000	-4.00011E-001	0.00000E+000	9	...........	1425.95
	52	4.8	-4.00724E-001	-1.29423E-004	0.00000E+000	-4.00011E-001	0.00000E+000	9	...........	1425.95
	53	4.9	-4.00728E-001	-1.28802E-004	0.00000E+000	-4.00011E-001	0.00000E+000	9	...........	1425.95
	54	5	-4.00735E-001	-1.28169E-004	0.00000E+000	-4.00011E-001	0.00000E+000	9	...........	1425.95
	55	5.1	-4.00738E-001	-1.27568E-004	0.00000E+000	-4.00011E-001	0.00000E+000	9	...........	1425.95
	56	5.2	-4.00723E-001	-1.26982E-004	0.00000E+000	-4.00011E-001	0.00000E+000	9	...........	1425.95
	57	5.3	-4.00729E-001	-1.26373E-004	0.00000E+000	-4.00011E-001	0.00000E+000	9	...........	1425.95
	58	5.4	-4.00724E-001	-1.25836E-004	0.00000E+000	-4.00011E-001	0.00000E+000	9	...........	1425.95
	59	5.5	-4.00728E-001	-1.25303E-004	0.00000E+000	-4.00011E-001	0.00000E+000	9	...........	1426.04
	60	5.6	-4.00729E-001	-1.24739E-004	0.00000E+000	-4.00011E-001	0.00000E+000	9	...........	1426.04
	61	5.7	-4.00728E-001	-1.24203E-004	0.00000E+000	-4.00011E-001	0.00000E+000	9	...........	1426.04
	62	5.8	-4.00729E-001	-1.23729E-004	0.00000E+000	-4.00011E-001	0.00000E+000	9	...........	1426.04
	63	5.9	-4.00732E-001	-1.23221E-004	0.00000E+000	-4.00011E-001	0.00000E+000	9	...........	1426.04
	64	6	-4.00739E-001	-1.22704E-004	0.00000E+000	-4.00011E-001	0.00000E+000	9	...........	1426.04
	65	6.1	-4.00731E-001	-1.22232E-004	0.00000E+000	-4.00011E-001	0.00000E+000	9	...........	1426.04
	66	7.1	-4.00738E-001	-1.17816E-004	0.00000E+000	-4.00011E-001	0.00000E+000	9	...........	1425.60
	67	8.1	-4.00720E-001	-1.14209E-004	0.00000E+000	-4.00011E-001	0.00000E+000	9	...........	1426.04
	68	9.1	-4.00731E-001	-1.11051E-004	0.00000E+000	-4.00011E-001	0.00000E+000	9	...........	1426.13
	69	10.1	-4.00718E-001	-1.08275E-004	0.00000E+000	-4.00011E-001	0.00000E+000	9	...........	1426.13
	70	11.1	-4.00721E-001	-1.05832E-004	0.00000E+000	-4.00011E-001	0.00000E+000	9	...........	1426.13
	71	12.1	-4.00724E-001	-1.03604E-004	0.00000E+000	-4.00011E-001	0.00000E+000	9	...........	1426.13
	72	13.1	-4.00731E-001	-1.01742E-004	0.00000E+000	-4.00011E-001	0.00000E+000	9	...........	1426.13
	73	14.1	-4.00722E-001	-9.99862E-005	0.00000E+000	-4.00011E-001	0.00000E+000	9	...........	1426.13
	74	15.1	-4.00725E-001	-9.83936E-005	0.00000E+000	-4.00011E-001	0.00000E+000	9	...........	1426.13
	75	16.1	-4.00739E-001	-9.69628E-005	0.00000E+000	-4.00011E-001	0.00000E+000	9	...........	1426.13
	76	26.1	-4.00714E-001	-8.64680E-005	0.00000E+000	-4.00011E-001	0.00000E+000	9	...........	1426.22
	77	36.1	-4.00721E-001	-8.00506E-005	0.00000E+000	-4.00011E-001	0.00000E+000	9	...........	1426.13
	78	46.1	-4.00720E-001	-7.62460E-005	0.00000E+000	-4.00011E-001	0.00000E+000	9	...........	1426.22
	79	56.1	-4.00728E-001	-7.30005E-005	0.00000E+000	-4.00011E-001	0.00000E+000	9	...........	1426.22
	80	66.1	-4.00725E-001	-7.05755E-005	0.00000E+000	-4.00011E-001	0.00000E+000	9	...........	1426.22
	81	76.1	-4.00715E-001	-6.90250E-005	0.00000E+000	-4.00011E-001	0.00000E+000	9	...........	1426.22
	82	86.1	-4.00727E-001	-6.75212E-005	0.00000E+000	-4.00011E-001	0.00000E+000	9	...........	1426.22
	83	96.1	-4.00728E-001	-6.61997E-005	0.00000E+000	-4.00011E-001	0.00000E+000	9	...........	1426.22
	84	106.1	-4.00726E-001	-6.50843E-005	0.00000E+000	-4.00011E-001	0.00000E+000	9	...........	1426.22
	85	116.1	-4.00721E-001	-6.38274E-005	0.00000E+000	-4.00011E-001	0.00000E+000	9	...........	1426.22
	86	216.1	-4.00741E-001	-5.83149E-005	0.00000E+000	-4.00011E-001	0.00000E+000	9	...........	1426.22
	87	300	-4.00730E-001	-5.53092E-005	0.00000E+000	-4.00011E-001	0.00000E+000	9	...........	1426.31
	88	300.1	-5.00730E-001	-4.92002E-004	0.00000E+000	-5.00010E-001	0.00000E+000	9	...........	1426.31
	89	300.2	-5.00725E-001	-3.76295E-004	0.00000E+000	-5.00010E-001	0.00000E+000	9	...........	1426.31
	90	300.3	-5.00732E-001	-3.06566E-004	0.00000E+000	-5.00010E-001	0.00000E+000	9	...........	1426.31
	91	300.4	-5.00729E-001	-2.62043E-004	0.00000E+000	-5.00010E-001	0.00000E+000	9	...........	1426.31
	92	300.5	-5.00730E-001	-2.32118E-004	0.00000E+000	-5.00010E-001	0.00000E+000	9	...........	1426.31
	93	300.6	-5.00745E-001	-2.11316E-004	0.00000E+000	-5.00010E-001	0.00000E+000	9	...........	1426.31
	94	300.7	-5.00728E-001	-1.96348E-004	0.00000E+000	-5.00010E-001	0.00000E+000	9	...........	1426.31
	95	300.8	-5.00744E-001	-1.85155E-004	0.00000E+000	-5.00010E-001	0.00000E+000	9	...........	1426.31
	96	300.9	-5.00742E-001	-1.76577E-004	0.00000E+000	-5.00010E-001	0.00000E+000	9	...........	1426.31
	97	301	-5.00739E-001	-1.69794E-004	0.00000E+000	-5.00010E-001	0.00000E+000	9	...........	1426.31
