EXPLAIN
TAG	CHRONOA
TITLE	LABEL	Chronoamperometry Scan	Test Identifier
DATE	LABEL	10/2/2022	Date
TIME	LABEL	12:07:52	Time
NOTES	NOTES	1	Notes...
	
PSTAT	PSTAT	IFC1010-21051	Potentiostat
VPRESTEP	POTEN	1.00000E-002	F	Pre-step Voltage (V)
TPRESTEP	QUANT	5.00000E-001	Pre-step Delay Time (s)
VSTEP1	POTEN	0.00000E+000	F	Step 1 Voltage (V)
TSTEP1	QUANT	3.00000E+002	Step 1 Time (s)
VSTEP2	POTEN	-1.00000E-001	F	Step 2 Voltage (V)
TSTEP2	QUANT	1.00000E+000	Step 2 Time (s)
SAMPLETIME	QUANT	1.00000E-001	Sample Period (s)
DECIMATE	TOGGLE	T	Decimate
ILIMIT	QUANT	1.00000E+000	Limit I (mA/cm^2)
IMODE	SELECTOR	1	I/E Range Mode
IRANGE	QUANT	3.00000E-001	Max Current (mA)
EQDELAY	QUANT	5.00000E+000	Equil. Time (s)
SAMPLINGMODE	SELECTOR	1	Sampling Mode
AREA	QUANT	1.00000E+000	Sample Area (cm^2)
IRCOMP	SELECTOR	0	IRComp
PFCOR	QUANT	5.00000E+001	PF Corr. (ohm)
SEQUENCER	TOGGLE	TRUE	Run as Sequence
PSTATMODEL	IQUANT	64	Pstat Model
PSTATSECTION	LABEL	IFC1010-21051	Pstat Section
PSTATSERIALNO	LABEL	21051	Pstat Serial Number
CTRLMODE	IQUANT	1	Control Mode
ELECTROMETER	IQUANT	0	RE=0 or CS=1
IESTAB	IQUANT	0	I/E Stability
CASPEED	IQUANT	4	Control Amp Speed
CONVENTION	IQUANT	1	Current Convention
ICHRANGE	IQUANT	2	Ich Range
ICHRANGEMODE	TOGGLE	T	Ich Auto Range
ICHOFFSETENABLE	TOGGLE	F	Ich Offset Enable
ICHOFFSET	QUANT	0	Ich Offset (V)
ICHFILTER	IQUANT	3	Ich Filter
VCHRANGE	IQUANT	3	Vch Range
VCHRANGEMODE	TOGGLE	T	Vch Auto Range
VCHOFFSETENABLE	TOGGLE	F	Vch Offset Enable
VCHOFFSET	QUANT	0	Vch Offset (V)
VCHFILTER	IQUANT	3	Vch Filter
IERANGELOWERLIMIT	IQUANT	4	I/E Range Lower Limit
IERANGEMODE	TOGGLE	F	I/E AutoRange
IERANGE	IQUANT	9	I/E Range
ACHSELECT	IQUANT	0	Ach Select
ACHRANGE	IQUANT	2	Ach Range
ACHOFFSETENABLE	TOGGLE	F	Ach Offset Enable
ACHOFFSET	QUANT	0	Ach Offset (V)
ACHFILTER	IQUANT	1	Ach Filter
SENSECABLEID	IQUANT	14	Sense Cable ID
PWRCABLEID	IQUANT	14	Power Cable ID
DCCALDATE	LABEL	1/24/2022	DC Calibration Date
ACCALDATE	LABEL	4/2/2018	AC Calibration Date
FRAMEWORKVERSION	QUANT	7.06	Framework Version
INSTRUMENTVERSION	LABEL	4.30	Instrument Version
CURVE	TABLE	98
	Pt	T	Vf	Im	Vu	Sig	Ach	IERange	Over	Temp
	#	s	V vs. Ref.	A	V	V	V	#	bits	deg C
	0	-0.4	9.29998E-003	-3.71685E-005	0.00000E+000	1.00559E-002	0.00000E+000	9	...........	1425.42
	1	-0.3	9.91224E-003	-3.67547E-005	0.00000E+000	1.00559E-002	0.00000E+000	9	...........	1425.42
	2	-0.2	1.00518E-002	-3.63423E-005	0.00000E+000	1.00559E-002	0.00000E+000	9	...........	1425.42
	3	-0.1	1.00657E-002	-3.59660E-005	0.00000E+000	1.00559E-002	0.00000E+000	9	...........	1425.42
	4	0	1.00661E-002	-3.55910E-005	0.00000E+000	1.00559E-002	0.00000E+000	9	...........	1425.42
	5	0.1	5.87762E-005	-7.83265E-005	0.00000E+000	5.34840E-005	0.00000E+000	9	...........	1425.42
	6	0.2	5.90936E-005	-6.91635E-005	0.00000E+000	5.34840E-005	0.00000E+000	9	...........	1425.42
	7	0.3	5.93109E-005	-6.26970E-005	0.00000E+000	5.34840E-005	0.00000E+000	9	...........	1425.42
	8	0.4	5.87642E-005	-5.78881E-005	0.00000E+000	5.34840E-005	0.00000E+000	9	...........	1425.42
	9	0.5	5.77450E-005	-5.41777E-005	0.00000E+000	5.34840E-005	0.00000E+000	9	...........	1425.42
	10	0.6	5.80774E-005	-5.12274E-005	0.00000E+000	5.34840E-005	0.00000E+000	9	...........	1425.42
	11	0.7	5.92308E-005	-4.88331E-005	0.00000E+000	5.34840E-005	0.00000E+000	9	...........	1425.42
	12	0.8	5.86811E-005	-4.68657E-005	0.00000E+000	5.34840E-005	0.00000E+000	9	...........	1425.42
	13	0.9	5.83237E-005	-4.52218E-005	0.00000E+000	5.34840E-005	0.00000E+000	9	...........	1425.42
	14	1	5.88083E-005	-4.38328E-005	0.00000E+000	5.34840E-005	0.00000E+000	9	...........	1425.42
	15	1.1	5.92649E-005	-4.26499E-005	0.00000E+000	5.34840E-005	0.00000E+000	9	...........	1425.78
	16	1.2	5.73765E-005	-4.16324E-005	0.00000E+000	5.34840E-005	0.00000E+000	9	...........	1425.78
	17	1.3	5.83818E-005	-4.07293E-005	0.00000E+000	5.34840E-005	0.00000E+000	9	...........	1425.78
	18	1.4	5.69370E-005	-3.99169E-005	0.00000E+000	5.34840E-005	0.00000E+000	9	...........	1425.78
	19	1.5	5.67307E-005	-3.91789E-005	0.00000E+000	5.34840E-005	0.00000E+000	9	...........	1425.78
	20	1.6	5.67427E-005	-3.85146E-005	0.00000E+000	5.34840E-005	0.00000E+000	9	...........	1425.78
	21	1.7	5.74096E-005	-3.79074E-005	0.00000E+000	5.34840E-005	0.00000E+000	9	...........	1425.78
	22	1.8	5.74907E-005	-3.73574E-005	0.00000E+000	5.34840E-005	0.00000E+000	9	...........	1425.78
	23	1.9	5.67307E-005	-3.68519E-005	0.00000E+000	5.34840E-005	0.00000E+000	9	...........	1425.78
	24	2	5.78411E-005	-3.63697E-005	0.00000E+000	5.34840E-005	0.00000E+000	9	...........	1425.78
	25	2.1	5.71562E-005	-3.59144E-005	0.00000E+000	5.34840E-005	0.00000E+000	9	...........	1425.34
	26	2.2	5.68609E-005	-3.54843E-005	0.00000E+000	5.34840E-005	0.00000E+000	9	...........	1425.34
	27	2.3	5.62381E-005	-3.50655E-005	0.00000E+000	5.34840E-005	0.00000E+000	9	...........	1425.34
	28	2.4	5.62111E-005	-3.46649E-005	0.00000E+000	5.34840E-005	0.00000E+000	9	...........	1425.34
	29	2.5	5.76919E-005	-3.42841E-005	0.00000E+000	5.34840E-005	0.00000E+000	9	...........	1425.34
	30	2.6	5.84038E-005	-3.39187E-005	0.00000E+000	5.34840E-005	0.00000E+000	9	...........	1425.34
	31	2.7	5.82466E-005	-3.35726E-005	0.00000E+000	5.34840E-005	0.00000E+000	9	...........	1425.34
	32	2.8	5.90155E-005	-3.32359E-005	0.00000E+000	5.34840E-005	0.00000E+000	9	...........	1425.34
	33	2.9	5.75697E-005	-3.29238E-005	0.00000E+000	5.34840E-005	0.00000E+000	9	...........	1425.34
	34	3	5.68118E-005	-3.26359E-005	0.00000E+000	5.34840E-005	0.00000E+000	9	...........	1425.34
	35	3.1	5.75157E-005	-3.23289E-005	0.00000E+000	5.34840E-005	0.00000E+000	9	...........	1425.78
	36	3.2	5.77229E-005	-3.20310E-005	0.00000E+000	5.34840E-005	0.00000E+000	9	...........	1425.78
	37	3.3	5.65415E-005	-3.17446E-005	0.00000E+000	5.34840E-005	0.00000E+000	9	...........	1425.78
	38	3.4	5.77740E-005	-3.14622E-005	0.00000E+000	5.34840E-005	0.00000E+000	9	...........	1425.78
	39	3.5	5.74967E-005	-3.12205E-005	0.00000E+000	5.34840E-005	0.00000E+000	9	...........	1425.78
	40	3.6	5.68529E-005	-3.09949E-005	0.00000E+000	5.34840E-005	0.00000E+000	9	...........	1425.78
	41	3.7	5.67217E-005	-3.07757E-005	0.00000E+000	5.34840E-005	0.00000E+000	9	...........	1425.78
	42	3.8	5.69360E-005	-3.05513E-005	0.00000E+000	5.34840E-005	0.00000E+000	9	...........	1425.78
	43	3.9	5.72023E-005	-3.03293E-005	0.00000E+000	5.34840E-005	0.00000E+000	9	...........	1425.78
	44	4	5.65225E-005	-3.01211E-005	0.00000E+000	5.34840E-005	0.00000E+000	9	...........	1425.78
	45	4.1	5.68989E-005	-2.99173E-005	0.00000E+000	5.34840E-005	0.00000E+000	9	...........	1425.34
	46	4.2	5.58326E-005	-2.97112E-005	0.00000E+000	5.34840E-005	0.00000E+000	9	...........	1425.34
	47	4.3	5.67908E-005	-2.95253E-005	0.00000E+000	5.34840E-005	0.00000E+000	9	...........	1425.34
	48	4.4	5.62882E-005	-2.93523E-005	0.00000E+000	5.34840E-005	0.00000E+000	9	...........	1425.34
	49	4.5	5.80934E-005	-2.91833E-005	0.00000E+000	5.34840E-005	0.00000E+000	9	...........	1425.34
	50	4.6	5.68919E-005	-2.90226E-005	0.00000E+000	5.34840E-005	0.00000E+000	9	...........	1425.34
	51	4.7	5.57215E-005	-2.88705E-005	0.00000E+000	5.34840E-005	0.00000E+000	9	...........	1425.34
	52	4.8	5.70171E-005	-2.86940E-005	0.00000E+000	5.34840E-005	0.00000E+000	9	...........	1425.34
	53	4.9	5.63943E-005	-2.85250E-005	0.00000E+000	5.34840E-005	0.00000E+000	9	...........	1425.34
	54	5	5.58947E-005	-2.83499E-005	0.00000E+000	5.34840E-005	0.00000E+000	9	...........	1425.34
	55	5.1	5.65805E-005	-2.81804E-005	0.00000E+000	5.34840E-005	0.00000E+000	9	...........	1425.78
	56	5.2	5.69730E-005	-2.80160E-005	0.00000E+000	5.34840E-005	0.00000E+000	9	...........	1425.78
	57	5.3	5.83547E-005	-2.78598E-005	0.00000E+000	5.34840E-005	0.00000E+000	9	...........	1425.78
	58	5.4	5.78251E-005	-2.77092E-005	0.00000E+000	5.34840E-005	0.00000E+000	9	...........	1425.78
	59	5.5	5.81565E-005	-2.75589E-005	0.00000E+000	5.34840E-005	0.00000E+000	9	...........	1425.78
	60	5.6	5.82626E-005	-2.74163E-005	0.00000E+000	5.34840E-005	0.00000E+000	9	...........	1425.78
	61	5.7	5.75407E-005	-2.72740E-005	0.00000E+000	5.34840E-005	0.00000E+000	9	...........	1425.78
	62	5.8	5.81645E-005	-2.71263E-005	0.00000E+000	5.34840E-005	0.00000E+000	9	...........	1425.78
	63	5.9	5.70992E-005	-2.69929E-005	0.00000E+000	5.34840E-005	0.00000E+000	9	...........	1425.78
	64	6	5.68428E-005	-2.68775E-005	0.00000E+000	5.34840E-005	0.00000E+000	9	...........	1425.78
	65	6.1	5.71192E-005	-2.67478E-005	0.00000E+000	5.34840E-005	0.00000E+000	9	...........	1425.78
	66	7.1	5.65495E-005	-2.57431E-005	0.00000E+000	5.34840E-005	0.00000E+000	9	...........	1425.78
	67	8.1	5.71662E-005	-2.47298E-005	0.00000E+000	5.34840E-005	0.00000E+000	9	...........	1425.78
	68	9.1	5.65245E-005	-2.37823E-005	0.00000E+000	5.34840E-005	0.00000E+000	9	...........	1425.78
	69	10.1	5.68919E-005	-2.29384E-005	0.00000E+000	5.34840E-005	0.00000E+000	9	...........	1425.78
	70	11.1	5.69440E-005	-2.20436E-005	0.00000E+000	5.34840E-005	0.00000E+000	9	...........	1425.78
	71	12.1	5.55192E-005	-2.14227E-005	0.00000E+000	5.34840E-005	0.00000E+000	9	...........	1425.78
	72	13.1	5.49986E-005	-2.09132E-005	0.00000E+000	5.34840E-005	0.00000E+000	9	...........	1425.78
	73	14.1	5.63903E-005	-2.04669E-005	0.00000E+000	5.34840E-005	0.00000E+000	9	...........	1425.78
	74	15.1	5.65495E-005	-2.01909E-005	0.00000E+000	5.34840E-005	0.00000E+000	9	...........	1425.78
	75	16.1	5.62451E-005	-1.97502E-005	0.00000E+000	5.34840E-005	0.00000E+000	9	...........	1425.78
	76	26.1	5.73715E-005	-1.68650E-005	0.00000E+000	5.34840E-005	0.00000E+000	9	...........	1425.78
	77	36.1	5.74316E-005	-1.53907E-005	0.00000E+000	5.34840E-005	0.00000E+000	9	...........	1425.78
	78	46.1	5.74816E-005	-1.42881E-005	0.00000E+000	5.34840E-005	0.00000E+000	9	...........	1425.87
	79	56.1	5.76428E-005	-1.38059E-005	0.00000E+000	5.34840E-005	0.00000E+000	9	...........	1425.87
	80	66.1	5.76098E-005	-1.35436E-005	0.00000E+000	5.34840E-005	0.00000E+000	9	...........	1425.87
	81	76.1	5.77610E-005	-1.35342E-005	0.00000E+000	5.34840E-005	0.00000E+000	9	...........	1425.87
	82	86.1	5.70481E-005	-1.34389E-005	0.00000E+000	5.34840E-005	0.00000E+000	9	...........	1425.78
	83	96.1	5.70791E-005	-1.31154E-005	0.00000E+000	5.34840E-005	0.00000E+000	9	...........	1425.78
	84	106.1	5.85199E-005	-1.31055E-005	0.00000E+000	5.34840E-005	0.00000E+000	9	...........	1425.87
	85	116.1	5.71613E-005	-1.31975E-005	0.00000E+000	5.34840E-005	0.00000E+000	9	...........	1425.87
	86	216.1	5.69029E-005	-1.27682E-005	0.00000E+000	5.34840E-005	0.00000E+000	9	...........	1425.87
	87	300	5.67988E-005	-1.26790E-005	0.00000E+000	5.34840E-005	0.00000E+000	9	...........	1425.87
	88	300.1	-3.29270E-002	-4.27462E-004	0.00000E+000	-9.99460E-002	0.00000E+000	9	.........v.	1425.87
	89	300.2	-9.99640E-002	-3.31667E-004	0.00000E+000	-9.99460E-002	0.00000E+000	9	...........	1425.87
	90	300.3	-9.99656E-002	-2.68154E-004	0.00000E+000	-9.99460E-002	0.00000E+000	9	...........	1425.87
	91	300.4	-9.99650E-002	-2.23201E-004	0.00000E+000	-9.99460E-002	0.00000E+000	9	...........	1425.87
	92	300.5	-9.99678E-002	-1.89976E-004	0.00000E+000	-9.99460E-002	0.00000E+000	9	...........	1425.87
	93	300.6	-9.99660E-002	-1.64609E-004	0.00000E+000	-9.99460E-002	0.00000E+000	9	...........	1425.87
	94	300.7	-9.99666E-002	-1.44755E-004	0.00000E+000	-9.99460E-002	0.00000E+000	9	...........	1425.87
	95	300.8	-9.99647E-002	-1.28890E-004	0.00000E+000	-9.99460E-002	0.00000E+000	9	...........	1425.87
	96	300.9	-9.99658E-002	-1.16013E-004	0.00000E+000	-9.99460E-002	0.00000E+000	9	...........	1425.87
	97	301	-9.99660E-002	-1.05400E-004	0.00000E+000	-9.99460E-002	0.00000E+000	9	...........	1425.87
