EXPLAIN
TAG	CHRONOA
TITLE	LABEL	Chronoamperometry Scan	Test Identifier
DATE	LABEL	10/2/2022	Date
TIME	LABEL	18:01:11	Time
NOTES	NOTES	1	Notes...
	
PSTAT	PSTAT	IFC1010-21051	Potentiostat
VPRESTEP	POTEN	1.00000E-002	F	Pre-step Voltage (V)
TPRESTEP	QUANT	5.00000E-001	Pre-step Delay Time (s)
VSTEP1	POTEN	0.00000E+000	F	Step 1 Voltage (V)
TSTEP1	QUANT	3.00000E+002	Step 1 Time (s)
VSTEP2	POTEN	-1.00000E-001	F	Step 2 Voltage (V)
TSTEP2	QUANT	1.00000E+000	Step 2 Time (s)
SAMPLETIME	QUANT	1.00000E-001	Sample Period (s)
DECIMATE	TOGGLE	T	Decimate
ILIMIT	QUANT	1.00000E+000	Limit I (mA/cm^2)
IMODE	SELECTOR	1	I/E Range Mode
IRANGE	QUANT	3.00000E-001	Max Current (mA)
EQDELAY	QUANT	5.00000E+000	Equil. Time (s)
SAMPLINGMODE	SELECTOR	1	Sampling Mode
AREA	QUANT	1.00000E+000	Sample Area (cm^2)
IRCOMP	SELECTOR	0	IRComp
PFCOR	QUANT	5.00000E+001	PF Corr. (ohm)
SEQUENCER	TOGGLE	TRUE	Run as Sequence
PSTATMODEL	IQUANT	64	Pstat Model
PSTATSECTION	LABEL	IFC1010-21051	Pstat Section
PSTATSERIALNO	LABEL	21051	Pstat Serial Number
CTRLMODE	IQUANT	1	Control Mode
ELECTROMETER	IQUANT	0	RE=0 or CS=1
IESTAB	IQUANT	0	I/E Stability
CASPEED	IQUANT	4	Control Amp Speed
CONVENTION	IQUANT	1	Current Convention
ICHRANGE	IQUANT	2	Ich Range
ICHRANGEMODE	TOGGLE	T	Ich Auto Range
ICHOFFSETENABLE	TOGGLE	F	Ich Offset Enable
ICHOFFSET	QUANT	0	Ich Offset (V)
ICHFILTER	IQUANT	3	Ich Filter
VCHRANGE	IQUANT	3	Vch Range
VCHRANGEMODE	TOGGLE	T	Vch Auto Range
VCHOFFSETENABLE	TOGGLE	F	Vch Offset Enable
VCHOFFSET	QUANT	0	Vch Offset (V)
VCHFILTER	IQUANT	3	Vch Filter
IERANGELOWERLIMIT	IQUANT	4	I/E Range Lower Limit
IERANGEMODE	TOGGLE	F	I/E AutoRange
IERANGE	IQUANT	9	I/E Range
ACHSELECT	IQUANT	0	Ach Select
ACHRANGE	IQUANT	2	Ach Range
ACHOFFSETENABLE	TOGGLE	F	Ach Offset Enable
ACHOFFSET	QUANT	0	Ach Offset (V)
ACHFILTER	IQUANT	1	Ach Filter
SENSECABLEID	IQUANT	14	Sense Cable ID
PWRCABLEID	IQUANT	14	Power Cable ID
DCCALDATE	LABEL	1/24/2022	DC Calibration Date
ACCALDATE	LABEL	4/2/2018	AC Calibration Date
FRAMEWORKVERSION	QUANT	7.06	Framework Version
INSTRUMENTVERSION	LABEL	4.30	Instrument Version
CURVE	TABLE	98
	Pt	T	Vf	Im	Vu	Sig	Ach	IERange	Over	Temp
	#	s	V vs. Ref.	A	V	V	V	#	bits	deg C
	0	-0.4	9.20709E-003	-1.70570E-005	0.00000E+000	1.00559E-002	0.00000E+000	9	...........	1426.22
	1	-0.3	9.88171E-003	-1.69130E-005	0.00000E+000	1.00559E-002	0.00000E+000	9	...........	1426.22
	2	-0.2	1.00393E-002	-1.67671E-005	0.00000E+000	1.00559E-002	0.00000E+000	9	...........	1426.22
	3	-0.1	1.00567E-002	-1.66242E-005	0.00000E+000	1.00559E-002	0.00000E+000	9	...........	1426.22
	4	0	1.00552E-002	-1.64943E-005	0.00000E+000	1.00559E-002	0.00000E+000	9	...........	1426.22
	5	0.1	4.87079E-005	-4.80878E-005	0.00000E+000	5.34840E-005	0.00000E+000	9	...........	1426.22
	6	0.2	4.73682E-005	-3.57131E-005	0.00000E+000	5.34840E-005	0.00000E+000	9	...........	1426.22
	7	0.3	4.70668E-005	-2.97295E-005	0.00000E+000	5.34840E-005	0.00000E+000	9	...........	1426.22
	8	0.4	4.77537E-005	-2.64329E-005	0.00000E+000	5.34840E-005	0.00000E+000	9	...........	1426.22
	9	0.5	4.75024E-005	-2.44275E-005	0.00000E+000	5.34840E-005	0.00000E+000	9	...........	1426.22
	10	0.6	4.72400E-005	-2.30987E-005	0.00000E+000	5.34840E-005	0.00000E+000	9	...........	1426.22
	11	0.7	4.67765E-005	-2.21640E-005	0.00000E+000	5.34840E-005	0.00000E+000	9	...........	1426.22
	12	0.8	4.68305E-005	-2.14599E-005	0.00000E+000	5.34840E-005	0.00000E+000	9	...........	1426.22
	13	0.9	4.64771E-005	-2.08933E-005	0.00000E+000	5.34840E-005	0.00000E+000	9	...........	1426.22
	14	1	4.65202E-005	-2.04427E-005	0.00000E+000	5.34840E-005	0.00000E+000	9	...........	1426.22
	15	1.1	4.75064E-005	-2.00589E-005	0.00000E+000	5.34840E-005	0.00000E+000	9	...........	1426.40
	16	1.2	4.62989E-005	-1.97356E-005	0.00000E+000	5.34840E-005	0.00000E+000	9	...........	1426.40
	17	1.3	4.70969E-005	-1.94408E-005	0.00000E+000	5.34840E-005	0.00000E+000	9	...........	1426.40
	18	1.4	4.69847E-005	-1.91749E-005	0.00000E+000	5.34840E-005	0.00000E+000	9	...........	1426.40
	19	1.5	4.66794E-005	-1.89459E-005	0.00000E+000	5.34840E-005	0.00000E+000	9	...........	1426.40
	20	1.6	4.73542E-005	-1.87247E-005	0.00000E+000	5.34840E-005	0.00000E+000	9	...........	1426.40
	21	1.7	4.67665E-005	-1.85286E-005	0.00000E+000	5.34840E-005	0.00000E+000	9	...........	1426.40
	22	1.8	4.64661E-005	-1.83394E-005	0.00000E+000	5.34840E-005	0.00000E+000	9	...........	1426.40
	23	1.9	4.58644E-005	-1.81625E-005	0.00000E+000	5.34840E-005	0.00000E+000	9	...........	1426.40
	24	2	4.53918E-005	-1.79883E-005	0.00000E+000	5.34840E-005	0.00000E+000	9	...........	1426.40
	25	2.1	4.64391E-005	-1.78267E-005	0.00000E+000	5.34840E-005	0.00000E+000	9	...........	1426.49
	26	2.2	4.66123E-005	-1.76785E-005	0.00000E+000	5.34840E-005	0.00000E+000	9	...........	1426.49
	27	2.3	4.71970E-005	-1.75363E-005	0.00000E+000	5.34840E-005	0.00000E+000	9	...........	1426.49
	28	2.4	4.70899E-005	-1.73995E-005	0.00000E+000	5.34840E-005	0.00000E+000	9	...........	1426.49
	29	2.5	4.59194E-005	-1.72592E-005	0.00000E+000	5.34840E-005	0.00000E+000	9	...........	1426.49
	30	2.6	4.72571E-005	-1.71392E-005	0.00000E+000	5.34840E-005	0.00000E+000	9	...........	1426.49
	31	2.7	4.55910E-005	-1.70198E-005	0.00000E+000	5.34840E-005	0.00000E+000	9	...........	1426.49
	32	2.8	4.63139E-005	-1.68895E-005	0.00000E+000	5.34840E-005	0.00000E+000	9	...........	1426.49
	33	2.9	4.54328E-005	-1.67772E-005	0.00000E+000	5.34840E-005	0.00000E+000	9	...........	1426.49
	34	3	4.56531E-005	-1.66683E-005	0.00000E+000	5.34840E-005	0.00000E+000	9	...........	1426.49
	35	3.1	4.53988E-005	-1.65649E-005	0.00000E+000	5.34840E-005	0.00000E+000	9	...........	1426.49
	36	3.2	4.67374E-005	-1.64474E-005	0.00000E+000	5.34840E-005	0.00000E+000	9	...........	1426.49
	37	3.3	4.63610E-005	-1.63517E-005	0.00000E+000	5.34840E-005	0.00000E+000	9	...........	1426.49
	38	3.4	4.54729E-005	-1.62455E-005	0.00000E+000	5.34840E-005	0.00000E+000	9	...........	1426.49
	39	3.5	4.66233E-005	-1.61483E-005	0.00000E+000	5.34840E-005	0.00000E+000	9	...........	1426.49
	40	3.6	4.55039E-005	-1.60558E-005	0.00000E+000	5.34840E-005	0.00000E+000	9	...........	1426.49
	41	3.7	4.60756E-005	-1.59597E-005	0.00000E+000	5.34840E-005	0.00000E+000	9	...........	1426.49
	42	3.8	4.66874E-005	-1.58576E-005	0.00000E+000	5.34840E-005	0.00000E+000	9	...........	1426.49
	43	3.9	4.60916E-005	-1.57799E-005	0.00000E+000	5.34840E-005	0.00000E+000	9	...........	1426.49
	44	4	4.65922E-005	-1.57042E-005	0.00000E+000	5.34840E-005	0.00000E+000	9	...........	1426.49
	45	4.1	4.66323E-005	-1.56067E-005	0.00000E+000	5.34840E-005	0.00000E+000	9	...........	1426.57
	46	4.2	4.59585E-005	-1.55267E-005	0.00000E+000	5.34840E-005	0.00000E+000	9	...........	1426.57
	47	4.3	4.67785E-005	-1.54559E-005	0.00000E+000	5.34840E-005	0.00000E+000	9	...........	1426.57
	48	4.4	4.58844E-005	-1.53774E-005	0.00000E+000	5.34840E-005	0.00000E+000	9	...........	1426.57
	49	4.5	4.61147E-005	-1.53093E-005	0.00000E+000	5.34840E-005	0.00000E+000	9	...........	1426.57
	50	4.6	4.48781E-005	-1.52339E-005	0.00000E+000	5.34840E-005	0.00000E+000	9	...........	1426.57
	51	4.7	4.63710E-005	-1.51664E-005	0.00000E+000	5.34840E-005	0.00000E+000	9	...........	1426.57
	52	4.8	4.64771E-005	-1.50870E-005	0.00000E+000	5.34840E-005	0.00000E+000	9	...........	1426.57
	53	4.9	4.74693E-005	-1.50191E-005	0.00000E+000	5.34840E-005	0.00000E+000	9	...........	1426.57
	54	5	4.72230E-005	-1.49404E-005	0.00000E+000	5.34840E-005	0.00000E+000	9	...........	1426.57
	55	5.1	4.65081E-005	-1.48930E-005	0.00000E+000	5.34840E-005	0.00000E+000	9	...........	1426.49
	56	5.2	4.72621E-005	-1.48146E-005	0.00000E+000	5.34840E-005	0.00000E+000	9	...........	1426.49
	57	5.3	4.66493E-005	-1.47524E-005	0.00000E+000	5.34840E-005	0.00000E+000	9	...........	1426.49
	58	5.4	4.62098E-005	-1.46820E-005	0.00000E+000	5.34840E-005	0.00000E+000	9	...........	1426.49
	59	5.5	4.65332E-005	-1.46186E-005	0.00000E+000	5.34840E-005	0.00000E+000	9	...........	1426.49
	60	5.6	4.52997E-005	-1.45629E-005	0.00000E+000	5.34840E-005	0.00000E+000	9	...........	1426.49
	61	5.7	4.54368E-005	-1.45062E-005	0.00000E+000	5.34840E-005	0.00000E+000	9	...........	1426.49
	62	5.8	4.58133E-005	-1.44352E-005	0.00000E+000	5.34840E-005	0.00000E+000	9	...........	1426.49
	63	5.9	4.52216E-005	-1.43806E-005	0.00000E+000	5.34840E-005	0.00000E+000	9	...........	1426.49
	64	6	4.51215E-005	-1.43196E-005	0.00000E+000	5.34840E-005	0.00000E+000	9	...........	1426.49
	65	6.1	4.48591E-005	-1.42635E-005	0.00000E+000	5.34840E-005	0.00000E+000	9	...........	1426.57
	66	7.1	4.43915E-005	-1.37501E-005	0.00000E+000	5.34840E-005	0.00000E+000	9	...........	1426.22
	67	8.1	4.62338E-005	-1.33441E-005	0.00000E+000	5.34840E-005	0.00000E+000	9	...........	1426.57
	68	9.1	4.49042E-005	-1.30051E-005	0.00000E+000	5.34840E-005	0.00000E+000	9	...........	1426.57
	69	10.1	4.56511E-005	-1.26741E-005	0.00000E+000	5.34840E-005	0.00000E+000	9	...........	1426.57
	70	11.1	4.48932E-005	-1.24514E-005	0.00000E+000	5.34840E-005	0.00000E+000	9	...........	1426.57
	71	12.1	4.57893E-005	-1.22148E-005	0.00000E+000	5.34840E-005	0.00000E+000	9	...........	1426.57
	72	13.1	4.72911E-005	-1.19904E-005	0.00000E+000	5.34840E-005	0.00000E+000	9	...........	1426.57
	73	14.1	4.64361E-005	-1.17872E-005	0.00000E+000	5.34840E-005	0.00000E+000	9	...........	1426.57
	74	15.1	4.65472E-005	-1.15406E-005	0.00000E+000	5.34840E-005	0.00000E+000	9	...........	1426.57
	75	16.1	4.60185E-005	-1.13482E-005	0.00000E+000	5.34840E-005	0.00000E+000	9	...........	1426.57
	76	26.1	4.54819E-005	-9.83036E-006	0.00000E+000	5.34840E-005	0.00000E+000	9	...........	1426.49
	77	36.1	4.64361E-005	-9.37462E-006	0.00000E+000	5.34840E-005	0.00000E+000	9	...........	1426.57
	78	46.1	4.56170E-005	-8.62278E-006	0.00000E+000	5.34840E-005	0.00000E+000	9	...........	1426.57
	79	56.1	4.79579E-005	-8.30769E-006	0.00000E+000	5.34840E-005	0.00000E+000	9	...........	1426.57
	80	66.1	4.65882E-005	-8.26244E-006	0.00000E+000	5.34840E-005	0.00000E+000	9	...........	1426.57
	81	76.1	4.66654E-005	-7.84314E-006	0.00000E+000	5.34840E-005	0.00000E+000	9	...........	1426.57
	82	86.1	4.92014E-005	-7.80277E-006	0.00000E+000	5.34840E-005	0.00000E+000	9	...........	1426.57
	83	96.1	4.55740E-005	-7.48044E-006	0.00000E+000	5.34840E-005	0.00000E+000	9	...........	1426.57
	84	106.1	4.72911E-005	-7.54270E-006	0.00000E+000	5.34840E-005	0.00000E+000	9	...........	1426.57
	85	116.1	4.46979E-005	-7.19227E-006	0.00000E+000	5.34840E-005	0.00000E+000	9	...........	1426.57
	86	216.1	4.47310E-005	-6.32017E-006	0.00000E+000	5.34840E-005	0.00000E+000	9	...........	1426.49
	87	300	4.31720E-005	-6.03214E-006	0.00000E+000	5.34840E-005	0.00000E+000	9	...........	1426.57
	88	300.1	-3.29270E-002	-2.34209E-004	0.00000E+000	-9.99460E-002	0.00000E+000	9	.........v.	1426.57
	89	300.2	-9.99824E-002	-1.27986E-004	0.00000E+000	-9.99460E-002	0.00000E+000	9	...........	1426.57
	90	300.3	-9.99812E-002	-9.39287E-005	0.00000E+000	-9.99460E-002	0.00000E+000	9	...........	1426.57
	91	300.4	-9.99826E-002	-7.97454E-005	0.00000E+000	-9.99460E-002	0.00000E+000	9	...........	1426.57
	92	300.5	-9.99794E-002	-7.22519E-005	0.00000E+000	-9.99460E-002	0.00000E+000	9	...........	1426.57
	93	300.6	-9.99809E-002	-6.74773E-005	0.00000E+000	-9.99460E-002	0.00000E+000	9	...........	1426.57
	94	300.7	-9.99794E-002	-6.39981E-005	0.00000E+000	-9.99460E-002	0.00000E+000	9	...........	1426.57
	95	300.8	-9.99817E-002	-6.12892E-005	0.00000E+000	-9.99460E-002	0.00000E+000	9	...........	1426.57
	96	300.9	-9.99819E-002	-5.90179E-005	0.00000E+000	-9.99460E-002	0.00000E+000	9	...........	1426.57
	97	301	-9.99817E-002	-5.70790E-005	0.00000E+000	-9.99460E-002	0.00000E+000	9	...........	1426.57
