EXPLAIN
TAG	CHRONOA
TITLE	LABEL	Chronoamperometry Scan	Test Identifier
DATE	LABEL	10/2/2022	Date
TIME	LABEL	15:45:40	Time
NOTES	NOTES	1	Notes...
	
PSTAT	PSTAT	IFC1010-21051	Potentiostat
VPRESTEP	POTEN	-3.00000E-001	F	Pre-step Voltage (V)
TPRESTEP	QUANT	5.00000E-001	Pre-step Delay Time (s)
VSTEP1	POTEN	-4.00000E-001	F	Step 1 Voltage (V)
TSTEP1	QUANT	3.00000E+002	Step 1 Time (s)
VSTEP2	POTEN	-5.00000E-001	F	Step 2 Voltage (V)
TSTEP2	QUANT	1.00000E+000	Step 2 Time (s)
SAMPLETIME	QUANT	1.00000E-001	Sample Period (s)
DECIMATE	TOGGLE	T	Decimate
ILIMIT	QUANT	1.00000E+000	Limit I (mA/cm^2)
IMODE	SELECTOR	1	I/E Range Mode
IRANGE	QUANT	3.00000E-001	Max Current (mA)
EQDELAY	QUANT	5.00000E+000	Equil. Time (s)
SAMPLINGMODE	SELECTOR	1	Sampling Mode
AREA	QUANT	1.00000E+000	Sample Area (cm^2)
IRCOMP	SELECTOR	0	IRComp
PFCOR	QUANT	5.00000E+001	PF Corr. (ohm)
SEQUENCER	TOGGLE	TRUE	Run as Sequence
PSTATMODEL	IQUANT	64	Pstat Model
PSTATSECTION	LABEL	IFC1010-21051	Pstat Section
PSTATSERIALNO	LABEL	21051	Pstat Serial Number
CTRLMODE	IQUANT	1	Control Mode
ELECTROMETER	IQUANT	0	RE=0 or CS=1
IESTAB	IQUANT	0	I/E Stability
CASPEED	IQUANT	4	Control Amp Speed
CONVENTION	IQUANT	1	Current Convention
ICHRANGE	IQUANT	2	Ich Range
ICHRANGEMODE	TOGGLE	T	Ich Auto Range
ICHOFFSETENABLE	TOGGLE	F	Ich Offset Enable
ICHOFFSET	QUANT	0	Ich Offset (V)
ICHFILTER	IQUANT	3	Ich Filter
VCHRANGE	IQUANT	3	Vch Range
VCHRANGEMODE	TOGGLE	T	Vch Auto Range
VCHOFFSETENABLE	TOGGLE	F	Vch Offset Enable
VCHOFFSET	QUANT	0	Vch Offset (V)
VCHFILTER	IQUANT	3	Vch Filter
IERANGELOWERLIMIT	IQUANT	4	I/E Range Lower Limit
IERANGEMODE	TOGGLE	F	I/E AutoRange
IERANGE	IQUANT	9	I/E Range
ACHSELECT	IQUANT	0	Ach Select
ACHRANGE	IQUANT	2	Ach Range
ACHOFFSETENABLE	TOGGLE	F	Ach Offset Enable
ACHOFFSET	QUANT	0	Ach Offset (V)
ACHFILTER	IQUANT	1	Ach Filter
SENSECABLEID	IQUANT	14	Sense Cable ID
PWRCABLEID	IQUANT	14	Power Cable ID
DCCALDATE	LABEL	1/24/2022	DC Calibration Date
ACCALDATE	LABEL	4/2/2018	AC Calibration Date
FRAMEWORKVERSION	QUANT	7.06	Framework Version
INSTRUMENTVERSION	LABEL	4.30	Instrument Version
CURVE	TABLE	98
	Pt	T	Vf	Im	Vu	Sig	Ach	IERange	Over	Temp
	#	s	V vs. Ref.	A	V	V	V	#	bits	deg C
	0	-0.4	-3.01316E-001	-6.59553E-005	0.00000E+000	-3.00011E-001	0.00000E+000	9	...........	1426.22
	1	-0.3	-3.00693E-001	-6.58338E-005	0.00000E+000	-3.00011E-001	0.00000E+000	9	...........	1426.22
	2	-0.2	-3.00689E-001	-6.56740E-005	0.00000E+000	-3.00011E-001	0.00000E+000	9	...........	1426.22
	3	-0.1	-3.00682E-001	-6.54868E-005	0.00000E+000	-3.00011E-001	0.00000E+000	9	...........	1426.22
	4	0	-3.00676E-001	-6.53400E-005	0.00000E+000	-3.00011E-001	0.00000E+000	9	...........	1426.22
	5	0.1	-4.00732E-001	-5.12889E-004	0.00000E+000	-4.00011E-001	0.00000E+000	9	...........	1426.22
	6	0.2	-4.00720E-001	-4.07900E-004	0.00000E+000	-4.00011E-001	0.00000E+000	9	...........	1426.22
	7	0.3	-4.00733E-001	-3.39841E-004	0.00000E+000	-4.00011E-001	0.00000E+000	9	...........	1426.22
	8	0.4	-4.00722E-001	-2.95746E-004	0.00000E+000	-4.00011E-001	0.00000E+000	9	...........	1426.22
	9	0.5	-4.00719E-001	-2.65783E-004	0.00000E+000	-4.00011E-001	0.00000E+000	9	...........	1426.22
	10	0.6	-4.00723E-001	-2.44579E-004	0.00000E+000	-4.00011E-001	0.00000E+000	9	...........	1426.22
	11	0.7	-4.00721E-001	-2.28934E-004	0.00000E+000	-4.00011E-001	0.00000E+000	9	...........	1426.22
	12	0.8	-4.00724E-001	-2.17062E-004	0.00000E+000	-4.00011E-001	0.00000E+000	9	...........	1426.22
	13	0.9	-4.00734E-001	-2.07832E-004	0.00000E+000	-4.00011E-001	0.00000E+000	9	...........	1426.22
	14	1	-4.00727E-001	-2.00343E-004	0.00000E+000	-4.00011E-001	0.00000E+000	9	...........	1426.22
	15	1.1	-4.00718E-001	-1.94139E-004	0.00000E+000	-4.00011E-001	0.00000E+000	9	...........	1425.78
	16	1.2	-4.00730E-001	-1.88991E-004	0.00000E+000	-4.00011E-001	0.00000E+000	9	...........	1425.78
	17	1.3	-4.00726E-001	-1.84555E-004	0.00000E+000	-4.00011E-001	0.00000E+000	9	...........	1425.78
	18	1.4	-4.00727E-001	-1.80697E-004	0.00000E+000	-4.00011E-001	0.00000E+000	9	...........	1425.78
	19	1.5	-4.00736E-001	-1.77223E-004	0.00000E+000	-4.00011E-001	0.00000E+000	9	...........	1425.78
	20	1.6	-4.00740E-001	-1.74198E-004	0.00000E+000	-4.00011E-001	0.00000E+000	9	...........	1425.78
	21	1.7	-4.00731E-001	-1.71454E-004	0.00000E+000	-4.00011E-001	0.00000E+000	9	...........	1425.78
	22	1.8	-4.00719E-001	-1.68952E-004	0.00000E+000	-4.00011E-001	0.00000E+000	9	...........	1425.78
	23	1.9	-4.00735E-001	-1.66649E-004	0.00000E+000	-4.00011E-001	0.00000E+000	9	...........	1425.78
	24	2	-4.00740E-001	-1.64540E-004	0.00000E+000	-4.00011E-001	0.00000E+000	9	...........	1425.78
	25	2.1	-4.00742E-001	-1.62568E-004	0.00000E+000	-4.00011E-001	0.00000E+000	9	...........	1425.69
	26	2.2	-4.00721E-001	-1.60713E-004	0.00000E+000	-4.00011E-001	0.00000E+000	9	...........	1425.69
	27	2.3	-4.00736E-001	-1.58956E-004	0.00000E+000	-4.00011E-001	0.00000E+000	9	...........	1425.69
	28	2.4	-4.00726E-001	-1.57312E-004	0.00000E+000	-4.00011E-001	0.00000E+000	9	...........	1425.69
	29	2.5	-4.00735E-001	-1.55788E-004	0.00000E+000	-4.00011E-001	0.00000E+000	9	...........	1425.69
	30	2.6	-4.00737E-001	-1.54345E-004	0.00000E+000	-4.00011E-001	0.00000E+000	9	...........	1425.69
	31	2.7	-4.00741E-001	-1.52958E-004	0.00000E+000	-4.00011E-001	0.00000E+000	9	...........	1425.69
	32	2.8	-4.00732E-001	-1.51619E-004	0.00000E+000	-4.00011E-001	0.00000E+000	9	...........	1425.69
	33	2.9	-4.00725E-001	-1.50380E-004	0.00000E+000	-4.00011E-001	0.00000E+000	9	...........	1425.69
	34	3	-4.00727E-001	-1.49163E-004	0.00000E+000	-4.00011E-001	0.00000E+000	9	...........	1425.69
	35	3.1	-4.00718E-001	-1.47999E-004	0.00000E+000	-4.00011E-001	0.00000E+000	9	...........	1425.87
	36	3.2	-4.00722E-001	-1.46860E-004	0.00000E+000	-4.00011E-001	0.00000E+000	9	...........	1425.87
	37	3.3	-4.00732E-001	-1.45759E-004	0.00000E+000	-4.00011E-001	0.00000E+000	9	...........	1425.87
	38	3.4	-4.00726E-001	-1.44783E-004	0.00000E+000	-4.00011E-001	0.00000E+000	9	...........	1425.87
	39	3.5	-4.00724E-001	-1.43754E-004	0.00000E+000	-4.00011E-001	0.00000E+000	9	...........	1425.87
	40	3.6	-4.00727E-001	-1.42798E-004	0.00000E+000	-4.00011E-001	0.00000E+000	9	...........	1425.87
	41	3.7	-4.00717E-001	-1.41856E-004	0.00000E+000	-4.00011E-001	0.00000E+000	9	...........	1425.87
	42	3.8	-4.00724E-001	-1.40927E-004	0.00000E+000	-4.00011E-001	0.00000E+000	9	...........	1425.87
	43	3.9	-4.00730E-001	-1.40079E-004	0.00000E+000	-4.00011E-001	0.00000E+000	9	...........	1425.87
	44	4	-4.00732E-001	-1.39279E-004	0.00000E+000	-4.00011E-001	0.00000E+000	9	...........	1425.87
	45	4.1	-4.00734E-001	-1.38414E-004	0.00000E+000	-4.00011E-001	0.00000E+000	9	...........	1425.87
	46	4.2	-4.00727E-001	-1.37613E-004	0.00000E+000	-4.00011E-001	0.00000E+000	9	...........	1425.87
	47	4.3	-4.00724E-001	-1.36834E-004	0.00000E+000	-4.00011E-001	0.00000E+000	9	...........	1425.87
	48	4.4	-4.00731E-001	-1.36093E-004	0.00000E+000	-4.00011E-001	0.00000E+000	9	...........	1425.87
	49	4.5	-4.00730E-001	-1.35330E-004	0.00000E+000	-4.00011E-001	0.00000E+000	9	...........	1425.87
	50	4.6	-4.00733E-001	-1.34625E-004	0.00000E+000	-4.00011E-001	0.00000E+000	9	...........	1425.87
	51	4.7	-4.00731E-001	-1.33937E-004	0.00000E+000	-4.00011E-001	0.00000E+000	9	...........	1425.87
	52	4.8	-4.00723E-001	-1.33264E-004	0.00000E+000	-4.00011E-001	0.00000E+000	9	...........	1425.87
	53	4.9	-4.00722E-001	-1.32550E-004	0.00000E+000	-4.00011E-001	0.00000E+000	9	...........	1425.87
	54	5	-4.00735E-001	-1.31925E-004	0.00000E+000	-4.00011E-001	0.00000E+000	9	...........	1425.87
	55	5.1	-4.00735E-001	-1.31277E-004	0.00000E+000	-4.00011E-001	0.00000E+000	9	...........	1425.78
	56	5.2	-4.00732E-001	-1.30616E-004	0.00000E+000	-4.00011E-001	0.00000E+000	9	...........	1425.78
	57	5.3	-4.00737E-001	-1.30031E-004	0.00000E+000	-4.00011E-001	0.00000E+000	9	...........	1425.78
	58	5.4	-4.00734E-001	-1.29465E-004	0.00000E+000	-4.00011E-001	0.00000E+000	9	...........	1425.78
	59	5.5	-4.00732E-001	-1.28900E-004	0.00000E+000	-4.00011E-001	0.00000E+000	9	...........	1425.78
	60	5.6	-4.00734E-001	-1.28363E-004	0.00000E+000	-4.00011E-001	0.00000E+000	9	...........	1425.78
	61	5.7	-4.00727E-001	-1.27763E-004	0.00000E+000	-4.00011E-001	0.00000E+000	9	...........	1425.78
	62	5.8	-4.00739E-001	-1.27250E-004	0.00000E+000	-4.00011E-001	0.00000E+000	9	...........	1425.78
	63	5.9	-4.00731E-001	-1.26663E-004	0.00000E+000	-4.00011E-001	0.00000E+000	9	...........	1425.78
	64	6	-4.00736E-001	-1.26219E-004	0.00000E+000	-4.00011E-001	0.00000E+000	9	...........	1425.78
	65	6.1	-4.00737E-001	-1.25700E-004	0.00000E+000	-4.00011E-001	0.00000E+000	9	...........	1426.04
	66	7.1	-4.00732E-001	-1.21197E-004	0.00000E+000	-4.00011E-001	0.00000E+000	9	...........	1425.69
	67	8.1	-4.00727E-001	-1.17435E-004	0.00000E+000	-4.00011E-001	0.00000E+000	9	...........	1426.22
	68	9.1	-4.00734E-001	-1.14168E-004	0.00000E+000	-4.00011E-001	0.00000E+000	9	...........	1426.22
	69	10.1	-4.00731E-001	-1.11443E-004	0.00000E+000	-4.00011E-001	0.00000E+000	9	...........	1426.22
	70	11.1	-4.00733E-001	-1.08998E-004	0.00000E+000	-4.00011E-001	0.00000E+000	9	...........	1426.22
	71	12.1	-4.00726E-001	-1.06805E-004	0.00000E+000	-4.00011E-001	0.00000E+000	9	...........	1426.22
	72	13.1	-4.00730E-001	-1.04695E-004	0.00000E+000	-4.00011E-001	0.00000E+000	9	...........	1426.22
	73	14.1	-4.00737E-001	-1.02846E-004	0.00000E+000	-4.00011E-001	0.00000E+000	9	...........	1426.22
	74	15.1	-4.00735E-001	-1.01021E-004	0.00000E+000	-4.00011E-001	0.00000E+000	9	...........	1426.22
	75	16.1	-4.00727E-001	-9.92594E-005	0.00000E+000	-4.00011E-001	0.00000E+000	9	...........	1426.13
	76	26.1	-4.00738E-001	-8.83488E-005	0.00000E+000	-4.00011E-001	0.00000E+000	9	...........	1426.22
	77	36.1	-4.00741E-001	-8.19156E-005	0.00000E+000	-4.00011E-001	0.00000E+000	9	...........	1426.22
	78	46.1	-4.00729E-001	-7.74334E-005	0.00000E+000	-4.00011E-001	0.00000E+000	9	...........	1426.22
	79	56.1	-4.00732E-001	-7.42120E-005	0.00000E+000	-4.00011E-001	0.00000E+000	9	...........	1426.22
	80	66.1	-4.00724E-001	-7.16103E-005	0.00000E+000	-4.00011E-001	0.00000E+000	9	...........	1426.22
	81	76.1	-4.00729E-001	-6.94834E-005	0.00000E+000	-4.00011E-001	0.00000E+000	9	...........	1426.31
	82	86.1	-4.00733E-001	-6.78515E-005	0.00000E+000	-4.00011E-001	0.00000E+000	9	...........	1426.31
	83	96.1	-4.00738E-001	-6.65177E-005	0.00000E+000	-4.00011E-001	0.00000E+000	9	...........	1426.31
	84	106.1	-4.00728E-001	-6.54346E-005	0.00000E+000	-4.00011E-001	0.00000E+000	9	...........	1426.31
	85	116.1	-4.00725E-001	-6.43926E-005	0.00000E+000	-4.00011E-001	0.00000E+000	9	...........	1426.31
	86	216.1	-4.00733E-001	-5.82112E-005	0.00000E+000	-4.00011E-001	0.00000E+000	9	...........	1426.31
	87	300	-4.00721E-001	-5.55777E-005	0.00000E+000	-4.00011E-001	0.00000E+000	9	...........	1426.31
	88	300.1	-5.00729E-001	-4.83674E-004	0.00000E+000	-5.00010E-001	0.00000E+000	9	...........	1426.22
	89	300.2	-5.00717E-001	-3.65519E-004	0.00000E+000	-5.00010E-001	0.00000E+000	9	...........	1426.22
	90	300.3	-5.00719E-001	-2.96402E-004	0.00000E+000	-5.00010E-001	0.00000E+000	9	...........	1426.22
	91	300.4	-5.00731E-001	-2.53282E-004	0.00000E+000	-5.00010E-001	0.00000E+000	9	...........	1426.22
	92	300.5	-5.00736E-001	-2.24807E-004	0.00000E+000	-5.00010E-001	0.00000E+000	9	...........	1426.22
	93	300.6	-5.00734E-001	-2.05242E-004	0.00000E+000	-5.00010E-001	0.00000E+000	9	...........	1426.22
	94	300.7	-5.00733E-001	-1.91205E-004	0.00000E+000	-5.00010E-001	0.00000E+000	9	...........	1426.22
	95	300.8	-5.00739E-001	-1.80752E-004	0.00000E+000	-5.00010E-001	0.00000E+000	9	...........	1426.22
	96	300.9	-5.00737E-001	-1.72776E-004	0.00000E+000	-5.00010E-001	0.00000E+000	9	...........	1426.22
	97	301	-5.00724E-001	-1.66426E-004	0.00000E+000	-5.00010E-001	0.00000E+000	9	...........	1426.22
