EXPLAIN
TAG	CHRONOA
TITLE	LABEL	Chronoamperometry Scan	Test Identifier
DATE	LABEL	10/2/2022	Date
TIME	LABEL	13:14:45	Time
NOTES	NOTES	1	Notes...
	
PSTAT	PSTAT	IFC1010-21051	Potentiostat
VPRESTEP	POTEN	-3.00000E-001	F	Pre-step Voltage (V)
TPRESTEP	QUANT	5.00000E-001	Pre-step Delay Time (s)
VSTEP1	POTEN	-4.00000E-001	F	Step 1 Voltage (V)
TSTEP1	QUANT	3.00000E+002	Step 1 Time (s)
VSTEP2	POTEN	-5.00000E-001	F	Step 2 Voltage (V)
TSTEP2	QUANT	1.00000E+000	Step 2 Time (s)
SAMPLETIME	QUANT	1.00000E-001	Sample Period (s)
DECIMATE	TOGGLE	T	Decimate
ILIMIT	QUANT	1.00000E+000	Limit I (mA/cm^2)
IMODE	SELECTOR	1	I/E Range Mode
IRANGE	QUANT	3.00000E-001	Max Current (mA)
EQDELAY	QUANT	5.00000E+000	Equil. Time (s)
SAMPLINGMODE	SELECTOR	1	Sampling Mode
AREA	QUANT	1.00000E+000	Sample Area (cm^2)
IRCOMP	SELECTOR	0	IRComp
PFCOR	QUANT	5.00000E+001	PF Corr. (ohm)
SEQUENCER	TOGGLE	TRUE	Run as Sequence
PSTATMODEL	IQUANT	64	Pstat Model
PSTATSECTION	LABEL	IFC1010-21051	Pstat Section
PSTATSERIALNO	LABEL	21051	Pstat Serial Number
CTRLMODE	IQUANT	1	Control Mode
ELECTROMETER	IQUANT	0	RE=0 or CS=1
IESTAB	IQUANT	0	I/E Stability
CASPEED	IQUANT	4	Control Amp Speed
CONVENTION	IQUANT	1	Current Convention
ICHRANGE	IQUANT	2	Ich Range
ICHRANGEMODE	TOGGLE	T	Ich Auto Range
ICHOFFSETENABLE	TOGGLE	F	Ich Offset Enable
ICHOFFSET	QUANT	0	Ich Offset (V)
ICHFILTER	IQUANT	3	Ich Filter
VCHRANGE	IQUANT	3	Vch Range
VCHRANGEMODE	TOGGLE	T	Vch Auto Range
VCHOFFSETENABLE	TOGGLE	F	Vch Offset Enable
VCHOFFSET	QUANT	0	Vch Offset (V)
VCHFILTER	IQUANT	3	Vch Filter
IERANGELOWERLIMIT	IQUANT	4	I/E Range Lower Limit
IERANGEMODE	TOGGLE	F	I/E AutoRange
IERANGE	IQUANT	9	I/E Range
ACHSELECT	IQUANT	0	Ach Select
ACHRANGE	IQUANT	2	Ach Range
ACHOFFSETENABLE	TOGGLE	F	Ach Offset Enable
ACHOFFSET	QUANT	0	Ach Offset (V)
ACHFILTER	IQUANT	1	Ach Filter
SENSECABLEID	IQUANT	14	Sense Cable ID
PWRCABLEID	IQUANT	14	Power Cable ID
DCCALDATE	LABEL	1/24/2022	DC Calibration Date
ACCALDATE	LABEL	4/2/2018	AC Calibration Date
FRAMEWORKVERSION	QUANT	7.06	Framework Version
INSTRUMENTVERSION	LABEL	4.30	Instrument Version
CURVE	TABLE	98
	Pt	T	Vf	Im	Vu	Sig	Ach	IERange	Over	Temp
	#	s	V vs. Ref.	A	V	V	V	#	bits	deg C
	0	-0.4	-3.01193E-001	-5.68426E-005	0.00000E+000	-3.00011E-001	0.00000E+000	9	...........	1425.95
	1	-0.3	-3.00665E-001	-5.66885E-005	0.00000E+000	-3.00011E-001	0.00000E+000	9	...........	1425.95
	2	-0.2	-3.00670E-001	-5.65423E-005	0.00000E+000	-3.00011E-001	0.00000E+000	9	...........	1425.95
	3	-0.1	-3.00671E-001	-5.63877E-005	0.00000E+000	-3.00011E-001	0.00000E+000	9	...........	1425.95
	4	0	-3.00677E-001	-5.62512E-005	0.00000E+000	-3.00011E-001	0.00000E+000	9	...........	1425.95
	5	0.1	-4.00718E-001	-5.10578E-004	0.00000E+000	-4.00011E-001	0.00000E+000	9	...........	1425.95
	6	0.2	-4.00720E-001	-4.11698E-004	0.00000E+000	-4.00011E-001	0.00000E+000	9	...........	1425.95
	7	0.3	-4.00724E-001	-3.46083E-004	0.00000E+000	-4.00011E-001	0.00000E+000	9	...........	1425.95
	8	0.4	-4.00730E-001	-3.01000E-004	0.00000E+000	-4.00011E-001	0.00000E+000	9	...........	1425.95
	9	0.5	-4.00718E-001	-2.68754E-004	0.00000E+000	-4.00011E-001	0.00000E+000	9	...........	1425.95
	10	0.6	-4.00717E-001	-2.45069E-004	0.00000E+000	-4.00011E-001	0.00000E+000	9	...........	1425.95
	11	0.7	-4.00721E-001	-2.27165E-004	0.00000E+000	-4.00011E-001	0.00000E+000	9	...........	1425.95
	12	0.8	-4.00716E-001	-2.13279E-004	0.00000E+000	-4.00011E-001	0.00000E+000	9	...........	1425.95
	13	0.9	-4.00714E-001	-2.02255E-004	0.00000E+000	-4.00011E-001	0.00000E+000	9	...........	1425.95
	14	1	-4.00712E-001	-1.93422E-004	0.00000E+000	-4.00011E-001	0.00000E+000	9	...........	1425.95
	15	1.1	-4.00717E-001	-1.86133E-004	0.00000E+000	-4.00011E-001	0.00000E+000	9	...........	1425.95
	16	1.2	-4.00710E-001	-1.80013E-004	0.00000E+000	-4.00011E-001	0.00000E+000	9	...........	1425.95
	17	1.3	-4.00721E-001	-1.74826E-004	0.00000E+000	-4.00011E-001	0.00000E+000	9	...........	1425.95
	18	1.4	-4.00724E-001	-1.70390E-004	0.00000E+000	-4.00011E-001	0.00000E+000	9	...........	1425.95
	19	1.5	-4.00712E-001	-1.66506E-004	0.00000E+000	-4.00011E-001	0.00000E+000	9	...........	1425.95
	20	1.6	-4.00714E-001	-1.63073E-004	0.00000E+000	-4.00011E-001	0.00000E+000	9	...........	1425.95
	21	1.7	-4.00721E-001	-1.60006E-004	0.00000E+000	-4.00011E-001	0.00000E+000	9	...........	1425.95
	22	1.8	-4.00705E-001	-1.57230E-004	0.00000E+000	-4.00011E-001	0.00000E+000	9	...........	1425.95
	23	1.9	-4.00724E-001	-1.54756E-004	0.00000E+000	-4.00011E-001	0.00000E+000	9	...........	1425.95
	24	2	-4.00730E-001	-1.52455E-004	0.00000E+000	-4.00011E-001	0.00000E+000	9	...........	1425.95
	25	2.1	-4.00713E-001	-1.50373E-004	0.00000E+000	-4.00011E-001	0.00000E+000	9	...........	1425.95
	26	2.2	-4.00706E-001	-1.48412E-004	0.00000E+000	-4.00011E-001	0.00000E+000	9	...........	1425.95
	27	2.3	-4.00725E-001	-1.46631E-004	0.00000E+000	-4.00011E-001	0.00000E+000	9	...........	1425.95
	28	2.4	-4.00715E-001	-1.44950E-004	0.00000E+000	-4.00011E-001	0.00000E+000	9	...........	1425.87
	29	2.5	-4.00720E-001	-1.43359E-004	0.00000E+000	-4.00011E-001	0.00000E+000	9	...........	1425.87
	30	2.6	-4.00710E-001	-1.41869E-004	0.00000E+000	-4.00011E-001	0.00000E+000	9	...........	1425.87
	31	2.7	-4.00723E-001	-1.40479E-004	0.00000E+000	-4.00011E-001	0.00000E+000	9	...........	1425.87
	32	2.8	-4.00714E-001	-1.39144E-004	0.00000E+000	-4.00011E-001	0.00000E+000	9	...........	1425.87
	33	2.9	-4.00725E-001	-1.37849E-004	0.00000E+000	-4.00011E-001	0.00000E+000	9	...........	1425.87
	34	3	-4.00725E-001	-1.36655E-004	0.00000E+000	-4.00011E-001	0.00000E+000	9	...........	1425.87
	35	3.1	-4.00711E-001	-1.35486E-004	0.00000E+000	-4.00011E-001	0.00000E+000	9	...........	1425.87
	36	3.2	-4.00710E-001	-1.34401E-004	0.00000E+000	-4.00011E-001	0.00000E+000	9	...........	1425.87
	37	3.3	-4.00720E-001	-1.33306E-004	0.00000E+000	-4.00011E-001	0.00000E+000	9	...........	1425.87
	38	3.4	-4.00710E-001	-1.32321E-004	0.00000E+000	-4.00011E-001	0.00000E+000	9	...........	1425.87
	39	3.5	-4.00724E-001	-1.31340E-004	0.00000E+000	-4.00011E-001	0.00000E+000	9	...........	1425.87
	40	3.6	-4.00726E-001	-1.30439E-004	0.00000E+000	-4.00011E-001	0.00000E+000	9	...........	1425.87
	41	3.7	-4.00716E-001	-1.29499E-004	0.00000E+000	-4.00011E-001	0.00000E+000	9	...........	1425.87
	42	3.8	-4.00718E-001	-1.28622E-004	0.00000E+000	-4.00011E-001	0.00000E+000	9	...........	1425.87
	43	3.9	-4.00713E-001	-1.27766E-004	0.00000E+000	-4.00011E-001	0.00000E+000	9	...........	1425.87
	44	4	-4.00717E-001	-1.26918E-004	0.00000E+000	-4.00011E-001	0.00000E+000	9	...........	1425.87
	45	4.1	-4.00702E-001	-1.26100E-004	0.00000E+000	-4.00011E-001	0.00000E+000	9	...........	1425.87
	46	4.2	-4.00743E-001	-1.25390E-004	0.00000E+000	-4.00011E-001	0.00000E+000	9	...........	1425.87
	47	4.3	-4.00709E-001	-1.24647E-004	0.00000E+000	-4.00011E-001	0.00000E+000	9	...........	1425.87
	48	4.4	-4.00727E-001	-1.23960E-004	0.00000E+000	-4.00011E-001	0.00000E+000	9	...........	1425.87
	49	4.5	-4.00708E-001	-1.23224E-004	0.00000E+000	-4.00011E-001	0.00000E+000	9	...........	1425.87
	50	4.6	-4.00722E-001	-1.22565E-004	0.00000E+000	-4.00011E-001	0.00000E+000	9	...........	1425.87
	51	4.7	-4.00724E-001	-1.21881E-004	0.00000E+000	-4.00011E-001	0.00000E+000	9	...........	1425.87
	52	4.8	-4.00713E-001	-1.21243E-004	0.00000E+000	-4.00011E-001	0.00000E+000	9	...........	1425.87
	53	4.9	-4.00717E-001	-1.20628E-004	0.00000E+000	-4.00011E-001	0.00000E+000	9	...........	1425.87
	54	5	-4.00723E-001	-1.19953E-004	0.00000E+000	-4.00011E-001	0.00000E+000	9	...........	1425.87
	55	5.1	-4.00708E-001	-1.19342E-004	0.00000E+000	-4.00011E-001	0.00000E+000	9	...........	1425.87
	56	5.2	-4.00729E-001	-1.18788E-004	0.00000E+000	-4.00011E-001	0.00000E+000	9	...........	1425.87
	57	5.3	-4.00718E-001	-1.18170E-004	0.00000E+000	-4.00011E-001	0.00000E+000	9	...........	1425.87
	58	5.4	-4.00721E-001	-1.17569E-004	0.00000E+000	-4.00011E-001	0.00000E+000	9	...........	1425.60
	59	5.5	-4.00726E-001	-1.17058E-004	0.00000E+000	-4.00011E-001	0.00000E+000	9	...........	1425.60
	60	5.6	-4.00728E-001	-1.16463E-004	0.00000E+000	-4.00011E-001	0.00000E+000	9	...........	1425.60
	61	5.7	-4.00732E-001	-1.15975E-004	0.00000E+000	-4.00011E-001	0.00000E+000	9	...........	1425.60
	62	5.8	-4.00719E-001	-1.15457E-004	0.00000E+000	-4.00011E-001	0.00000E+000	9	...........	1425.60
	63	5.9	-4.00722E-001	-1.14909E-004	0.00000E+000	-4.00011E-001	0.00000E+000	9	...........	1425.60
	64	6	-4.00710E-001	-1.14454E-004	0.00000E+000	-4.00011E-001	0.00000E+000	9	...........	1425.60
	65	6.1	-4.00708E-001	-1.13897E-004	0.00000E+000	-4.00011E-001	0.00000E+000	9	...........	1425.60
	66	7.1	-4.00715E-001	-1.09601E-004	0.00000E+000	-4.00011E-001	0.00000E+000	9	...........	1425.95
	67	8.1	-4.00716E-001	-1.06064E-004	0.00000E+000	-4.00011E-001	0.00000E+000	9	...........	1425.95
	68	9.1	-4.00717E-001	-1.03036E-004	0.00000E+000	-4.00011E-001	0.00000E+000	9	...........	1425.95
	69	10.1	-4.00720E-001	-1.00376E-004	0.00000E+000	-4.00011E-001	0.00000E+000	9	...........	1425.87
	70	11.1	-4.00729E-001	-9.78553E-005	0.00000E+000	-4.00011E-001	0.00000E+000	9	...........	1425.95
	71	12.1	-4.00720E-001	-9.58230E-005	0.00000E+000	-4.00011E-001	0.00000E+000	9	...........	1425.95
	72	13.1	-4.00700E-001	-9.37805E-005	0.00000E+000	-4.00011E-001	0.00000E+000	9	...........	1425.95
	73	14.1	-4.00725E-001	-9.18809E-005	0.00000E+000	-4.00011E-001	0.00000E+000	9	...........	1425.95
	74	15.1	-4.00714E-001	-9.00957E-005	0.00000E+000	-4.00011E-001	0.00000E+000	9	...........	1426.04
	75	16.1	-4.00714E-001	-8.85596E-005	0.00000E+000	-4.00011E-001	0.00000E+000	9	...........	1426.04
	76	26.1	-4.00714E-001	-7.82241E-005	0.00000E+000	-4.00011E-001	0.00000E+000	9	...........	1426.04
	77	36.1	-4.00718E-001	-7.24040E-005	0.00000E+000	-4.00011E-001	0.00000E+000	9	...........	1425.87
	78	46.1	-4.00716E-001	-6.84041E-005	0.00000E+000	-4.00011E-001	0.00000E+000	9	...........	1425.95
	79	56.1	-4.00729E-001	-6.51045E-005	0.00000E+000	-4.00011E-001	0.00000E+000	9	...........	1426.04
	80	66.1	-4.00726E-001	-6.30974E-005	0.00000E+000	-4.00011E-001	0.00000E+000	9	...........	1426.04
	81	76.1	-4.00708E-001	-6.09730E-005	0.00000E+000	-4.00011E-001	0.00000E+000	9	...........	1426.04
	82	86.1	-4.00714E-001	-5.94078E-005	0.00000E+000	-4.00011E-001	0.00000E+000	9	...........	1426.04
	83	96.1	-4.00704E-001	-5.83538E-005	0.00000E+000	-4.00011E-001	0.00000E+000	9	...........	1426.04
	84	106.1	-4.00725E-001	-5.69774E-005	0.00000E+000	-4.00011E-001	0.00000E+000	9	...........	1426.04
	85	116.1	-4.00721E-001	-5.60827E-005	0.00000E+000	-4.00011E-001	0.00000E+000	9	...........	1426.04
	86	216.1	-4.00728E-001	-5.09079E-005	0.00000E+000	-4.00011E-001	0.00000E+000	9	...........	1426.04
	87	300	-4.00723E-001	-4.90397E-005	0.00000E+000	-4.00011E-001	0.00000E+000	9	...........	1426.04
	88	300.1	-5.00728E-001	-4.94375E-004	0.00000E+000	-5.00010E-001	0.00000E+000	9	...........	1426.04
	89	300.2	-5.00730E-001	-3.87118E-004	0.00000E+000	-5.00010E-001	0.00000E+000	9	...........	1426.04
	90	300.3	-5.00714E-001	-3.19421E-004	0.00000E+000	-5.00010E-001	0.00000E+000	9	...........	1426.04
	91	300.4	-5.00720E-001	-2.74415E-004	0.00000E+000	-5.00010E-001	0.00000E+000	9	...........	1426.13
	92	300.5	-5.00713E-001	-2.43364E-004	0.00000E+000	-5.00010E-001	0.00000E+000	9	...........	1426.13
	93	300.6	-5.00728E-001	-2.21238E-004	0.00000E+000	-5.00010E-001	0.00000E+000	9	...........	1426.13
	94	300.7	-5.00727E-001	-2.05025E-004	0.00000E+000	-5.00010E-001	0.00000E+000	9	...........	1426.13
	95	300.8	-5.00739E-001	-1.92774E-004	0.00000E+000	-5.00010E-001	0.00000E+000	9	...........	1426.13
	96	300.9	-5.00732E-001	-1.83403E-004	0.00000E+000	-5.00010E-001	0.00000E+000	9	...........	1426.13
	97	301	-5.00732E-001	-1.75992E-004	0.00000E+000	-5.00010E-001	0.00000E+000	9	...........	1426.13
