EXPLAIN
TAG	CHRONOA
TITLE	LABEL	Chronoamperometry Scan	Test Identifier
DATE	LABEL	4/8/2022	Date
TIME	LABEL	13:56:14	Time
NOTES	NOTES	1	Notes...
	
PSTAT	PSTAT	IFC1010-21051	Potentiostat
VPRESTEP	POTEN	5.00000E-002	F	Pre-step Voltage (V)
TPRESTEP	QUANT	5.00000E-001	Pre-step Delay Time (s)
VSTEP1	POTEN	0.00000E+000	F	Step 1 Voltage (V)
TSTEP1	QUANT	1.00000E+002	Step 1 Time (s)
VSTEP2	POTEN	-5.00000E-002	F	Step 2 Voltage (V)
TSTEP2	QUANT	1.00000E+000	Step 2 Time (s)
SAMPLETIME	QUANT	1.00000E-001	Sample Period (s)
DECIMATE	TOGGLE	T	Decimate
ILIMIT	QUANT	1.00000E+000	Limit I (mA/cm^2)
IMODE	SELECTOR	1	I/E Range Mode
IRANGE	QUANT	3.00000E-001	Max Current (mA)
EQDELAY	QUANT	5.00000E+000	Equil. Time (s)
SAMPLINGMODE	SELECTOR	1	Sampling Mode
AREA	QUANT	1.00000E+000	Sample Area (cm^2)
IRCOMP	SELECTOR	0	IRComp
PFCOR	QUANT	5.00000E+001	PF Corr. (ohm)
SEQUENCER	TOGGLE	TRUE	Run as Sequence
PSTATMODEL	IQUANT	64	Pstat Model
PSTATSECTION	LABEL	IFC1010-21051	Pstat Section
PSTATSERIALNO	LABEL	21051	Pstat Serial Number
CTRLMODE	IQUANT	1	Control Mode
ELECTROMETER	IQUANT	0	RE=0 or CS=1
IESTAB	IQUANT	0	I/E Stability
CASPEED	IQUANT	4	Control Amp Speed
CONVENTION	IQUANT	1	Current Convention
ICHRANGE	IQUANT	2	Ich Range
ICHRANGEMODE	TOGGLE	T	Ich Auto Range
ICHOFFSETENABLE	TOGGLE	F	Ich Offset Enable
ICHOFFSET	QUANT	0	Ich Offset (V)
ICHFILTER	IQUANT	3	Ich Filter
VCHRANGE	IQUANT	3	Vch Range
VCHRANGEMODE	TOGGLE	T	Vch Auto Range
VCHOFFSETENABLE	TOGGLE	F	Vch Offset Enable
VCHOFFSET	QUANT	0	Vch Offset (V)
VCHFILTER	IQUANT	3	Vch Filter
IERANGELOWERLIMIT	IQUANT	4	I/E Range Lower Limit
IERANGEMODE	TOGGLE	F	I/E AutoRange
IERANGE	IQUANT	9	I/E Range
ACHSELECT	IQUANT	0	Ach Select
ACHRANGE	IQUANT	2	Ach Range
ACHOFFSETENABLE	TOGGLE	F	Ach Offset Enable
ACHOFFSET	QUANT	0	Ach Offset (V)
ACHFILTER	IQUANT	1	Ach Filter
SENSECABLEID	IQUANT	14	Sense Cable ID
PWRCABLEID	IQUANT	14	Power Cable ID
DCCALDATE	LABEL	7/12/2022	DC Calibration Date
ACCALDATE	LABEL	4/2/2018	AC Calibration Date
FRAMEWORKVERSION	QUANT	7.06	Framework Version
INSTRUMENTVERSION	LABEL	4.30	Instrument Version
CURVE	TABLE	95
	Pt	T	Vf	Im	Vu	Sig	Ach	IERange	Over	Temp
	#	s	V vs. Ref.	A	V	V	V	#	bits	deg C
	0	-0.4	4.99832E-002	-1.75800E-006	0.00000E+000	4.99998E-002	0.00000E+000	9	...........	1425.87
	1	-0.3	4.99914E-002	-1.73441E-006	0.00000E+000	4.99998E-002	0.00000E+000	9	...........	1425.87
	2	-0.2	5.00227E-002	-1.70594E-006	0.00000E+000	4.99998E-002	0.00000E+000	9	...........	1425.87
	3	-0.1	5.00218E-002	-1.70378E-006	0.00000E+000	4.99998E-002	0.00000E+000	9	...........	1425.87
	4	0	5.00207E-002	-1.67925E-006	0.00000E+000	4.99998E-002	0.00000E+000	9	...........	1425.87
	5	0.1	2.11525E-006	-1.54464E-004	0.00000E+000	0.00000E+000	0.00000E+000	9	...........	1425.87
	6	0.2	3.01631E-006	-8.65639E-005	0.00000E+000	0.00000E+000	0.00000E+000	9	...........	1425.87
	7	0.3	3.10942E-006	-5.64800E-005	0.00000E+000	0.00000E+000	0.00000E+000	9	...........	1425.87
	8	0.4	2.69692E-006	-4.06227E-005	0.00000E+000	0.00000E+000	0.00000E+000	9	...........	1425.87
	9	0.5	3.39177E-006	-3.12776E-005	0.00000E+000	0.00000E+000	0.00000E+000	9	...........	1425.87
	10	0.6	3.63807E-006	-2.52912E-005	0.00000E+000	0.00000E+000	0.00000E+000	9	...........	1425.87
	11	0.7	4.02055E-006	-2.12368E-005	0.00000E+000	0.00000E+000	0.00000E+000	9	...........	1425.34
	12	0.8	3.48188E-006	-1.83509E-005	0.00000E+000	0.00000E+000	0.00000E+000	9	...........	1425.34
	13	0.9	4.29388E-006	-1.62004E-005	0.00000E+000	0.00000E+000	0.00000E+000	9	...........	1425.34
	14	1	4.47310E-006	-1.45625E-005	0.00000E+000	0.00000E+000	0.00000E+000	9	...........	1425.34
	15	1.1	3.49990E-006	-1.32691E-005	0.00000E+000	0.00000E+000	0.00000E+000	9	...........	1425.34
	16	1.2	4.45007E-006	-1.22195E-005	0.00000E+000	0.00000E+000	0.00000E+000	9	...........	1425.34
	17	1.3	4.04758E-006	-1.13560E-005	0.00000E+000	0.00000E+000	0.00000E+000	9	...........	1425.34
	18	1.4	4.35596E-006	-1.06349E-005	0.00000E+000	0.00000E+000	0.00000E+000	9	...........	1425.34
	19	1.5	3.71117E-006	-1.00340E-005	0.00000E+000	0.00000E+000	0.00000E+000	9	...........	1425.34
	20	1.6	5.32114E-006	-9.46959E-006	0.00000E+000	0.00000E+000	0.00000E+000	9	...........	1425.34
	21	1.7	3.91441E-006	-8.98192E-006	0.00000E+000	0.00000E+000	0.00000E+000	9	...........	1426.22
	22	1.8	2.82808E-006	-8.54767E-006	0.00000E+000	0.00000E+000	0.00000E+000	9	...........	1426.22
	23	1.9	3.50991E-006	-8.17268E-006	0.00000E+000	0.00000E+000	0.00000E+000	9	...........	1426.22
	24	2	2.97726E-006	-7.85158E-006	0.00000E+000	0.00000E+000	0.00000E+000	9	...........	1426.22
	25	2.1	2.87614E-006	-7.55531E-006	0.00000E+000	0.00000E+000	0.00000E+000	9	...........	1426.22
	26	2.2	3.20454E-006	-7.30365E-006	0.00000E+000	0.00000E+000	0.00000E+000	9	...........	1426.22
	27	2.3	3.88037E-006	-7.09230E-006	0.00000E+000	0.00000E+000	0.00000E+000	9	...........	1426.22
	28	2.4	4.96070E-006	-6.87094E-006	0.00000E+000	0.00000E+000	0.00000E+000	9	...........	1426.22
	29	2.5	3.91641E-006	-6.68124E-006	0.00000E+000	0.00000E+000	0.00000E+000	9	...........	1426.22
	30	2.6	4.25083E-006	-6.49929E-006	0.00000E+000	0.00000E+000	0.00000E+000	9	...........	1426.22
	31	2.7	3.73619E-006	-6.34059E-006	0.00000E+000	0.00000E+000	0.00000E+000	9	...........	1425.69
	32	2.8	3.92543E-006	-6.20178E-006	0.00000E+000	0.00000E+000	0.00000E+000	9	...........	1425.69
	33	2.9	4.15070E-006	-6.06257E-006	0.00000E+000	0.00000E+000	0.00000E+000	9	...........	1425.69
	34	3	3.77624E-006	-5.92333E-006	0.00000E+000	0.00000E+000	0.00000E+000	9	...........	1425.69
	35	3.1	4.29689E-006	-5.80190E-006	0.00000E+000	0.00000E+000	0.00000E+000	9	...........	1425.69
	36	3.2	5.33917E-006	-5.68178E-006	0.00000E+000	0.00000E+000	0.00000E+000	9	...........	1425.69
	37	3.3	4.89262E-006	-5.55628E-006	0.00000E+000	0.00000E+000	0.00000E+000	9	...........	1425.69
	38	3.4	4.96370E-006	-5.44917E-006	0.00000E+000	0.00000E+000	0.00000E+000	9	...........	1425.69
	39	3.5	6.22125E-006	-5.33953E-006	0.00000E+000	0.00000E+000	0.00000E+000	9	...........	1425.69
	40	3.6	4.94568E-006	-5.24973E-006	0.00000E+000	0.00000E+000	0.00000E+000	9	...........	1425.69
	41	3.7	4.41303E-006	-5.14433E-006	0.00000E+000	0.00000E+000	0.00000E+000	9	...........	1426.13
	42	3.8	4.46409E-006	-5.05447E-006	0.00000E+000	0.00000E+000	0.00000E+000	9	...........	1426.13
	43	3.9	4.75545E-006	-4.97178E-006	0.00000E+000	0.00000E+000	0.00000E+000	9	...........	1426.13
	44	4	4.73543E-006	-4.87828E-006	0.00000E+000	0.00000E+000	0.00000E+000	9	...........	1426.13
	45	4.1	3.61605E-006	-4.81035E-006	0.00000E+000	0.00000E+000	0.00000E+000	9	...........	1426.13
	46	4.2	4.36697E-006	-4.71975E-006	0.00000E+000	0.00000E+000	0.00000E+000	9	...........	1426.13
	47	4.3	3.47988E-006	-4.62242E-006	0.00000E+000	0.00000E+000	0.00000E+000	9	...........	1426.13
	48	4.4	3.28264E-006	-4.54834E-006	0.00000E+000	0.00000E+000	0.00000E+000	9	...........	1426.13
	49	4.5	1.96102E-006	-4.48201E-006	0.00000E+000	0.00000E+000	0.00000E+000	9	...........	1426.13
	50	4.6	3.10242E-006	-4.44003E-006	0.00000E+000	0.00000E+000	0.00000E+000	9	...........	1426.13
	51	4.7	2.55875E-006	-4.38150E-006	0.00000E+000	0.00000E+000	0.00000E+000	9	...........	1425.69
	52	4.8	3.75422E-006	-4.34677E-006	0.00000E+000	0.00000E+000	0.00000E+000	9	...........	1425.69
	53	4.9	2.54873E-006	-4.29261E-006	0.00000E+000	0.00000E+000	0.00000E+000	9	...........	1425.69
	54	5	1.69068E-006	-4.24446E-006	0.00000E+000	0.00000E+000	0.00000E+000	9	...........	1425.69
	55	5.1	3.74721E-006	-4.19608E-006	0.00000E+000	0.00000E+000	0.00000E+000	9	...........	1425.69
	56	5.2	2.92820E-006	-4.17079E-006	0.00000E+000	0.00000E+000	0.00000E+000	9	...........	1425.69
	57	5.3	3.45185E-006	-4.13936E-006	0.00000E+000	0.00000E+000	0.00000E+000	9	...........	1425.69
	58	5.4	1.97103E-006	-4.11903E-006	0.00000E+000	0.00000E+000	0.00000E+000	9	...........	1425.69
	59	5.5	3.05536E-006	-4.06948E-006	0.00000E+000	0.00000E+000	0.00000E+000	9	...........	1425.69
	60	5.6	3.77124E-006	-4.02167E-006	0.00000E+000	0.00000E+000	0.00000E+000	9	...........	1425.69
	61	5.7	4.35796E-006	-3.97652E-006	0.00000E+000	0.00000E+000	0.00000E+000	9	...........	1426.04
	62	5.8	3.04635E-006	-3.93938E-006	0.00000E+000	0.00000E+000	0.00000E+000	9	...........	1426.04
	63	5.9	2.99428E-006	-3.87148E-006	0.00000E+000	0.00000E+000	0.00000E+000	9	...........	1426.04
	64	6	3.21255E-006	-3.83925E-006	0.00000E+000	0.00000E+000	0.00000E+000	9	...........	1426.04
	65	6.1	3.13846E-006	-3.80768E-006	0.00000E+000	0.00000E+000	0.00000E+000	9	...........	1426.04
	66	7.1	3.04534E-006	-3.56149E-006	0.00000E+000	0.00000E+000	0.00000E+000	9	...........	1425.69
	67	8.1	3.34171E-006	-3.37143E-006	0.00000E+000	0.00000E+000	0.00000E+000	9	...........	1426.13
	68	9.1	4.77848E-006	-3.22198E-006	0.00000E+000	0.00000E+000	0.00000E+000	9	...........	1426.22
	69	10.1	3.98550E-006	-3.06601E-006	0.00000E+000	0.00000E+000	0.00000E+000	9	...........	1426.22
	70	11.1	3.77324E-006	-2.95170E-006	0.00000E+000	0.00000E+000	0.00000E+000	9	...........	1426.22
	71	12.1	2.47665E-006	-2.85520E-006	0.00000E+000	0.00000E+000	0.00000E+000	9	...........	1426.22
	72	13.1	2.30343E-006	-2.80928E-006	0.00000E+000	0.00000E+000	0.00000E+000	9	...........	1426.22
	73	14.1	3.47788E-006	-2.73918E-006	0.00000E+000	0.00000E+000	0.00000E+000	9	...........	1426.22
	74	15.1	3.25860E-006	-2.70117E-006	0.00000E+000	0.00000E+000	0.00000E+000	9	...........	1426.22
	75	16.1	3.33771E-006	-2.60978E-006	0.00000E+000	0.00000E+000	0.00000E+000	9	...........	1426.22
	76	26.1	4.68035E-006	-2.34811E-006	0.00000E+000	0.00000E+000	0.00000E+000	9	...........	1426.22
	77	36.1	2.77301E-006	-2.18858E-006	0.00000E+000	0.00000E+000	0.00000E+000	9	...........	1426.22
	78	46.1	4.16873E-006	-2.09788E-006	0.00000E+000	0.00000E+000	0.00000E+000	9	...........	1426.22
	79	56.1	6.24928E-006	-1.99087E-006	0.00000E+000	0.00000E+000	0.00000E+000	9	...........	1426.22
	80	66.1	4.69437E-006	-2.00308E-006	0.00000E+000	0.00000E+000	0.00000E+000	9	...........	1426.22
	81	76.1	3.90541E-006	-2.07729E-006	0.00000E+000	0.00000E+000	0.00000E+000	9	...........	1426.22
	82	86.1	3.66211E-006	-1.94496E-006	0.00000E+000	0.00000E+000	0.00000E+000	9	...........	1426.22
	83	96.1	3.04735E-006	-1.92354E-006	0.00000E+000	0.00000E+000	0.00000E+000	9	...........	1426.22
	84	100	2.85911E-006	-2.11804E-006	0.00000E+000	0.00000E+000	0.00000E+000	9	...........	1426.22
	85	100.1	-3.28713E-002	-1.49693E-004	0.00000E+000	-4.99998E-002	0.00000E+000	9	.........v.	1426.22
	86	100.2	-5.00095E-002	-8.13236E-005	0.00000E+000	-4.99998E-002	0.00000E+000	9	...........	1426.22
	87	100.3	-5.00082E-002	-5.24742E-005	0.00000E+000	-4.99998E-002	0.00000E+000	9	...........	1426.22
	88	100.4	-5.00087E-002	-3.81534E-005	0.00000E+000	-4.99998E-002	0.00000E+000	9	...........	1426.22
	89	100.5	-5.00070E-002	-3.01059E-005	0.00000E+000	-4.99998E-002	0.00000E+000	9	...........	1426.22
	90	100.6	-5.00069E-002	-2.51081E-005	0.00000E+000	-4.99998E-002	0.00000E+000	9	...........	1426.22
	91	100.7	-5.00086E-002	-2.19528E-005	0.00000E+000	-4.99998E-002	0.00000E+000	9	...........	1426.22
	92	100.8	-5.00071E-002	-1.98676E-005	0.00000E+000	-4.99998E-002	0.00000E+000	9	...........	1426.22
	93	100.9	-5.00090E-002	-1.82565E-005	0.00000E+000	-4.99998E-002	0.00000E+000	9	...........	1426.22
	94	101	-5.00072E-002	-1.69750E-005	0.00000E+000	-4.99998E-002	0.00000E+000	9	...........	1426.22
