EXPLAIN
TAG	CHRONOA
TITLE	LABEL	Chronoamperometry Scan	Test Identifier
DATE	LABEL	4/8/2022	Date
TIME	LABEL	13:42:36	Time
NOTES	NOTES	1	Notes...
	
PSTAT	PSTAT	IFC1010-21051	Potentiostat
VPRESTEP	POTEN	-3.50000E-001	F	Pre-step Voltage (V)
TPRESTEP	QUANT	5.00000E-001	Pre-step Delay Time (s)
VSTEP1	POTEN	-4.00000E-001	F	Step 1 Voltage (V)
TSTEP1	QUANT	1.00000E+002	Step 1 Time (s)
VSTEP2	POTEN	-4.50000E-001	F	Step 2 Voltage (V)
TSTEP2	QUANT	1.00000E+000	Step 2 Time (s)
SAMPLETIME	QUANT	1.00000E-001	Sample Period (s)
DECIMATE	TOGGLE	T	Decimate
ILIMIT	QUANT	1.00000E+000	Limit I (mA/cm^2)
IMODE	SELECTOR	1	I/E Range Mode
IRANGE	QUANT	3.00000E-001	Max Current (mA)
EQDELAY	QUANT	5.00000E+000	Equil. Time (s)
SAMPLINGMODE	SELECTOR	1	Sampling Mode
AREA	QUANT	1.00000E+000	Sample Area (cm^2)
IRCOMP	SELECTOR	0	IRComp
PFCOR	QUANT	5.00000E+001	PF Corr. (ohm)
SEQUENCER	TOGGLE	TRUE	Run as Sequence
PSTATMODEL	IQUANT	64	Pstat Model
PSTATSECTION	LABEL	IFC1010-21051	Pstat Section
PSTATSERIALNO	LABEL	21051	Pstat Serial Number
CTRLMODE	IQUANT	1	Control Mode
ELECTROMETER	IQUANT	0	RE=0 or CS=1
IESTAB	IQUANT	0	I/E Stability
CASPEED	IQUANT	4	Control Amp Speed
CONVENTION	IQUANT	1	Current Convention
ICHRANGE	IQUANT	2	Ich Range
ICHRANGEMODE	TOGGLE	T	Ich Auto Range
ICHOFFSETENABLE	TOGGLE	F	Ich Offset Enable
ICHOFFSET	QUANT	0	Ich Offset (V)
ICHFILTER	IQUANT	3	Ich Filter
VCHRANGE	IQUANT	3	Vch Range
VCHRANGEMODE	TOGGLE	T	Vch Auto Range
VCHOFFSETENABLE	TOGGLE	F	Vch Offset Enable
VCHOFFSET	QUANT	0	Vch Offset (V)
VCHFILTER	IQUANT	3	Vch Filter
IERANGELOWERLIMIT	IQUANT	4	I/E Range Lower Limit
IERANGEMODE	TOGGLE	F	I/E AutoRange
IERANGE	IQUANT	9	I/E Range
ACHSELECT	IQUANT	0	Ach Select
ACHRANGE	IQUANT	2	Ach Range
ACHOFFSETENABLE	TOGGLE	F	Ach Offset Enable
ACHOFFSET	QUANT	0	Ach Offset (V)
ACHFILTER	IQUANT	1	Ach Filter
SENSECABLEID	IQUANT	14	Sense Cable ID
PWRCABLEID	IQUANT	14	Power Cable ID
DCCALDATE	LABEL	7/12/2022	DC Calibration Date
ACCALDATE	LABEL	4/2/2018	AC Calibration Date
FRAMEWORKVERSION	QUANT	7.06	Framework Version
INSTRUMENTVERSION	LABEL	4.30	Instrument Version
CURVE	TABLE	95
	Pt	T	Vf	Im	Vu	Sig	Ach	IERange	Over	Temp
	#	s	V vs. Ref.	A	V	V	V	#	bits	deg C
	0	-0.4	-3.50307E-001	-6.47731E-004	0.00000E+000	-3.50011E-001	0.00000E+000	9	...........	1425.87
	1	-0.3	-3.50459E-001	-6.39437E-004	0.00000E+000	-3.50011E-001	0.00000E+000	9	...........	1425.87
	2	-0.2	-3.50459E-001	-6.32631E-004	0.00000E+000	-3.50011E-001	0.00000E+000	9	...........	1425.87
	3	-0.1	-3.50463E-001	-6.24689E-004	0.00000E+000	-3.50011E-001	0.00000E+000	9	...........	1425.87
	4	0	-3.50451E-001	-6.18133E-004	0.00000E+000	-3.50011E-001	0.00000E+000	9	...........	1425.87
	5	0.1	-4.00462E-001	-8.87352E-004	0.00000E+000	-4.00011E-001	0.00000E+000	9	...........	1425.87
	6	0.2	-4.00460E-001	-8.32386E-004	0.00000E+000	-4.00011E-001	0.00000E+000	9	...........	1425.87
	7	0.3	-4.00468E-001	-8.06017E-004	0.00000E+000	-4.00011E-001	0.00000E+000	9	...........	1425.87
	8	0.4	-4.00483E-001	-7.85538E-004	0.00000E+000	-4.00011E-001	0.00000E+000	9	...........	1425.87
	9	0.5	-4.00495E-001	-7.72397E-004	0.00000E+000	-4.00011E-001	0.00000E+000	9	...........	1425.87
	10	0.6	-4.00475E-001	-7.62289E-004	0.00000E+000	-4.00011E-001	0.00000E+000	9	...........	1425.87
	11	0.7	-4.00480E-001	-7.53603E-004	0.00000E+000	-4.00011E-001	0.00000E+000	9	...........	1425.87
	12	0.8	-4.00462E-001	-7.47864E-004	0.00000E+000	-4.00011E-001	0.00000E+000	9	...........	1425.87
	13	0.9	-4.00476E-001	-7.38112E-004	0.00000E+000	-4.00011E-001	0.00000E+000	9	...........	1425.87
	14	1	-4.00472E-001	-7.29919E-004	0.00000E+000	-4.00011E-001	0.00000E+000	9	...........	1425.78
	15	1.1	-4.00474E-001	-7.23909E-004	0.00000E+000	-4.00011E-001	0.00000E+000	9	...........	1425.78
	16	1.2	-4.00491E-001	-7.17106E-004	0.00000E+000	-4.00011E-001	0.00000E+000	9	...........	1425.78
	17	1.3	-4.00483E-001	-7.12073E-004	0.00000E+000	-4.00011E-001	0.00000E+000	9	...........	1425.78
	18	1.4	-4.00472E-001	-7.05447E-004	0.00000E+000	-4.00011E-001	0.00000E+000	9	...........	1425.78
	19	1.5	-4.00473E-001	-6.98662E-004	0.00000E+000	-4.00011E-001	0.00000E+000	9	...........	1425.78
	20	1.6	-4.00476E-001	-6.93863E-004	0.00000E+000	-4.00011E-001	0.00000E+000	9	...........	1425.78
	21	1.7	-4.00466E-001	-6.91425E-004	0.00000E+000	-4.00011E-001	0.00000E+000	9	...........	1425.78
	22	1.8	-4.00465E-001	-6.85548E-004	0.00000E+000	-4.00011E-001	0.00000E+000	9	...........	1425.78
	23	1.9	-4.00471E-001	-6.80266E-004	0.00000E+000	-4.00011E-001	0.00000E+000	9	...........	1425.78
	24	2	-4.00445E-001	-6.75053E-004	0.00000E+000	-4.00011E-001	0.00000E+000	9	...........	1425.78
	25	2.1	-4.00470E-001	-6.70519E-004	0.00000E+000	-4.00011E-001	0.00000E+000	9	...........	1425.78
	26	2.2	-4.00488E-001	-6.67273E-004	0.00000E+000	-4.00011E-001	0.00000E+000	9	...........	1425.78
	27	2.3	-4.00491E-001	-6.61183E-004	0.00000E+000	-4.00011E-001	0.00000E+000	9	...........	1425.78
	28	2.4	-4.00475E-001	-6.56580E-004	0.00000E+000	-4.00011E-001	0.00000E+000	9	...........	1425.78
	29	2.5	-4.00477E-001	-6.52069E-004	0.00000E+000	-4.00011E-001	0.00000E+000	9	...........	1425.78
	30	2.6	-4.00479E-001	-6.48162E-004	0.00000E+000	-4.00011E-001	0.00000E+000	9	...........	1425.78
	31	2.7	-4.00479E-001	-6.43394E-004	0.00000E+000	-4.00011E-001	0.00000E+000	9	...........	1425.78
	32	2.8	-4.00483E-001	-6.38795E-004	0.00000E+000	-4.00011E-001	0.00000E+000	9	...........	1425.78
	33	2.9	-4.00475E-001	-6.35827E-004	0.00000E+000	-4.00011E-001	0.00000E+000	9	...........	1425.78
	34	3	-4.00472E-001	-6.31185E-004	0.00000E+000	-4.00011E-001	0.00000E+000	9	...........	1425.69
	35	3.1	-4.00465E-001	-6.27409E-004	0.00000E+000	-4.00011E-001	0.00000E+000	9	...........	1425.69
	36	3.2	-4.00483E-001	-6.24139E-004	0.00000E+000	-4.00011E-001	0.00000E+000	9	...........	1425.69
	37	3.3	-4.00483E-001	-6.20576E-004	0.00000E+000	-4.00011E-001	0.00000E+000	9	...........	1425.69
	38	3.4	-4.00475E-001	-6.16878E-004	0.00000E+000	-4.00011E-001	0.00000E+000	9	...........	1425.69
	39	3.5	-4.00471E-001	-6.13703E-004	0.00000E+000	-4.00011E-001	0.00000E+000	9	...........	1425.69
	40	3.6	-4.00476E-001	-6.09792E-004	0.00000E+000	-4.00011E-001	0.00000E+000	9	...........	1425.69
	41	3.7	-4.00460E-001	-6.05940E-004	0.00000E+000	-4.00011E-001	0.00000E+000	9	...........	1425.69
	42	3.8	-4.00478E-001	-6.03914E-004	0.00000E+000	-4.00011E-001	0.00000E+000	9	...........	1425.69
	43	3.9	-4.00479E-001	-6.00699E-004	0.00000E+000	-4.00011E-001	0.00000E+000	9	...........	1425.69
	44	4	-4.00482E-001	-5.96954E-004	0.00000E+000	-4.00011E-001	0.00000E+000	9	...........	1425.69
	45	4.1	-4.00476E-001	-5.93604E-004	0.00000E+000	-4.00011E-001	0.00000E+000	9	...........	1425.69
	46	4.2	-4.00475E-001	-5.91473E-004	0.00000E+000	-4.00011E-001	0.00000E+000	9	...........	1425.69
	47	4.3	-4.00475E-001	-5.88474E-004	0.00000E+000	-4.00011E-001	0.00000E+000	9	...........	1425.69
	48	4.4	-4.00480E-001	-5.85542E-004	0.00000E+000	-4.00011E-001	0.00000E+000	9	...........	1425.69
	49	4.5	-4.00475E-001	-5.82031E-004	0.00000E+000	-4.00011E-001	0.00000E+000	9	...........	1425.69
	50	4.6	-4.00480E-001	-5.78610E-004	0.00000E+000	-4.00011E-001	0.00000E+000	9	...........	1425.69
	51	4.7	-4.00481E-001	-5.76200E-004	0.00000E+000	-4.00011E-001	0.00000E+000	9	...........	1425.69
	52	4.8	-4.00494E-001	-5.73015E-004	0.00000E+000	-4.00011E-001	0.00000E+000	9	...........	1425.69
	53	4.9	-4.00487E-001	-5.70520E-004	0.00000E+000	-4.00011E-001	0.00000E+000	9	...........	1425.69
	54	5	-4.00480E-001	-5.67886E-004	0.00000E+000	-4.00011E-001	0.00000E+000	9	...........	1425.78
	55	5.1	-4.00471E-001	-5.67057E-004	0.00000E+000	-4.00011E-001	0.00000E+000	9	...........	1425.78
	56	5.2	-4.00471E-001	-5.65031E-004	0.00000E+000	-4.00011E-001	0.00000E+000	9	...........	1425.78
	57	5.3	-4.00457E-001	-5.61485E-004	0.00000E+000	-4.00011E-001	0.00000E+000	9	...........	1425.78
	58	5.4	-4.00473E-001	-5.60752E-004	0.00000E+000	-4.00011E-001	0.00000E+000	9	...........	1425.78
	59	5.5	-4.00475E-001	-5.68973E-004	0.00000E+000	-4.00011E-001	0.00000E+000	9	...........	1425.78
	60	5.6	-4.00475E-001	-5.61680E-004	0.00000E+000	-4.00011E-001	0.00000E+000	9	...........	1425.78
	61	5.7	-4.00457E-001	-5.56781E-004	0.00000E+000	-4.00011E-001	0.00000E+000	9	...........	1425.78
	62	5.8	-4.00475E-001	-5.53885E-004	0.00000E+000	-4.00011E-001	0.00000E+000	9	...........	1425.78
	63	5.9	-4.00478E-001	-5.49174E-004	0.00000E+000	-4.00011E-001	0.00000E+000	9	...........	1425.78
	64	6	-4.00474E-001	-5.45847E-004	0.00000E+000	-4.00011E-001	0.00000E+000	9	...........	1425.78
	65	6.1	-4.00479E-001	-5.43838E-004	0.00000E+000	-4.00011E-001	0.00000E+000	9	...........	1425.78
	66	7.1	-4.00459E-001	-5.20114E-004	0.00000E+000	-4.00011E-001	0.00000E+000	9	...........	1425.78
	67	8.1	-4.00483E-001	-5.01247E-004	0.00000E+000	-4.00011E-001	0.00000E+000	9	...........	1425.78
	68	9.1	-4.00477E-001	-4.83928E-004	0.00000E+000	-4.00011E-001	0.00000E+000	9	...........	1425.78
	69	10.1	-4.00484E-001	-4.68217E-004	0.00000E+000	-4.00011E-001	0.00000E+000	9	...........	1425.78
	70	11.1	-4.00484E-001	-4.55143E-004	0.00000E+000	-4.00011E-001	0.00000E+000	9	...........	1425.78
	71	12.1	-4.00490E-001	-4.42204E-004	0.00000E+000	-4.00011E-001	0.00000E+000	9	...........	1425.87
	72	13.1	-4.00479E-001	-4.28411E-004	0.00000E+000	-4.00011E-001	0.00000E+000	9	...........	1425.87
	73	14.1	-4.00481E-001	-4.17814E-004	0.00000E+000	-4.00011E-001	0.00000E+000	9	...........	1425.87
	74	15.1	-4.00492E-001	-4.07724E-004	0.00000E+000	-4.00011E-001	0.00000E+000	9	...........	1425.87
	75	16.1	-4.00467E-001	-3.98013E-004	0.00000E+000	-4.00011E-001	0.00000E+000	9	...........	1425.78
	76	26.1	-4.00486E-001	-3.24221E-004	0.00000E+000	-4.00011E-001	0.00000E+000	9	...........	1425.87
	77	36.1	-4.00479E-001	-2.76250E-004	0.00000E+000	-4.00011E-001	0.00000E+000	9	...........	1425.87
	78	46.1	-4.00484E-001	-2.42041E-004	0.00000E+000	-4.00011E-001	0.00000E+000	9	...........	1425.87
	79	56.1	-4.00479E-001	-2.15972E-004	0.00000E+000	-4.00011E-001	0.00000E+000	9	...........	1425.87
	80	66.1	-4.00481E-001	-1.95820E-004	0.00000E+000	-4.00011E-001	0.00000E+000	9	...........	1425.87
	81	76.1	-4.00467E-001	-1.79827E-004	0.00000E+000	-4.00011E-001	0.00000E+000	9	...........	1425.87
	82	86.1	-4.00485E-001	-1.66603E-004	0.00000E+000	-4.00011E-001	0.00000E+000	9	...........	1425.87
	83	96.1	-4.00495E-001	-1.56229E-004	0.00000E+000	-4.00011E-001	0.00000E+000	9	...........	1425.95
	84	100	-4.00474E-001	-1.52449E-004	0.00000E+000	-4.00011E-001	0.00000E+000	9	...........	1425.87
	85	100.1	-4.50496E-001	-4.05983E-004	0.00000E+000	-4.50011E-001	0.00000E+000	9	...........	1425.87
	86	100.2	-4.50487E-001	-3.44608E-004	0.00000E+000	-4.50011E-001	0.00000E+000	9	...........	1425.87
	87	100.3	-4.50488E-001	-3.10551E-004	0.00000E+000	-4.50011E-001	0.00000E+000	9	...........	1425.87
	88	100.4	-4.50490E-001	-2.89088E-004	0.00000E+000	-4.50011E-001	0.00000E+000	9	...........	1425.87
	89	100.5	-4.50491E-001	-2.74637E-004	0.00000E+000	-4.50011E-001	0.00000E+000	9	...........	1425.87
	90	100.6	-4.50484E-001	-2.64332E-004	0.00000E+000	-4.50011E-001	0.00000E+000	9	...........	1425.87
	91	100.7	-4.50490E-001	-2.56602E-004	0.00000E+000	-4.50011E-001	0.00000E+000	9	...........	1425.87
	92	100.8	-4.50496E-001	-2.50582E-004	0.00000E+000	-4.50011E-001	0.00000E+000	9	...........	1425.87
	93	100.9	-4.50490E-001	-2.45692E-004	0.00000E+000	-4.50011E-001	0.00000E+000	9	...........	1425.87
	94	101	-4.50490E-001	-2.41803E-004	0.00000E+000	-4.50011E-001	0.00000E+000	9	...........	1425.87
