EXPLAIN
TAG	CHRONOA
TITLE	LABEL	Chronoamperometry Scan	Test Identifier
DATE	LABEL	4/8/2022	Date
TIME	LABEL	13:40:29	Time
NOTES	NOTES	1	Notes...
	
PSTAT	PSTAT	IFC1010-21051	Potentiostat
VPRESTEP	POTEN	3.50000E-001	F	Pre-step Voltage (V)
TPRESTEP	QUANT	5.00000E-001	Pre-step Delay Time (s)
VSTEP1	POTEN	4.00000E-001	F	Step 1 Voltage (V)
TSTEP1	QUANT	1.00000E+002	Step 1 Time (s)
VSTEP2	POTEN	3.50000E-001	F	Step 2 Voltage (V)
TSTEP2	QUANT	1.00000E+000	Step 2 Time (s)
SAMPLETIME	QUANT	1.00000E-001	Sample Period (s)
DECIMATE	TOGGLE	T	Decimate
ILIMIT	QUANT	1.00000E+000	Limit I (mA/cm^2)
IMODE	SELECTOR	1	I/E Range Mode
IRANGE	QUANT	3.00000E-001	Max Current (mA)
EQDELAY	QUANT	5.00000E+000	Equil. Time (s)
SAMPLINGMODE	SELECTOR	1	Sampling Mode
AREA	QUANT	1.00000E+000	Sample Area (cm^2)
IRCOMP	SELECTOR	0	IRComp
PFCOR	QUANT	5.00000E+001	PF Corr. (ohm)
SEQUENCER	TOGGLE	TRUE	Run as Sequence
PSTATMODEL	IQUANT	64	Pstat Model
PSTATSECTION	LABEL	IFC1010-21051	Pstat Section
PSTATSERIALNO	LABEL	21051	Pstat Serial Number
CTRLMODE	IQUANT	1	Control Mode
ELECTROMETER	IQUANT	0	RE=0 or CS=1
IESTAB	IQUANT	0	I/E Stability
CASPEED	IQUANT	4	Control Amp Speed
CONVENTION	IQUANT	1	Current Convention
ICHRANGE	IQUANT	2	Ich Range
ICHRANGEMODE	TOGGLE	T	Ich Auto Range
ICHOFFSETENABLE	TOGGLE	F	Ich Offset Enable
ICHOFFSET	QUANT	0	Ich Offset (V)
ICHFILTER	IQUANT	3	Ich Filter
VCHRANGE	IQUANT	3	Vch Range
VCHRANGEMODE	TOGGLE	T	Vch Auto Range
VCHOFFSETENABLE	TOGGLE	F	Vch Offset Enable
VCHOFFSET	QUANT	0	Vch Offset (V)
VCHFILTER	IQUANT	3	Vch Filter
IERANGELOWERLIMIT	IQUANT	4	I/E Range Lower Limit
IERANGEMODE	TOGGLE	F	I/E AutoRange
IERANGE	IQUANT	9	I/E Range
ACHSELECT	IQUANT	0	Ach Select
ACHRANGE	IQUANT	2	Ach Range
ACHOFFSETENABLE	TOGGLE	F	Ach Offset Enable
ACHOFFSET	QUANT	0	Ach Offset (V)
ACHFILTER	IQUANT	1	Ach Filter
SENSECABLEID	IQUANT	14	Sense Cable ID
PWRCABLEID	IQUANT	14	Power Cable ID
DCCALDATE	LABEL	7/12/2022	DC Calibration Date
ACCALDATE	LABEL	4/2/2018	AC Calibration Date
FRAMEWORKVERSION	QUANT	7.06	Framework Version
INSTRUMENTVERSION	LABEL	4.30	Instrument Version
CURVE	TABLE	95
	Pt	T	Vf	Im	Vu	Sig	Ach	IERange	Over	Temp
	#	s	V vs. Ref.	A	V	V	V	#	bits	deg C
	0	-0.4	3.50548E-001	2.38344E-004	0.00000E+000	3.50035E-001	0.00000E+000	9	...........	1425.87
	1	-0.3	3.50578E-001	2.36984E-004	0.00000E+000	3.50035E-001	0.00000E+000	9	...........	1425.87
	2	-0.2	3.50584E-001	2.35676E-004	0.00000E+000	3.50035E-001	0.00000E+000	9	...........	1425.87
	3	-0.1	3.50585E-001	2.34425E-004	0.00000E+000	3.50035E-001	0.00000E+000	9	...........	1425.87
	4	0	3.50588E-001	2.33192E-004	0.00000E+000	3.50035E-001	0.00000E+000	9	...........	1425.87
	5	0.1	4.00626E-001	4.49149E-004	0.00000E+000	4.00048E-001	0.00000E+000	9	...........	1425.87
	6	0.2	4.00630E-001	4.10027E-004	0.00000E+000	4.00048E-001	0.00000E+000	9	...........	1425.87
	7	0.3	4.00638E-001	3.85346E-004	0.00000E+000	4.00048E-001	0.00000E+000	9	...........	1425.87
	8	0.4	4.00642E-001	3.68158E-004	0.00000E+000	4.00048E-001	0.00000E+000	9	...........	1425.87
	9	0.5	4.00646E-001	3.55344E-004	0.00000E+000	4.00048E-001	0.00000E+000	9	...........	1425.52
	10	0.6	4.00620E-001	3.45152E-004	0.00000E+000	4.00048E-001	0.00000E+000	9	...........	1425.42
	11	0.7	4.00632E-001	3.36719E-004	0.00000E+000	4.00048E-001	0.00000E+000	9	...........	1425.42
	12	0.8	4.00649E-001	3.29530E-004	0.00000E+000	4.00048E-001	0.00000E+000	9	...........	1425.42
	13	0.9	4.00635E-001	3.23339E-004	0.00000E+000	4.00048E-001	0.00000E+000	9	...........	1425.42
	14	1	4.00639E-001	3.17917E-004	0.00000E+000	4.00048E-001	0.00000E+000	9	...........	1425.42
	15	1.1	4.00636E-001	3.13059E-004	0.00000E+000	4.00048E-001	0.00000E+000	9	...........	1425.42
	16	1.2	4.00629E-001	3.08677E-004	0.00000E+000	4.00048E-001	0.00000E+000	9	...........	1425.42
	17	1.3	4.00630E-001	3.04698E-004	0.00000E+000	4.00048E-001	0.00000E+000	9	...........	1425.42
	18	1.4	4.00641E-001	3.00995E-004	0.00000E+000	4.00048E-001	0.00000E+000	9	...........	1425.42
	19	1.5	4.00621E-001	2.97677E-004	0.00000E+000	4.00048E-001	0.00000E+000	9	...........	1425.56
	20	1.6	4.00625E-001	2.94560E-004	0.00000E+000	4.00048E-001	0.00000E+000	9	...........	1425.60
	21	1.7	4.00627E-001	2.91598E-004	0.00000E+000	4.00048E-001	0.00000E+000	9	...........	1425.60
	22	1.8	4.00625E-001	2.88862E-004	0.00000E+000	4.00048E-001	0.00000E+000	9	...........	1425.60
	23	1.9	4.00647E-001	2.86249E-004	0.00000E+000	4.00048E-001	0.00000E+000	9	...........	1425.60
	24	2	4.00626E-001	2.83835E-004	0.00000E+000	4.00048E-001	0.00000E+000	9	...........	1425.60
	25	2.1	4.00627E-001	2.81522E-004	0.00000E+000	4.00048E-001	0.00000E+000	9	...........	1425.60
	26	2.2	4.00620E-001	2.79279E-004	0.00000E+000	4.00048E-001	0.00000E+000	9	...........	1425.60
	27	2.3	4.00629E-001	2.77112E-004	0.00000E+000	4.00048E-001	0.00000E+000	9	...........	1425.60
	28	2.4	4.00614E-001	2.75133E-004	0.00000E+000	4.00048E-001	0.00000E+000	9	...........	1425.60
	29	2.5	4.00612E-001	2.73216E-004	0.00000E+000	4.00048E-001	0.00000E+000	9	...........	1425.60
	30	2.6	4.00627E-001	2.71367E-004	0.00000E+000	4.00048E-001	0.00000E+000	9	...........	1425.60
	31	2.7	4.00637E-001	2.69567E-004	0.00000E+000	4.00048E-001	0.00000E+000	9	...........	1425.60
	32	2.8	4.00628E-001	2.67859E-004	0.00000E+000	4.00048E-001	0.00000E+000	9	...........	1425.60
	33	2.9	4.00621E-001	2.66181E-004	0.00000E+000	4.00048E-001	0.00000E+000	9	...........	1425.60
	34	3	4.00622E-001	2.64574E-004	0.00000E+000	4.00048E-001	0.00000E+000	9	...........	1425.60
	35	3.1	4.00629E-001	2.62992E-004	0.00000E+000	4.00048E-001	0.00000E+000	9	...........	1425.60
	36	3.2	4.00629E-001	2.61508E-004	0.00000E+000	4.00048E-001	0.00000E+000	9	...........	1425.60
	37	3.3	4.00621E-001	2.60027E-004	0.00000E+000	4.00048E-001	0.00000E+000	9	...........	1425.60
	38	3.4	4.00630E-001	2.58663E-004	0.00000E+000	4.00048E-001	0.00000E+000	9	...........	1425.60
	39	3.5	4.00634E-001	2.57276E-004	0.00000E+000	4.00048E-001	0.00000E+000	9	...........	1425.60
	40	3.6	4.00639E-001	2.55913E-004	0.00000E+000	4.00048E-001	0.00000E+000	9	...........	1425.60
	41	3.7	4.00637E-001	2.54724E-004	0.00000E+000	4.00048E-001	0.00000E+000	9	...........	1425.60
	42	3.8	4.00639E-001	2.53472E-004	0.00000E+000	4.00048E-001	0.00000E+000	9	...........	1425.60
	43	3.9	4.00629E-001	2.52180E-004	0.00000E+000	4.00048E-001	0.00000E+000	9	...........	1425.60
	44	4	4.00632E-001	2.51014E-004	0.00000E+000	4.00048E-001	0.00000E+000	9	...........	1425.60
	45	4.1	4.00630E-001	2.49933E-004	0.00000E+000	4.00048E-001	0.00000E+000	9	...........	1425.60
	46	4.2	4.00634E-001	2.48800E-004	0.00000E+000	4.00048E-001	0.00000E+000	9	...........	1425.60
	47	4.3	4.00636E-001	2.47639E-004	0.00000E+000	4.00048E-001	0.00000E+000	9	...........	1425.60
	48	4.4	4.00623E-001	2.46632E-004	0.00000E+000	4.00048E-001	0.00000E+000	9	...........	1425.60
	49	4.5	4.00643E-001	2.45591E-004	0.00000E+000	4.00048E-001	0.00000E+000	9	...........	1425.60
	50	4.6	4.00632E-001	2.44599E-004	0.00000E+000	4.00048E-001	0.00000E+000	9	...........	1425.60
	51	4.7	4.00654E-001	2.43565E-004	0.00000E+000	4.00048E-001	0.00000E+000	9	...........	1425.60
	52	4.8	4.00622E-001	2.42602E-004	0.00000E+000	4.00048E-001	0.00000E+000	9	...........	1425.60
	53	4.9	4.00621E-001	2.41694E-004	0.00000E+000	4.00048E-001	0.00000E+000	9	...........	1425.60
	54	5	4.00631E-001	2.40744E-004	0.00000E+000	4.00048E-001	0.00000E+000	9	...........	1425.60
	55	5.1	4.00629E-001	2.39884E-004	0.00000E+000	4.00048E-001	0.00000E+000	9	...........	1425.60
	56	5.2	4.00632E-001	2.39020E-004	0.00000E+000	4.00048E-001	0.00000E+000	9	...........	1425.60
	57	5.3	4.00633E-001	2.38130E-004	0.00000E+000	4.00048E-001	0.00000E+000	9	...........	1425.60
	58	5.4	4.00631E-001	2.37268E-004	0.00000E+000	4.00048E-001	0.00000E+000	9	...........	1425.60
	59	5.5	4.00618E-001	2.36442E-004	0.00000E+000	4.00048E-001	0.00000E+000	9	...........	1425.60
	60	5.6	4.00620E-001	2.35608E-004	0.00000E+000	4.00048E-001	0.00000E+000	9	...........	1425.60
	61	5.7	4.00621E-001	2.34831E-004	0.00000E+000	4.00048E-001	0.00000E+000	9	...........	1425.60
	62	5.8	4.00622E-001	2.34039E-004	0.00000E+000	4.00048E-001	0.00000E+000	9	...........	1425.60
	63	5.9	4.00621E-001	2.33264E-004	0.00000E+000	4.00048E-001	0.00000E+000	9	...........	1425.60
	64	6	4.00635E-001	2.32547E-004	0.00000E+000	4.00048E-001	0.00000E+000	9	...........	1425.60
	65	6.1	4.00641E-001	2.31805E-004	0.00000E+000	4.00048E-001	0.00000E+000	9	...........	1425.60
	66	7.1	4.00641E-001	2.25189E-004	0.00000E+000	4.00048E-001	0.00000E+000	9	...........	1425.69
	67	8.1	4.00636E-001	2.19699E-004	0.00000E+000	4.00048E-001	0.00000E+000	9	...........	1425.69
	68	9.1	4.00628E-001	2.15077E-004	0.00000E+000	4.00048E-001	0.00000E+000	9	...........	1425.69
	69	10.1	4.00619E-001	2.11065E-004	0.00000E+000	4.00048E-001	0.00000E+000	9	...........	1425.69
	70	11.1	4.00632E-001	2.07592E-004	0.00000E+000	4.00048E-001	0.00000E+000	9	...........	1425.78
	71	12.1	4.00636E-001	2.04630E-004	0.00000E+000	4.00048E-001	0.00000E+000	9	...........	1425.78
	72	13.1	4.00636E-001	2.02026E-004	0.00000E+000	4.00048E-001	0.00000E+000	9	...........	1425.78
	73	14.1	4.00636E-001	1.99632E-004	0.00000E+000	4.00048E-001	0.00000E+000	9	...........	1425.69
	74	15.1	4.00627E-001	1.97619E-004	0.00000E+000	4.00048E-001	0.00000E+000	9	...........	1425.69
	75	16.1	4.00628E-001	1.95742E-004	0.00000E+000	4.00048E-001	0.00000E+000	9	...........	1425.78
	76	26.1	4.00626E-001	1.84647E-004	0.00000E+000	4.00048E-001	0.00000E+000	9	...........	1425.78
	77	36.1	4.00640E-001	1.79817E-004	0.00000E+000	4.00048E-001	0.00000E+000	9	...........	1425.69
	78	46.1	4.00645E-001	1.77098E-004	0.00000E+000	4.00048E-001	0.00000E+000	9	...........	1425.69
	79	56.1	4.00619E-001	1.75232E-004	0.00000E+000	4.00048E-001	0.00000E+000	9	...........	1425.78
	80	66.1	4.00640E-001	1.73598E-004	0.00000E+000	4.00048E-001	0.00000E+000	9	...........	1425.78
	81	76.1	4.00648E-001	1.72308E-004	0.00000E+000	4.00048E-001	0.00000E+000	9	...........	1425.69
	82	86.1	4.00636E-001	1.71314E-004	0.00000E+000	4.00048E-001	0.00000E+000	9	...........	1425.69
	83	96.1	4.00627E-001	1.70510E-004	0.00000E+000	4.00048E-001	0.00000E+000	9	...........	1425.69
	84	100	4.00625E-001	1.70135E-004	0.00000E+000	4.00048E-001	0.00000E+000	9	...........	1425.78
	85	100.1	3.50584E-001	-7.82711E-005	0.00000E+000	3.50035E-001	0.00000E+000	9	...........	1425.78
	86	100.2	3.50585E-001	-4.55475E-005	0.00000E+000	3.50035E-001	0.00000E+000	9	...........	1425.78
	87	100.3	3.50588E-001	-2.34773E-005	0.00000E+000	3.50035E-001	0.00000E+000	9	...........	1425.78
	88	100.4	3.50593E-001	-6.87892E-006	0.00000E+000	3.50035E-001	0.00000E+000	9	...........	1425.78
	89	100.5	3.50588E-001	6.31587E-006	0.00000E+000	3.50035E-001	0.00000E+000	9	...........	1425.71
	90	100.6	3.50583E-001	1.71667E-005	0.00000E+000	3.50035E-001	0.00000E+000	9	...........	1425.69
	91	100.7	3.50578E-001	2.62776E-005	0.00000E+000	3.50035E-001	0.00000E+000	9	...........	1425.69
	92	100.8	3.50585E-001	3.41156E-005	0.00000E+000	3.50035E-001	0.00000E+000	9	...........	1425.69
	93	100.9	3.50586E-001	4.09118E-005	0.00000E+000	3.50035E-001	0.00000E+000	9	...........	1425.69
	94	101	3.50601E-001	4.69524E-005	0.00000E+000	3.50035E-001	0.00000E+000	9	...........	1425.69
