EXPLAIN
TAG	CHRONOA
TITLE	LABEL	Chronoamperometry Scan	Test Identifier
DATE	LABEL	17/12/2021	Date
TIME	LABEL	11:43:27	Time
NOTES	NOTES	1	Notes...
	
PSTAT	PSTAT	IFC1010-21051	Potentiostat
VPRESTEP	POTEN	1.00000E-002	F	Pre-step Voltage (V)
TPRESTEP	QUANT	5.00000E-001	Pre-step Delay Time (s)
VSTEP1	POTEN	0.00000E+000	F	Step 1 Voltage (V)
TSTEP1	QUANT	3.00000E+002	Step 1 Time (s)
VSTEP2	POTEN	-1.00000E-001	T	Step 2 Voltage (V)
TSTEP2	QUANT	1.00000E+000	Step 2 Time (s)
SAMPLETIME	QUANT	1.00000E-001	Sample Period (s)
DECIMATE	TOGGLE	T	Decimate
ILIMIT	QUANT	1.00000E+000	Limit I (mA/cm^2)
IMODE	SELECTOR	1	I/E Range Mode
IRANGE	QUANT	3.00000E-001	Max Current (mA)
EQDELAY	QUANT	5.00000E+000	Equil. Time (s)
SAMPLINGMODE	SELECTOR	1	Sampling Mode
AREA	QUANT	1.00000E+000	Sample Area (cm^2)
IRCOMP	SELECTOR	0	IRComp
PFCOR	QUANT	5.00000E+001	PF Corr. (ohm)
SEQUENCER	TOGGLE	TRUE	Run as Sequence
PSTATMODEL	IQUANT	64	Pstat Model
PSTATSECTION	LABEL	IFC1010-21051	Pstat Section
PSTATSERIALNO	LABEL	21051	Pstat Serial Number
CTRLMODE	IQUANT	1	Control Mode
ELECTROMETER	IQUANT	0	RE=0 or CS=1
IESTAB	IQUANT	0	I/E Stability
CASPEED	IQUANT	4	Control Amp Speed
CONVENTION	IQUANT	1	Current Convention
ICHRANGE	IQUANT	2	Ich Range
ICHRANGEMODE	TOGGLE	T	Ich Auto Range
ICHOFFSETENABLE	TOGGLE	F	Ich Offset Enable
ICHOFFSET	QUANT	0	Ich Offset (V)
ICHFILTER	IQUANT	3	Ich Filter
VCHRANGE	IQUANT	3	Vch Range
VCHRANGEMODE	TOGGLE	T	Vch Auto Range
VCHOFFSETENABLE	TOGGLE	F	Vch Offset Enable
VCHOFFSET	QUANT	0	Vch Offset (V)
VCHFILTER	IQUANT	3	Vch Filter
IERANGELOWERLIMIT	IQUANT	4	I/E Range Lower Limit
IERANGEMODE	TOGGLE	F	I/E AutoRange
IERANGE	IQUANT	9	I/E Range
ACHSELECT	IQUANT	0	Ach Select
ACHRANGE	IQUANT	2	Ach Range
ACHOFFSETENABLE	TOGGLE	F	Ach Offset Enable
ACHOFFSET	QUANT	0	Ach Offset (V)
ACHFILTER	IQUANT	1	Ach Filter
SENSECABLEID	IQUANT	14	Sense Cable ID
PWRCABLEID	IQUANT	14	Power Cable ID
DCCALDATE	LABEL	10/1/2020	DC Calibration Date
ACCALDATE	LABEL	4/2/2018	AC Calibration Date
FRAMEWORKVERSION	QUANT	7.06	Framework Version
INSTRUMENTVERSION	LABEL	4.30	Instrument Version
CURVE	TABLE	98
	Pt	T	Vf	Im	Vu	Sig	Ach	IERange	Over	Temp
	#	s	V vs. Ref.	A	V	V	V	#	bits	deg C
	0	-0.4	9.79279E-003	-2.61479E-005	0.00000E+000	1.00559E-002	0.00000E+000	9	...........	1425.95
	1	-0.3	1.00141E-002	-2.59260E-005	0.00000E+000	1.00559E-002	0.00000E+000	9	...........	1425.95
	2	-0.2	1.00796E-002	-2.56981E-005	0.00000E+000	1.00559E-002	0.00000E+000	9	...........	1425.95
	3	-0.1	1.00873E-002	-2.54890E-005	0.00000E+000	1.00559E-002	0.00000E+000	9	...........	1425.95
	4	0	1.00866E-002	-2.52807E-005	0.00000E+000	1.00559E-002	0.00000E+000	9	...........	1425.95
	5	0.1	8.03499E-005	-5.97996E-005	0.00000E+000	5.34840E-005	0.00000E+000	9	...........	1425.95
	6	0.2	7.88020E-005	-5.02907E-005	0.00000E+000	5.34840E-005	0.00000E+000	9	...........	1425.95
	7	0.3	7.80130E-005	-4.43092E-005	0.00000E+000	5.34840E-005	0.00000E+000	9	...........	1425.95
	8	0.4	7.81172E-005	-4.02193E-005	0.00000E+000	5.34840E-005	0.00000E+000	9	...........	1425.95
	9	0.5	7.95359E-005	-3.72855E-005	0.00000E+000	5.34840E-005	0.00000E+000	9	...........	1425.95
	10	0.6	7.81542E-005	-3.51247E-005	0.00000E+000	5.34840E-005	0.00000E+000	9	...........	1425.95
	11	0.7	7.83044E-005	-3.34526E-005	0.00000E+000	5.34840E-005	0.00000E+000	9	...........	1425.95
	12	0.8	7.76306E-005	-3.21515E-005	0.00000E+000	5.34840E-005	0.00000E+000	9	...........	1425.95
	13	0.9	7.72441E-005	-3.11057E-005	0.00000E+000	5.34840E-005	0.00000E+000	9	...........	1425.95
	14	1	7.77337E-005	-3.02388E-005	0.00000E+000	5.34840E-005	0.00000E+000	9	...........	1425.95
	15	1.1	7.93086E-005	-2.95161E-005	0.00000E+000	5.34840E-005	0.00000E+000	9	...........	1425.95
	16	1.2	7.80581E-005	-2.89077E-005	0.00000E+000	5.34840E-005	0.00000E+000	9	...........	1425.95
	17	1.3	7.80471E-005	-2.83855E-005	0.00000E+000	5.34840E-005	0.00000E+000	9	...........	1425.95
	18	1.4	7.70088E-005	-2.79365E-005	0.00000E+000	5.34840E-005	0.00000E+000	9	...........	1425.95
	19	1.5	7.75124E-005	-2.75307E-005	0.00000E+000	5.34840E-005	0.00000E+000	9	...........	1425.87
	20	1.6	7.68286E-005	-2.71738E-005	0.00000E+000	5.34840E-005	0.00000E+000	9	...........	1425.87
	21	1.7	7.80431E-005	-2.68381E-005	0.00000E+000	5.34840E-005	0.00000E+000	9	...........	1425.87
	22	1.8	7.77457E-005	-2.65340E-005	0.00000E+000	5.34840E-005	0.00000E+000	9	...........	1425.87
	23	1.9	7.82273E-005	-2.62662E-005	0.00000E+000	5.34840E-005	0.00000E+000	9	...........	1425.87
	24	2	7.72992E-005	-2.60222E-005	0.00000E+000	5.34840E-005	0.00000E+000	9	...........	1425.87
	25	2.1	7.78068E-005	-2.57978E-005	0.00000E+000	5.34840E-005	0.00000E+000	9	...........	1425.87
	26	2.2	7.79690E-005	-2.55678E-005	0.00000E+000	5.34840E-005	0.00000E+000	9	...........	1425.87
	27	2.3	7.86779E-005	-2.53549E-005	0.00000E+000	5.34840E-005	0.00000E+000	9	...........	1425.87
	28	2.4	7.81532E-005	-2.51545E-005	0.00000E+000	5.34840E-005	0.00000E+000	9	...........	1425.87
	29	2.5	7.74033E-005	-2.49734E-005	0.00000E+000	5.34840E-005	0.00000E+000	9	...........	1426.22
	30	2.6	7.73883E-005	-2.47999E-005	0.00000E+000	5.34840E-005	0.00000E+000	9	...........	1426.22
	31	2.7	7.73192E-005	-2.46358E-005	0.00000E+000	5.34840E-005	0.00000E+000	9	...........	1426.22
	32	2.8	7.58434E-005	-2.44801E-005	0.00000E+000	5.34840E-005	0.00000E+000	9	...........	1426.22
	33	2.9	7.65102E-005	-2.43467E-005	0.00000E+000	5.34840E-005	0.00000E+000	9	...........	1426.22
	34	3	7.70879E-005	-2.42034E-005	0.00000E+000	5.34840E-005	0.00000E+000	9	...........	1426.22
	35	3.1	7.68606E-005	-2.40596E-005	0.00000E+000	5.34840E-005	0.00000E+000	9	...........	1426.22
	36	3.2	7.67805E-005	-2.39157E-005	0.00000E+000	5.34840E-005	0.00000E+000	9	...........	1426.22
	37	3.3	7.79389E-005	-2.37656E-005	0.00000E+000	5.34840E-005	0.00000E+000	9	...........	1426.22
	38	3.4	7.68726E-005	-2.36292E-005	0.00000E+000	5.34840E-005	0.00000E+000	9	...........	1426.22
	39	3.5	7.75595E-005	-2.34879E-005	0.00000E+000	5.34840E-005	0.00000E+000	9	...........	1425.78
	40	3.6	7.79700E-005	-2.33629E-005	0.00000E+000	5.34840E-005	0.00000E+000	9	...........	1425.78
	41	3.7	7.81872E-005	-2.32332E-005	0.00000E+000	5.34840E-005	0.00000E+000	9	...........	1425.78
	42	3.8	7.94328E-005	-2.31039E-005	0.00000E+000	5.34840E-005	0.00000E+000	9	...........	1425.78
	43	3.9	7.62789E-005	-2.29975E-005	0.00000E+000	5.34840E-005	0.00000E+000	9	...........	1425.78
	44	4	7.85046E-005	-2.28754E-005	0.00000E+000	5.34840E-005	0.00000E+000	9	...........	1425.78
	45	4.1	7.78148E-005	-2.27506E-005	0.00000E+000	5.34840E-005	0.00000E+000	9	...........	1425.78
	46	4.2	7.76226E-005	-2.26518E-005	0.00000E+000	5.34840E-005	0.00000E+000	9	...........	1425.78
	47	4.3	7.77317E-005	-2.25377E-005	0.00000E+000	5.34840E-005	0.00000E+000	9	...........	1425.78
	48	4.4	7.71019E-005	-2.24262E-005	0.00000E+000	5.34840E-005	0.00000E+000	9	...........	1425.78
	49	4.5	7.85808E-005	-2.23087E-005	0.00000E+000	5.34840E-005	0.00000E+000	9	...........	1425.87
	50	4.6	7.79099E-005	-2.22004E-005	0.00000E+000	5.34840E-005	0.00000E+000	9	...........	1425.87
	51	4.7	7.76226E-005	-2.21062E-005	0.00000E+000	5.34840E-005	0.00000E+000	9	...........	1425.87
	52	4.8	7.68086E-005	-2.19842E-005	0.00000E+000	5.34840E-005	0.00000E+000	9	...........	1425.87
	53	4.9	7.79380E-005	-2.18693E-005	0.00000E+000	5.34840E-005	0.00000E+000	9	...........	1425.87
	54	5	7.73693E-005	-2.17764E-005	0.00000E+000	5.34840E-005	0.00000E+000	9	...........	1425.87
	55	5.1	7.73572E-005	-2.16777E-005	0.00000E+000	5.34840E-005	0.00000E+000	9	...........	1425.87
	56	5.2	7.67725E-005	-2.15931E-005	0.00000E+000	5.34840E-005	0.00000E+000	9	...........	1425.87
	57	5.3	7.84255E-005	-2.15196E-005	0.00000E+000	5.34840E-005	0.00000E+000	9	...........	1425.87
	58	5.4	7.87019E-005	-2.14261E-005	0.00000E+000	5.34840E-005	0.00000E+000	9	...........	1425.87
	59	5.5	7.74894E-005	-2.13520E-005	0.00000E+000	5.34840E-005	0.00000E+000	9	...........	1425.78
	60	5.6	7.81492E-005	-2.12768E-005	0.00000E+000	5.34840E-005	0.00000E+000	9	...........	1425.78
	61	5.7	7.87920E-005	-2.12013E-005	0.00000E+000	5.34840E-005	0.00000E+000	9	...........	1425.78
	62	5.8	7.81062E-005	-2.11216E-005	0.00000E+000	5.34840E-005	0.00000E+000	9	...........	1425.78
	63	5.9	7.80881E-005	-2.10411E-005	0.00000E+000	5.34840E-005	0.00000E+000	9	...........	1425.78
	64	6	7.79990E-005	-2.09647E-005	0.00000E+000	5.34840E-005	0.00000E+000	9	...........	1425.78
	65	6.1	7.76196E-005	-2.08896E-005	0.00000E+000	5.34840E-005	0.00000E+000	9	...........	1425.78
	66	7.1	7.94308E-005	-2.02008E-005	0.00000E+000	5.34840E-005	0.00000E+000	9	...........	1426.04
	67	8.1	7.84606E-005	-1.95089E-005	0.00000E+000	5.34840E-005	0.00000E+000	9	...........	1426.22
	68	9.1	7.90253E-005	-1.88932E-005	0.00000E+000	5.34840E-005	0.00000E+000	9	...........	1426.22
	69	10.1	7.77798E-005	-1.85104E-005	0.00000E+000	5.34840E-005	0.00000E+000	9	...........	1426.13
	70	11.1	7.77087E-005	-1.82281E-005	0.00000E+000	5.34840E-005	0.00000E+000	9	...........	1426.22
	71	12.1	7.94278E-005	-1.78798E-005	0.00000E+000	5.34840E-005	0.00000E+000	9	...........	1426.31
	72	13.1	7.85847E-005	-1.76430E-005	0.00000E+000	5.34840E-005	0.00000E+000	9	...........	1426.13
	73	14.1	7.81222E-005	-1.74935E-005	0.00000E+000	5.34840E-005	0.00000E+000	9	...........	1426.22
	74	15.1	7.86468E-005	-1.73221E-005	0.00000E+000	5.34840E-005	0.00000E+000	9	...........	1426.22
	75	16.1	7.72831E-005	-1.70518E-005	0.00000E+000	5.34840E-005	0.00000E+000	9	...........	1426.22
	76	26.1	7.76836E-005	-1.54753E-005	0.00000E+000	5.34840E-005	0.00000E+000	9	...........	1426.22
	77	36.1	7.85237E-005	-1.45277E-005	0.00000E+000	5.34840E-005	0.00000E+000	9	...........	1426.13
	78	46.1	7.82864E-005	-1.39932E-005	0.00000E+000	5.34840E-005	0.00000E+000	9	...........	1426.22
	79	56.1	7.83024E-005	-1.36490E-005	0.00000E+000	5.34840E-005	0.00000E+000	9	...........	1426.22
	80	66.1	7.84796E-005	-1.31506E-005	0.00000E+000	5.34840E-005	0.00000E+000	9	...........	1426.22
	81	76.1	7.86588E-005	-1.29965E-005	0.00000E+000	5.34840E-005	0.00000E+000	9	...........	1426.22
	82	86.1	7.86768E-005	-1.31081E-005	0.00000E+000	5.34840E-005	0.00000E+000	9	...........	1426.22
	83	96.1	7.71330E-005	-1.27466E-005	0.00000E+000	5.34840E-005	0.00000E+000	9	...........	1426.22
	84	106.1	7.68356E-005	-1.25667E-005	0.00000E+000	5.34840E-005	0.00000E+000	9	...........	1426.22
	85	116.1	7.77017E-005	-1.23435E-005	0.00000E+000	5.34840E-005	0.00000E+000	9	...........	1426.22
	86	216.1	7.89652E-005	-1.12112E-005	0.00000E+000	5.34840E-005	0.00000E+000	9	...........	1426.22
	87	300	7.72061E-005	-1.08183E-005	0.00000E+000	5.34840E-005	0.00000E+000	9	...........	1426.31
	88	300.1	-3.29021E-002	-3.30161E-004	0.00000E+000	-9.99460E-002	0.00000E+000	9	.........v.	1426.31
	89	300.2	-9.99380E-002	-2.33985E-004	0.00000E+000	-9.99460E-002	0.00000E+000	9	...........	1426.31
	90	300.3	-9.99370E-002	-1.78621E-004	0.00000E+000	-9.99460E-002	0.00000E+000	9	...........	1426.31
	91	300.4	-9.99372E-002	-1.43090E-004	0.00000E+000	-9.99460E-002	0.00000E+000	9	...........	1426.31
	92	300.5	-9.99371E-002	-1.18770E-004	0.00000E+000	-9.99460E-002	0.00000E+000	9	...........	1426.31
	93	300.6	-9.99378E-002	-1.01322E-004	0.00000E+000	-9.99460E-002	0.00000E+000	9	...........	1426.31
	94	300.7	-9.99387E-002	-8.83886E-005	0.00000E+000	-9.99460E-002	0.00000E+000	9	...........	1426.31
	95	300.8	-9.99391E-002	-7.85342E-005	0.00000E+000	-9.99460E-002	0.00000E+000	9	...........	1426.31
	96	300.9	-9.99385E-002	-7.08530E-005	0.00000E+000	-9.99460E-002	0.00000E+000	9	...........	1426.31
	97	301	-9.99372E-002	-6.47464E-005	0.00000E+000	-9.99460E-002	0.00000E+000	9	...........	1426.31
