EXPLAIN
TAG	CHRONOA
TITLE	LABEL	Chronoamperometry Scan	Test Identifier
DATE	LABEL	17/12/2021	Date
TIME	LABEL	14:35:38	Time
NOTES	NOTES	1	Notes...
	
PSTAT	PSTAT	IFC1010-21051	Potentiostat
VPRESTEP	POTEN	1.00000E-002	F	Pre-step Voltage (V)
TPRESTEP	QUANT	5.00000E-001	Pre-step Delay Time (s)
VSTEP1	POTEN	0.00000E+000	F	Step 1 Voltage (V)
TSTEP1	QUANT	3.00000E+002	Step 1 Time (s)
VSTEP2	POTEN	-1.00000E-001	T	Step 2 Voltage (V)
TSTEP2	QUANT	1.00000E+000	Step 2 Time (s)
SAMPLETIME	QUANT	1.00000E-001	Sample Period (s)
DECIMATE	TOGGLE	T	Decimate
ILIMIT	QUANT	1.00000E+000	Limit I (mA/cm^2)
IMODE	SELECTOR	1	I/E Range Mode
IRANGE	QUANT	3.00000E-001	Max Current (mA)
EQDELAY	QUANT	5.00000E+000	Equil. Time (s)
SAMPLINGMODE	SELECTOR	1	Sampling Mode
AREA	QUANT	1.00000E+000	Sample Area (cm^2)
IRCOMP	SELECTOR	0	IRComp
PFCOR	QUANT	5.00000E+001	PF Corr. (ohm)
SEQUENCER	TOGGLE	TRUE	Run as Sequence
PSTATMODEL	IQUANT	64	Pstat Model
PSTATSECTION	LABEL	IFC1010-21051	Pstat Section
PSTATSERIALNO	LABEL	21051	Pstat Serial Number
CTRLMODE	IQUANT	1	Control Mode
ELECTROMETER	IQUANT	0	RE=0 or CS=1
IESTAB	IQUANT	0	I/E Stability
CASPEED	IQUANT	4	Control Amp Speed
CONVENTION	IQUANT	1	Current Convention
ICHRANGE	IQUANT	2	Ich Range
ICHRANGEMODE	TOGGLE	T	Ich Auto Range
ICHOFFSETENABLE	TOGGLE	F	Ich Offset Enable
ICHOFFSET	QUANT	0	Ich Offset (V)
ICHFILTER	IQUANT	3	Ich Filter
VCHRANGE	IQUANT	3	Vch Range
VCHRANGEMODE	TOGGLE	T	Vch Auto Range
VCHOFFSETENABLE	TOGGLE	F	Vch Offset Enable
VCHOFFSET	QUANT	0	Vch Offset (V)
VCHFILTER	IQUANT	3	Vch Filter
IERANGELOWERLIMIT	IQUANT	4	I/E Range Lower Limit
IERANGEMODE	TOGGLE	F	I/E AutoRange
IERANGE	IQUANT	9	I/E Range
ACHSELECT	IQUANT	0	Ach Select
ACHRANGE	IQUANT	2	Ach Range
ACHOFFSETENABLE	TOGGLE	F	Ach Offset Enable
ACHOFFSET	QUANT	0	Ach Offset (V)
ACHFILTER	IQUANT	1	Ach Filter
SENSECABLEID	IQUANT	14	Sense Cable ID
PWRCABLEID	IQUANT	14	Power Cable ID
DCCALDATE	LABEL	10/1/2020	DC Calibration Date
ACCALDATE	LABEL	4/2/2018	AC Calibration Date
FRAMEWORKVERSION	QUANT	7.06	Framework Version
INSTRUMENTVERSION	LABEL	4.30	Instrument Version
CURVE	TABLE	98
	Pt	T	Vf	Im	Vu	Sig	Ach	IERange	Over	Temp
	#	s	V vs. Ref.	A	V	V	V	#	bits	deg C
	0	-0.4	9.72152E-003	-1.30372E-005	0.00000E+000	1.00559E-002	0.00000E+000	9	...........	1426.13
	1	-0.3	1.00183E-002	-1.29311E-005	0.00000E+000	1.00559E-002	0.00000E+000	9	...........	1426.13
	2	-0.2	1.00768E-002	-1.28298E-005	0.00000E+000	1.00559E-002	0.00000E+000	9	...........	1426.13
	3	-0.1	1.00832E-002	-1.27421E-005	0.00000E+000	1.00559E-002	0.00000E+000	9	...........	1426.13
	4	0	1.00815E-002	-1.26505E-005	0.00000E+000	1.00559E-002	0.00000E+000	9	...........	1426.13
	5	0.1	7.43225E-005	-3.88304E-005	0.00000E+000	5.34840E-005	0.00000E+000	9	...........	1426.13
	6	0.2	7.37298E-005	-2.75076E-005	0.00000E+000	5.34840E-005	0.00000E+000	9	...........	1426.13
	7	0.3	7.34274E-005	-2.22558E-005	0.00000E+000	5.34840E-005	0.00000E+000	9	...........	1426.13
	8	0.4	7.42684E-005	-1.94813E-005	0.00000E+000	5.34840E-005	0.00000E+000	9	...........	1426.13
	9	0.5	7.29829E-005	-1.78773E-005	0.00000E+000	5.34840E-005	0.00000E+000	9	...........	1426.13
	10	0.6	7.37949E-005	-1.68496E-005	0.00000E+000	5.34840E-005	0.00000E+000	9	...........	1426.13
	11	0.7	7.24121E-005	-1.61691E-005	0.00000E+000	5.34840E-005	0.00000E+000	9	...........	1426.13
	12	0.8	7.33583E-005	-1.56493E-005	0.00000E+000	5.34840E-005	0.00000E+000	9	...........	1426.13
	13	0.9	7.29909E-005	-1.52514E-005	0.00000E+000	5.34840E-005	0.00000E+000	9	...........	1426.13
	14	1	7.27356E-005	-1.49360E-005	0.00000E+000	5.34840E-005	0.00000E+000	9	...........	1426.13
	15	1.1	7.25663E-005	-1.46754E-005	0.00000E+000	5.34840E-005	0.00000E+000	9	...........	1426.13
	16	1.2	7.28847E-005	-1.44477E-005	0.00000E+000	5.34840E-005	0.00000E+000	9	...........	1426.13
	17	1.3	7.30750E-005	-1.42485E-005	0.00000E+000	5.34840E-005	0.00000E+000	9	...........	1426.13
	18	1.4	7.27546E-005	-1.40781E-005	0.00000E+000	5.34840E-005	0.00000E+000	9	...........	1426.13
	19	1.5	7.19526E-005	-1.39179E-005	0.00000E+000	5.34840E-005	0.00000E+000	9	...........	1426.13
	20	1.6	7.23461E-005	-1.37651E-005	0.00000E+000	5.34840E-005	0.00000E+000	9	...........	1426.13
	21	1.7	7.25563E-005	-1.36276E-005	0.00000E+000	5.34840E-005	0.00000E+000	9	...........	1426.13
	22	1.8	7.29618E-005	-1.35061E-005	0.00000E+000	5.34840E-005	0.00000E+000	9	...........	1426.13
	23	1.9	7.23901E-005	-1.33923E-005	0.00000E+000	5.34840E-005	0.00000E+000	9	...........	1426.13
	24	2	7.29018E-005	-1.32816E-005	0.00000E+000	5.34840E-005	0.00000E+000	9	...........	1426.04
	25	2.1	7.21879E-005	-1.31851E-005	0.00000E+000	5.34840E-005	0.00000E+000	9	...........	1426.04
	26	2.2	7.30279E-005	-1.30764E-005	0.00000E+000	5.34840E-005	0.00000E+000	9	...........	1426.04
	27	2.3	7.35926E-005	-1.29838E-005	0.00000E+000	5.34840E-005	0.00000E+000	9	...........	1426.04
	28	2.4	7.38099E-005	-1.28928E-005	0.00000E+000	5.34840E-005	0.00000E+000	9	...........	1426.04
	29	2.5	7.18545E-005	-1.28098E-005	0.00000E+000	5.34840E-005	0.00000E+000	9	...........	1426.04
	30	2.6	7.19276E-005	-1.27293E-005	0.00000E+000	5.34840E-005	0.00000E+000	9	...........	1426.04
	31	2.7	7.32332E-005	-1.26446E-005	0.00000E+000	5.34840E-005	0.00000E+000	9	...........	1426.04
	32	2.8	7.22920E-005	-1.25701E-005	0.00000E+000	5.34840E-005	0.00000E+000	9	...........	1426.04
	33	2.9	7.28727E-005	-1.24962E-005	0.00000E+000	5.34840E-005	0.00000E+000	9	...........	1426.04
	34	3	7.24101E-005	-1.24251E-005	0.00000E+000	5.34840E-005	0.00000E+000	9	...........	1426.04
	35	3.1	7.20767E-005	-1.23597E-005	0.00000E+000	5.34840E-005	0.00000E+000	9	...........	1426.04
	36	3.2	7.17834E-005	-1.22916E-005	0.00000E+000	5.34840E-005	0.00000E+000	9	...........	1426.04
	37	3.3	7.29638E-005	-1.22202E-005	0.00000E+000	5.34840E-005	0.00000E+000	9	...........	1426.04
	38	3.4	7.19466E-005	-1.21608E-005	0.00000E+000	5.34840E-005	0.00000E+000	9	...........	1426.04
	39	3.5	7.26104E-005	-1.21070E-005	0.00000E+000	5.34840E-005	0.00000E+000	9	...........	1426.04
	40	3.6	7.21278E-005	-1.20472E-005	0.00000E+000	5.34840E-005	0.00000E+000	9	...........	1426.04
	41	3.7	7.24412E-005	-1.19900E-005	0.00000E+000	5.34840E-005	0.00000E+000	9	...........	1426.04
	42	3.8	7.22820E-005	-1.19413E-005	0.00000E+000	5.34840E-005	0.00000E+000	9	...........	1426.04
	43	3.9	7.28817E-005	-1.18834E-005	0.00000E+000	5.34840E-005	0.00000E+000	9	...........	1426.04
	44	4	7.33904E-005	-1.18302E-005	0.00000E+000	5.34840E-005	0.00000E+000	9	...........	1426.13
	45	4.1	7.19976E-005	-1.17819E-005	0.00000E+000	5.34840E-005	0.00000E+000	9	...........	1426.13
	46	4.2	7.29768E-005	-1.17274E-005	0.00000E+000	5.34840E-005	0.00000E+000	9	...........	1426.13
	47	4.3	7.20737E-005	-1.16762E-005	0.00000E+000	5.34840E-005	0.00000E+000	9	...........	1426.13
	48	4.4	7.41813E-005	-1.16325E-005	0.00000E+000	5.34840E-005	0.00000E+000	9	...........	1426.13
	49	4.5	7.36307E-005	-1.15897E-005	0.00000E+000	5.34840E-005	0.00000E+000	9	...........	1426.13
	50	4.6	7.35115E-005	-1.15457E-005	0.00000E+000	5.34840E-005	0.00000E+000	9	...........	1426.13
	51	4.7	7.40121E-005	-1.14987E-005	0.00000E+000	5.34840E-005	0.00000E+000	9	...........	1426.13
	52	4.8	7.40842E-005	-1.14535E-005	0.00000E+000	5.34840E-005	0.00000E+000	9	...........	1426.13
	53	4.9	7.35475E-005	-1.14166E-005	0.00000E+000	5.34840E-005	0.00000E+000	9	...........	1426.13
	54	5	7.37127E-005	-1.13830E-005	0.00000E+000	5.34840E-005	0.00000E+000	9	...........	1426.04
	55	5.1	7.45588E-005	-1.13336E-005	0.00000E+000	5.34840E-005	0.00000E+000	9	...........	1426.04
	56	5.2	7.32141E-005	-1.13063E-005	0.00000E+000	5.34840E-005	0.00000E+000	9	...........	1426.04
	57	5.3	7.41853E-005	-1.12583E-005	0.00000E+000	5.34840E-005	0.00000E+000	9	...........	1426.04
	58	5.4	7.45468E-005	-1.12240E-005	0.00000E+000	5.34840E-005	0.00000E+000	9	...........	1426.04
	59	5.5	7.31030E-005	-1.11942E-005	0.00000E+000	5.34840E-005	0.00000E+000	9	...........	1426.04
	60	5.6	7.34965E-005	-1.11578E-005	0.00000E+000	5.34840E-005	0.00000E+000	9	...........	1426.04
	61	5.7	7.29308E-005	-1.11167E-005	0.00000E+000	5.34840E-005	0.00000E+000	9	...........	1426.04
	62	5.8	7.40311E-005	-1.10773E-005	0.00000E+000	5.34840E-005	0.00000E+000	9	...........	1426.04
	63	5.9	7.36247E-005	-1.10509E-005	0.00000E+000	5.34840E-005	0.00000E+000	9	...........	1426.04
	64	6	7.43966E-005	-1.10155E-005	0.00000E+000	5.34840E-005	0.00000E+000	9	...........	1426.04
	65	6.1	7.26544E-005	-1.09838E-005	0.00000E+000	5.34840E-005	0.00000E+000	9	...........	1426.04
	66	7.1	7.31180E-005	-1.06937E-005	0.00000E+000	5.34840E-005	0.00000E+000	9	...........	1425.95
	67	8.1	7.38549E-005	-1.04545E-005	0.00000E+000	5.34840E-005	0.00000E+000	9	...........	1426.40
	68	9.1	7.36537E-005	-1.02527E-005	0.00000E+000	5.34840E-005	0.00000E+000	9	...........	1426.49
	69	10.1	7.48221E-005	-1.00606E-005	0.00000E+000	5.34840E-005	0.00000E+000	9	...........	1426.49
	70	11.1	7.48782E-005	-9.90362E-006	0.00000E+000	5.34840E-005	0.00000E+000	9	...........	1426.40
	71	12.1	7.26074E-005	-9.76218E-006	0.00000E+000	5.34840E-005	0.00000E+000	9	...........	1426.49
	72	13.1	7.34324E-005	-9.62694E-006	0.00000E+000	5.34840E-005	0.00000E+000	9	...........	1426.49
	73	14.1	7.40331E-005	-9.49590E-006	0.00000E+000	5.34840E-005	0.00000E+000	9	...........	1426.49
	74	15.1	7.33473E-005	-9.38709E-006	0.00000E+000	5.34840E-005	0.00000E+000	9	...........	1426.40
	75	16.1	7.35045E-005	-9.28658E-006	0.00000E+000	5.34840E-005	0.00000E+000	9	...........	1426.49
	76	26.1	7.36387E-005	-8.73905E-006	0.00000E+000	5.34840E-005	0.00000E+000	9	...........	1426.49
	77	36.1	7.10415E-005	-8.42216E-006	0.00000E+000	5.34840E-005	0.00000E+000	9	...........	1426.40
	78	46.1	7.33063E-005	-8.05798E-006	0.00000E+000	5.34840E-005	0.00000E+000	9	...........	1426.49
	79	56.1	7.33193E-005	-7.86535E-006	0.00000E+000	5.34840E-005	0.00000E+000	9	...........	1426.49
	80	66.1	7.43265E-005	-7.77666E-006	0.00000E+000	5.34840E-005	0.00000E+000	9	...........	1426.49
	81	76.1	7.22760E-005	-7.67499E-006	0.00000E+000	5.34840E-005	0.00000E+000	9	...........	1426.49
	82	86.1	7.22590E-005	-7.51219E-006	0.00000E+000	5.34840E-005	0.00000E+000	9	...........	1426.49
	83	96.1	7.35976E-005	-7.26293E-006	0.00000E+000	5.34840E-005	0.00000E+000	9	...........	1426.49
	84	106.1	7.29799E-005	-6.99429E-006	0.00000E+000	5.34840E-005	0.00000E+000	9	...........	1426.40
	85	116.1	7.42224E-005	-7.25843E-006	0.00000E+000	5.34840E-005	0.00000E+000	9	...........	1426.40
	86	216.1	7.38009E-005	-6.14841E-006	0.00000E+000	5.34840E-005	0.00000E+000	9	...........	1426.49
	87	300	7.28797E-005	-5.44792E-006	0.00000E+000	5.34840E-005	0.00000E+000	9	...........	1426.49
	88	300.1	-3.29021E-002	-2.30345E-004	0.00000E+000	-9.99460E-002	0.00000E+000	9	.........v.	1426.49
	89	300.2	-9.99461E-002	-1.22164E-004	0.00000E+000	-9.99460E-002	0.00000E+000	9	...........	1426.49
	90	300.3	-9.99450E-002	-7.92042E-005	0.00000E+000	-9.99460E-002	0.00000E+000	9	...........	1426.49
	91	300.4	-9.99447E-002	-5.89751E-005	0.00000E+000	-9.99460E-002	0.00000E+000	9	...........	1426.49
	92	300.5	-9.99445E-002	-4.82320E-005	0.00000E+000	-9.99460E-002	0.00000E+000	9	...........	1426.49
	93	300.6	-9.99436E-002	-4.18684E-005	0.00000E+000	-9.99460E-002	0.00000E+000	9	...........	1426.49
	94	300.7	-9.99440E-002	-3.77770E-005	0.00000E+000	-9.99460E-002	0.00000E+000	9	...........	1426.49
	95	300.8	-9.99425E-002	-3.49269E-005	0.00000E+000	-9.99460E-002	0.00000E+000	9	...........	1426.49
	96	300.9	-9.99437E-002	-3.28348E-005	0.00000E+000	-9.99460E-002	0.00000E+000	9	...........	1426.49
	97	301	-9.99440E-002	-3.12187E-005	0.00000E+000	-9.99460E-002	0.00000E+000	9	...........	1426.49
