EXPLAIN
TAG	CHRONOA
TITLE	LABEL	Chronoamperometry Scan	Test Identifier
DATE	LABEL	17/12/2021	Date
TIME	LABEL	13:20:05	Time
NOTES	NOTES	1	Notes...
	
PSTAT	PSTAT	IFC1010-21051	Potentiostat
VPRESTEP	POTEN	3.00000E-001	F	Pre-step Voltage (V)
TPRESTEP	QUANT	5.00000E-001	Pre-step Delay Time (s)
VSTEP1	POTEN	4.00000E-001	F	Step 1 Voltage (V)
TSTEP1	QUANT	3.00000E+002	Step 1 Time (s)
VSTEP2	POTEN	3.00000E-001	F	Step 2 Voltage (V)
TSTEP2	QUANT	1.00000E+000	Step 2 Time (s)
SAMPLETIME	QUANT	1.00000E-001	Sample Period (s)
DECIMATE	TOGGLE	T	Decimate
ILIMIT	QUANT	1.00000E+000	Limit I (mA/cm^2)
IMODE	SELECTOR	1	I/E Range Mode
IRANGE	QUANT	3.00000E-001	Max Current (mA)
EQDELAY	QUANT	5.00000E+000	Equil. Time (s)
SAMPLINGMODE	SELECTOR	1	Sampling Mode
AREA	QUANT	1.00000E+000	Sample Area (cm^2)
IRCOMP	SELECTOR	0	IRComp
PFCOR	QUANT	5.00000E+001	PF Corr. (ohm)
SEQUENCER	TOGGLE	TRUE	Run as Sequence
PSTATMODEL	IQUANT	64	Pstat Model
PSTATSECTION	LABEL	IFC1010-21051	Pstat Section
PSTATSERIALNO	LABEL	21051	Pstat Serial Number
CTRLMODE	IQUANT	1	Control Mode
ELECTROMETER	IQUANT	0	RE=0 or CS=1
IESTAB	IQUANT	0	I/E Stability
CASPEED	IQUANT	4	Control Amp Speed
CONVENTION	IQUANT	1	Current Convention
ICHRANGE	IQUANT	2	Ich Range
ICHRANGEMODE	TOGGLE	T	Ich Auto Range
ICHOFFSETENABLE	TOGGLE	F	Ich Offset Enable
ICHOFFSET	QUANT	0	Ich Offset (V)
ICHFILTER	IQUANT	3	Ich Filter
VCHRANGE	IQUANT	3	Vch Range
VCHRANGEMODE	TOGGLE	T	Vch Auto Range
VCHOFFSETENABLE	TOGGLE	F	Vch Offset Enable
VCHOFFSET	QUANT	0	Vch Offset (V)
VCHFILTER	IQUANT	3	Vch Filter
IERANGELOWERLIMIT	IQUANT	4	I/E Range Lower Limit
IERANGEMODE	TOGGLE	F	I/E AutoRange
IERANGE	IQUANT	9	I/E Range
ACHSELECT	IQUANT	0	Ach Select
ACHRANGE	IQUANT	2	Ach Range
ACHOFFSETENABLE	TOGGLE	F	Ach Offset Enable
ACHOFFSET	QUANT	0	Ach Offset (V)
ACHFILTER	IQUANT	1	Ach Filter
SENSECABLEID	IQUANT	14	Sense Cable ID
PWRCABLEID	IQUANT	14	Power Cable ID
DCCALDATE	LABEL	10/1/2020	DC Calibration Date
ACCALDATE	LABEL	4/2/2018	AC Calibration Date
FRAMEWORKVERSION	QUANT	7.06	Framework Version
INSTRUMENTVERSION	LABEL	4.30	Instrument Version
CURVE	TABLE	98
	Pt	T	Vf	Im	Vu	Sig	Ach	IERange	Over	Temp
	#	s	V vs. Ref.	A	V	V	V	#	bits	deg C
	0	-0.4	3.00093E-001	7.74062E-006	0.00000E+000	3.00072E-001	0.00000E+000	9	...........	1426.04
	1	-0.3	3.00432E-001	7.65019E-006	0.00000E+000	3.00072E-001	0.00000E+000	9	...........	1426.04
	2	-0.2	3.00447E-001	7.58042E-006	0.00000E+000	3.00072E-001	0.00000E+000	9	...........	1426.04
	3	-0.1	3.00448E-001	7.51151E-006	0.00000E+000	3.00072E-001	0.00000E+000	9	...........	1426.04
	4	0	3.00446E-001	7.46363E-006	0.00000E+000	3.00072E-001	0.00000E+000	9	...........	1426.04
	5	0.1	4.00499E-001	4.20748E-004	0.00000E+000	4.00072E-001	0.00000E+000	9	...........	1426.04
	6	0.2	4.00496E-001	3.53342E-004	0.00000E+000	4.00072E-001	0.00000E+000	9	...........	1426.04
	7	0.3	4.00503E-001	3.09560E-004	0.00000E+000	4.00072E-001	0.00000E+000	9	...........	1426.04
	8	0.4	4.00495E-001	2.78896E-004	0.00000E+000	4.00072E-001	0.00000E+000	9	...........	1426.04
	9	0.5	4.00492E-001	2.55943E-004	0.00000E+000	4.00072E-001	0.00000E+000	9	...........	1426.04
	10	0.6	4.00490E-001	2.37703E-004	0.00000E+000	4.00072E-001	0.00000E+000	9	...........	1426.04
	11	0.7	4.00501E-001	2.22660E-004	0.00000E+000	4.00072E-001	0.00000E+000	9	...........	1426.04
	12	0.8	4.00491E-001	2.09986E-004	0.00000E+000	4.00072E-001	0.00000E+000	9	...........	1426.04
	13	0.9	4.00490E-001	1.99207E-004	0.00000E+000	4.00072E-001	0.00000E+000	9	...........	1426.04
	14	1	4.00484E-001	1.89811E-004	0.00000E+000	4.00072E-001	0.00000E+000	9	...........	1426.04
	15	1.1	4.00477E-001	1.81607E-004	0.00000E+000	4.00072E-001	0.00000E+000	9	...........	1426.04
	16	1.2	4.00478E-001	1.74354E-004	0.00000E+000	4.00072E-001	0.00000E+000	9	...........	1426.04
	17	1.3	4.00484E-001	1.67872E-004	0.00000E+000	4.00072E-001	0.00000E+000	9	...........	1426.04
	18	1.4	4.00482E-001	1.62014E-004	0.00000E+000	4.00072E-001	0.00000E+000	9	...........	1425.60
	19	1.5	4.00490E-001	1.56665E-004	0.00000E+000	4.00072E-001	0.00000E+000	9	...........	1425.60
	20	1.6	4.00501E-001	1.51810E-004	0.00000E+000	4.00072E-001	0.00000E+000	9	...........	1425.60
	21	1.7	4.00489E-001	1.47324E-004	0.00000E+000	4.00072E-001	0.00000E+000	9	...........	1425.60
	22	1.8	4.00496E-001	1.43195E-004	0.00000E+000	4.00072E-001	0.00000E+000	9	...........	1425.60
	23	1.9	4.00495E-001	1.39325E-004	0.00000E+000	4.00072E-001	0.00000E+000	9	...........	1425.60
	24	2	4.00495E-001	1.35738E-004	0.00000E+000	4.00072E-001	0.00000E+000	9	...........	1425.60
	25	2.1	4.00500E-001	1.32339E-004	0.00000E+000	4.00072E-001	0.00000E+000	9	...........	1425.60
	26	2.2	4.00488E-001	1.29196E-004	0.00000E+000	4.00072E-001	0.00000E+000	9	...........	1425.60
	27	2.3	4.00496E-001	1.26202E-004	0.00000E+000	4.00072E-001	0.00000E+000	9	...........	1425.60
	28	2.4	4.00501E-001	1.23364E-004	0.00000E+000	4.00072E-001	0.00000E+000	9	...........	1425.60
	29	2.5	4.00483E-001	1.20697E-004	0.00000E+000	4.00072E-001	0.00000E+000	9	...........	1425.60
	30	2.6	4.00487E-001	1.18170E-004	0.00000E+000	4.00072E-001	0.00000E+000	9	...........	1425.60
	31	2.7	4.00475E-001	1.15740E-004	0.00000E+000	4.00072E-001	0.00000E+000	9	...........	1425.60
	32	2.8	4.00476E-001	1.13396E-004	0.00000E+000	4.00072E-001	0.00000E+000	9	...........	1425.60
	33	2.9	4.00477E-001	1.11247E-004	0.00000E+000	4.00072E-001	0.00000E+000	9	...........	1425.60
	34	3	4.00473E-001	1.09158E-004	0.00000E+000	4.00072E-001	0.00000E+000	9	...........	1425.60
	35	3.1	4.00476E-001	1.07213E-004	0.00000E+000	4.00072E-001	0.00000E+000	9	...........	1425.60
	36	3.2	4.00490E-001	1.05252E-004	0.00000E+000	4.00072E-001	0.00000E+000	9	...........	1425.60
	37	3.3	4.00493E-001	1.03444E-004	0.00000E+000	4.00072E-001	0.00000E+000	9	...........	1425.60
	38	3.4	4.00486E-001	1.01693E-004	0.00000E+000	4.00072E-001	0.00000E+000	9	...........	1425.78
	39	3.5	4.00486E-001	9.99903E-005	0.00000E+000	4.00072E-001	0.00000E+000	9	...........	1425.78
	40	3.6	4.00488E-001	9.83750E-005	0.00000E+000	4.00072E-001	0.00000E+000	9	...........	1425.78
	41	3.7	4.00492E-001	9.68333E-005	0.00000E+000	4.00072E-001	0.00000E+000	9	...........	1425.78
	42	3.8	4.00489E-001	9.53509E-005	0.00000E+000	4.00072E-001	0.00000E+000	9	...........	1425.78
	43	3.9	4.00489E-001	9.39132E-005	0.00000E+000	4.00072E-001	0.00000E+000	9	...........	1425.78
	44	4	4.00488E-001	9.25405E-005	0.00000E+000	4.00072E-001	0.00000E+000	9	...........	1425.78
	45	4.1	4.00474E-001	9.11935E-005	0.00000E+000	4.00072E-001	0.00000E+000	9	...........	1425.78
	46	4.2	4.00485E-001	8.98994E-005	0.00000E+000	4.00072E-001	0.00000E+000	9	...........	1425.78
	47	4.3	4.00485E-001	8.86967E-005	0.00000E+000	4.00072E-001	0.00000E+000	9	...........	1425.78
	48	4.4	4.00486E-001	8.74773E-005	0.00000E+000	4.00072E-001	0.00000E+000	9	...........	1425.95
	49	4.5	4.00485E-001	8.63463E-005	0.00000E+000	4.00072E-001	0.00000E+000	9	...........	1425.95
	50	4.6	4.00489E-001	8.52196E-005	0.00000E+000	4.00072E-001	0.00000E+000	9	...........	1425.95
	51	4.7	4.00490E-001	8.41425E-005	0.00000E+000	4.00072E-001	0.00000E+000	9	...........	1425.95
	52	4.8	4.00502E-001	8.30876E-005	0.00000E+000	4.00072E-001	0.00000E+000	9	...........	1425.95
	53	4.9	4.00493E-001	8.21020E-005	0.00000E+000	4.00072E-001	0.00000E+000	9	...........	1425.95
	54	5	4.00486E-001	8.11198E-005	0.00000E+000	4.00072E-001	0.00000E+000	9	...........	1425.95
	55	5.1	4.00481E-001	8.01560E-005	0.00000E+000	4.00072E-001	0.00000E+000	9	...........	1425.95
	56	5.2	4.00484E-001	7.92034E-005	0.00000E+000	4.00072E-001	0.00000E+000	9	...........	1425.95
	57	5.3	4.00492E-001	7.82526E-005	0.00000E+000	4.00072E-001	0.00000E+000	9	...........	1425.95
	58	5.4	4.00478E-001	7.73845E-005	0.00000E+000	4.00072E-001	0.00000E+000	9	...........	1425.95
	59	5.5	4.00482E-001	7.65482E-005	0.00000E+000	4.00072E-001	0.00000E+000	9	...........	1425.95
	60	5.6	4.00480E-001	7.57109E-005	0.00000E+000	4.00072E-001	0.00000E+000	9	...........	1425.95
	61	5.7	4.00490E-001	7.48827E-005	0.00000E+000	4.00072E-001	0.00000E+000	9	...........	1425.95
	62	5.8	4.00485E-001	7.40892E-005	0.00000E+000	4.00072E-001	0.00000E+000	9	...........	1425.95
	63	5.9	4.00487E-001	7.33334E-005	0.00000E+000	4.00072E-001	0.00000E+000	9	...........	1425.95
	64	6	4.00491E-001	7.25872E-005	0.00000E+000	4.00072E-001	0.00000E+000	9	...........	1425.95
	65	6.1	4.00495E-001	7.18328E-005	0.00000E+000	4.00072E-001	0.00000E+000	9	...........	1425.95
	66	7.1	4.00494E-001	6.55565E-005	0.00000E+000	4.00072E-001	0.00000E+000	9	...........	1425.95
	67	8.1	4.00494E-001	6.04810E-005	0.00000E+000	4.00072E-001	0.00000E+000	9	...........	1425.95
	68	9.1	4.00499E-001	5.61800E-005	0.00000E+000	4.00072E-001	0.00000E+000	9	...........	1425.95
	69	10.1	4.00491E-001	5.25768E-005	0.00000E+000	4.00072E-001	0.00000E+000	9	...........	1425.95
	70	11.1	4.00489E-001	4.94618E-005	0.00000E+000	4.00072E-001	0.00000E+000	9	...........	1426.04
	71	12.1	4.00483E-001	4.67301E-005	0.00000E+000	4.00072E-001	0.00000E+000	9	...........	1425.95
	72	13.1	4.00492E-001	4.45371E-005	0.00000E+000	4.00072E-001	0.00000E+000	9	...........	1425.95
	73	14.1	4.00494E-001	4.26523E-005	0.00000E+000	4.00072E-001	0.00000E+000	9	...........	1426.04
	74	15.1	4.00485E-001	4.10099E-005	0.00000E+000	4.00072E-001	0.00000E+000	9	...........	1425.95
	75	16.1	4.00508E-001	3.96107E-005	0.00000E+000	4.00072E-001	0.00000E+000	9	...........	1426.04
	76	26.1	4.00479E-001	3.04978E-005	0.00000E+000	4.00072E-001	0.00000E+000	9	...........	1425.95
	77	36.1	4.00496E-001	2.62513E-005	0.00000E+000	4.00072E-001	0.00000E+000	9	...........	1426.04
	78	46.1	4.00474E-001	2.39226E-005	0.00000E+000	4.00072E-001	0.00000E+000	9	...........	1425.95
	79	56.1	4.00491E-001	2.23558E-005	0.00000E+000	4.00072E-001	0.00000E+000	9	...........	1426.04
	80	66.1	4.00493E-001	2.13081E-005	0.00000E+000	4.00072E-001	0.00000E+000	9	...........	1426.04
	81	76.1	4.00495E-001	2.05118E-005	0.00000E+000	4.00072E-001	0.00000E+000	9	...........	1426.04
	82	86.1	4.00476E-001	1.99275E-005	0.00000E+000	4.00072E-001	0.00000E+000	9	...........	1426.04
	83	96.1	4.00494E-001	1.97951E-005	0.00000E+000	4.00072E-001	0.00000E+000	9	...........	1426.04
	84	106.1	4.00491E-001	1.96623E-005	0.00000E+000	4.00072E-001	0.00000E+000	9	...........	1426.04
	85	116.1	4.00493E-001	1.91623E-005	0.00000E+000	4.00072E-001	0.00000E+000	9	...........	1426.04
	86	216.1	4.00501E-001	1.83422E-005	0.00000E+000	4.00072E-001	0.00000E+000	9	...........	1426.04
	87	300	4.00482E-001	1.80501E-005	0.00000E+000	4.00072E-001	0.00000E+000	9	...........	1426.04
	88	300.1	3.00435E-001	-4.04877E-004	0.00000E+000	3.00072E-001	0.00000E+000	9	...........	1426.04
	89	300.2	3.00449E-001	-3.39368E-004	0.00000E+000	3.00072E-001	0.00000E+000	9	...........	1426.04
	90	300.3	3.00425E-001	-2.90461E-004	0.00000E+000	3.00072E-001	0.00000E+000	9	...........	1426.04
	91	300.4	3.00439E-001	-2.51649E-004	0.00000E+000	3.00072E-001	0.00000E+000	9	...........	1426.04
	92	300.5	3.00433E-001	-2.20335E-004	0.00000E+000	3.00072E-001	0.00000E+000	9	...........	1426.04
	93	300.6	3.00449E-001	-1.94955E-004	0.00000E+000	3.00072E-001	0.00000E+000	9	...........	1426.04
	94	300.7	3.00440E-001	-1.74493E-004	0.00000E+000	3.00072E-001	0.00000E+000	9	...........	1426.04
	95	300.8	3.00453E-001	-1.57922E-004	0.00000E+000	3.00072E-001	0.00000E+000	9	...........	1426.04
	96	300.9	3.00427E-001	-1.44273E-004	0.00000E+000	3.00072E-001	0.00000E+000	9	...........	1426.04
	97	301	3.00437E-001	-1.32794E-004	0.00000E+000	3.00072E-001	0.00000E+000	9	...........	1426.04
