EXPLAIN
TAG	CHRONOA
TITLE	LABEL	Chronoamperometry Scan	Test Identifier
DATE	LABEL	17/12/2021	Date
TIME	LABEL	10:35:07	Time
NOTES	NOTES	1	Notes...
	
PSTAT	PSTAT	IFC1010-21051	Potentiostat
VPRESTEP	POTEN	3.00000E-001	F	Pre-step Voltage (V)
TPRESTEP	QUANT	5.00000E-001	Pre-step Delay Time (s)
VSTEP1	POTEN	4.00000E-001	F	Step 1 Voltage (V)
TSTEP1	QUANT	3.00000E+002	Step 1 Time (s)
VSTEP2	POTEN	3.00000E-001	F	Step 2 Voltage (V)
TSTEP2	QUANT	1.00000E+000	Step 2 Time (s)
SAMPLETIME	QUANT	1.00000E-001	Sample Period (s)
DECIMATE	TOGGLE	T	Decimate
ILIMIT	QUANT	1.00000E+000	Limit I (mA/cm^2)
IMODE	SELECTOR	1	I/E Range Mode
IRANGE	QUANT	3.00000E-001	Max Current (mA)
EQDELAY	QUANT	5.00000E+000	Equil. Time (s)
SAMPLINGMODE	SELECTOR	1	Sampling Mode
AREA	QUANT	1.00000E+000	Sample Area (cm^2)
IRCOMP	SELECTOR	0	IRComp
PFCOR	QUANT	5.00000E+001	PF Corr. (ohm)
SEQUENCER	TOGGLE	TRUE	Run as Sequence
PSTATMODEL	IQUANT	64	Pstat Model
PSTATSECTION	LABEL	IFC1010-21051	Pstat Section
PSTATSERIALNO	LABEL	21051	Pstat Serial Number
CTRLMODE	IQUANT	1	Control Mode
ELECTROMETER	IQUANT	0	RE=0 or CS=1
IESTAB	IQUANT	0	I/E Stability
CASPEED	IQUANT	4	Control Amp Speed
CONVENTION	IQUANT	1	Current Convention
ICHRANGE	IQUANT	2	Ich Range
ICHRANGEMODE	TOGGLE	T	Ich Auto Range
ICHOFFSETENABLE	TOGGLE	F	Ich Offset Enable
ICHOFFSET	QUANT	0	Ich Offset (V)
ICHFILTER	IQUANT	3	Ich Filter
VCHRANGE	IQUANT	3	Vch Range
VCHRANGEMODE	TOGGLE	T	Vch Auto Range
VCHOFFSETENABLE	TOGGLE	F	Vch Offset Enable
VCHOFFSET	QUANT	0	Vch Offset (V)
VCHFILTER	IQUANT	3	Vch Filter
IERANGELOWERLIMIT	IQUANT	4	I/E Range Lower Limit
IERANGEMODE	TOGGLE	F	I/E AutoRange
IERANGE	IQUANT	9	I/E Range
ACHSELECT	IQUANT	0	Ach Select
ACHRANGE	IQUANT	2	Ach Range
ACHOFFSETENABLE	TOGGLE	F	Ach Offset Enable
ACHOFFSET	QUANT	0	Ach Offset (V)
ACHFILTER	IQUANT	1	Ach Filter
SENSECABLEID	IQUANT	14	Sense Cable ID
PWRCABLEID	IQUANT	14	Power Cable ID
DCCALDATE	LABEL	10/1/2020	DC Calibration Date
ACCALDATE	LABEL	4/2/2018	AC Calibration Date
FRAMEWORKVERSION	QUANT	7.06	Framework Version
INSTRUMENTVERSION	LABEL	4.30	Instrument Version
CURVE	TABLE	98
	Pt	T	Vf	Im	Vu	Sig	Ach	IERange	Over	Temp
	#	s	V vs. Ref.	A	V	V	V	#	bits	deg C
	0	-0.4	3.00182E-001	6.15258E-006	0.00000E+000	3.00072E-001	0.00000E+000	9	...........	1425.25
	1	-0.3	3.00472E-001	6.06566E-006	0.00000E+000	3.00072E-001	0.00000E+000	9	...........	1425.25
	2	-0.2	3.00470E-001	5.99258E-006	0.00000E+000	3.00072E-001	0.00000E+000	9	...........	1425.25
	3	-0.1	3.00474E-001	5.92161E-006	0.00000E+000	3.00072E-001	0.00000E+000	9	...........	1425.25
	4	0	3.00472E-001	5.85954E-006	0.00000E+000	3.00072E-001	0.00000E+000	9	...........	1425.25
	5	0.1	4.00512E-001	3.88189E-004	0.00000E+000	4.00072E-001	0.00000E+000	9	...........	1425.25
	6	0.2	4.00514E-001	3.13955E-004	0.00000E+000	4.00072E-001	0.00000E+000	9	...........	1425.25
	7	0.3	4.00511E-001	2.66129E-004	0.00000E+000	4.00072E-001	0.00000E+000	9	...........	1425.25
	8	0.4	4.00521E-001	2.31822E-004	0.00000E+000	4.00072E-001	0.00000E+000	9	...........	1425.25
	9	0.5	4.00539E-001	2.05842E-004	0.00000E+000	4.00072E-001	0.00000E+000	9	...........	1425.25
	10	0.6	4.00531E-001	1.85409E-004	0.00000E+000	4.00072E-001	0.00000E+000	9	...........	1425.25
	11	0.7	4.00515E-001	1.68872E-004	0.00000E+000	4.00072E-001	0.00000E+000	9	...........	1425.25
	12	0.8	4.00519E-001	1.55149E-004	0.00000E+000	4.00072E-001	0.00000E+000	9	...........	1425.25
	13	0.9	4.00513E-001	1.43596E-004	0.00000E+000	4.00072E-001	0.00000E+000	9	...........	1425.16
	14	1	4.00511E-001	1.33736E-004	0.00000E+000	4.00072E-001	0.00000E+000	9	...........	1425.16
	15	1.1	4.00523E-001	1.25297E-004	0.00000E+000	4.00072E-001	0.00000E+000	9	...........	1425.16
	16	1.2	4.00514E-001	1.17990E-004	0.00000E+000	4.00072E-001	0.00000E+000	9	...........	1425.16
	17	1.3	4.00513E-001	1.11573E-004	0.00000E+000	4.00072E-001	0.00000E+000	9	...........	1425.16
	18	1.4	4.00519E-001	1.05934E-004	0.00000E+000	4.00072E-001	0.00000E+000	9	...........	1425.16
	19	1.5	4.00532E-001	1.00911E-004	0.00000E+000	4.00072E-001	0.00000E+000	9	...........	1425.16
	20	1.6	4.00526E-001	9.63992E-005	0.00000E+000	4.00072E-001	0.00000E+000	9	...........	1425.16
	21	1.7	4.00511E-001	9.24092E-005	0.00000E+000	4.00072E-001	0.00000E+000	9	...........	1425.16
	22	1.8	4.00510E-001	8.87932E-005	0.00000E+000	4.00072E-001	0.00000E+000	9	...........	1425.16
	23	1.9	4.00525E-001	8.54814E-005	0.00000E+000	4.00072E-001	0.00000E+000	9	...........	1425.16
	24	2	4.00509E-001	8.25219E-005	0.00000E+000	4.00072E-001	0.00000E+000	9	...........	1425.16
	25	2.1	4.00504E-001	7.97823E-005	0.00000E+000	4.00072E-001	0.00000E+000	9	...........	1425.16
	26	2.2	4.00514E-001	7.72456E-005	0.00000E+000	4.00072E-001	0.00000E+000	9	...........	1425.16
	27	2.3	4.00519E-001	7.49427E-005	0.00000E+000	4.00072E-001	0.00000E+000	9	...........	1425.16
	28	2.4	4.00526E-001	7.28063E-005	0.00000E+000	4.00072E-001	0.00000E+000	9	...........	1425.16
	29	2.5	4.00518E-001	7.07779E-005	0.00000E+000	4.00072E-001	0.00000E+000	9	...........	1425.16
	30	2.6	4.00509E-001	6.89484E-005	0.00000E+000	4.00072E-001	0.00000E+000	9	...........	1425.16
	31	2.7	4.00525E-001	6.72376E-005	0.00000E+000	4.00072E-001	0.00000E+000	9	...........	1425.16
	32	2.8	4.00513E-001	6.56492E-005	0.00000E+000	4.00072E-001	0.00000E+000	9	...........	1425.16
	33	2.9	4.00512E-001	6.41172E-005	0.00000E+000	4.00072E-001	0.00000E+000	9	...........	1425.07
	34	3	4.00516E-001	6.27114E-005	0.00000E+000	4.00072E-001	0.00000E+000	9	...........	1425.07
	35	3.1	4.00512E-001	6.13508E-005	0.00000E+000	4.00072E-001	0.00000E+000	9	...........	1425.07
	36	3.2	4.00522E-001	6.01232E-005	0.00000E+000	4.00072E-001	0.00000E+000	9	...........	1425.07
	37	3.3	4.00520E-001	5.89245E-005	0.00000E+000	4.00072E-001	0.00000E+000	9	...........	1425.07
	38	3.4	4.00523E-001	5.77660E-005	0.00000E+000	4.00072E-001	0.00000E+000	9	...........	1425.07
	39	3.5	4.00524E-001	5.67139E-005	0.00000E+000	4.00072E-001	0.00000E+000	9	...........	1425.07
	40	3.6	4.00524E-001	5.56942E-005	0.00000E+000	4.00072E-001	0.00000E+000	9	...........	1425.07
	41	3.7	4.00518E-001	5.47339E-005	0.00000E+000	4.00072E-001	0.00000E+000	9	...........	1425.07
	42	3.8	4.00510E-001	5.37583E-005	0.00000E+000	4.00072E-001	0.00000E+000	9	...........	1425.07
	43	3.9	4.00508E-001	5.29271E-005	0.00000E+000	4.00072E-001	0.00000E+000	9	...........	1425.16
	44	4	4.00516E-001	5.21136E-005	0.00000E+000	4.00072E-001	0.00000E+000	9	...........	1425.16
	45	4.1	4.00526E-001	5.12903E-005	0.00000E+000	4.00072E-001	0.00000E+000	9	...........	1425.16
	46	4.2	4.00516E-001	5.05356E-005	0.00000E+000	4.00072E-001	0.00000E+000	9	...........	1425.16
	47	4.3	4.00526E-001	4.97708E-005	0.00000E+000	4.00072E-001	0.00000E+000	9	...........	1425.16
	48	4.4	4.00513E-001	4.90598E-005	0.00000E+000	4.00072E-001	0.00000E+000	9	...........	1425.16
	49	4.5	4.00519E-001	4.83862E-005	0.00000E+000	4.00072E-001	0.00000E+000	9	...........	1425.16
	50	4.6	4.00521E-001	4.77520E-005	0.00000E+000	4.00072E-001	0.00000E+000	9	...........	1425.16
	51	4.7	4.00519E-001	4.71308E-005	0.00000E+000	4.00072E-001	0.00000E+000	9	...........	1425.16
	52	4.8	4.00517E-001	4.65458E-005	0.00000E+000	4.00072E-001	0.00000E+000	9	...........	1425.16
	53	4.9	4.00532E-001	4.59012E-005	0.00000E+000	4.00072E-001	0.00000E+000	9	...........	1425.16
	54	5	4.00531E-001	4.53886E-005	0.00000E+000	4.00072E-001	0.00000E+000	9	...........	1425.16
	55	5.1	4.00520E-001	4.48537E-005	0.00000E+000	4.00072E-001	0.00000E+000	9	...........	1425.16
	56	5.2	4.00517E-001	4.43356E-005	0.00000E+000	4.00072E-001	0.00000E+000	9	...........	1425.16
	57	5.3	4.00525E-001	4.38236E-005	0.00000E+000	4.00072E-001	0.00000E+000	9	...........	1425.16
	58	5.4	4.00521E-001	4.33470E-005	0.00000E+000	4.00072E-001	0.00000E+000	9	...........	1425.16
	59	5.5	4.00522E-001	4.28852E-005	0.00000E+000	4.00072E-001	0.00000E+000	9	...........	1425.16
	60	5.6	4.00520E-001	4.24082E-005	0.00000E+000	4.00072E-001	0.00000E+000	9	...........	1425.16
	61	5.7	4.00533E-001	4.19535E-005	0.00000E+000	4.00072E-001	0.00000E+000	9	...........	1425.16
	62	5.8	4.00528E-001	4.15365E-005	0.00000E+000	4.00072E-001	0.00000E+000	9	...........	1425.16
	63	5.9	4.00516E-001	4.11313E-005	0.00000E+000	4.00072E-001	0.00000E+000	9	...........	1425.07
	64	6	4.00515E-001	4.07517E-005	0.00000E+000	4.00072E-001	0.00000E+000	9	...........	1425.07
	65	6.1	4.00523E-001	4.03506E-005	0.00000E+000	4.00072E-001	0.00000E+000	9	...........	1425.07
	66	7.1	4.00510E-001	3.70006E-005	0.00000E+000	4.00072E-001	0.00000E+000	9	...........	1425.16
	67	8.1	4.00524E-001	3.43934E-005	0.00000E+000	4.00072E-001	0.00000E+000	9	...........	1425.07
	68	9.1	4.00514E-001	3.22909E-005	0.00000E+000	4.00072E-001	0.00000E+000	9	...........	1425.16
	69	10.1	4.00521E-001	3.05893E-005	0.00000E+000	4.00072E-001	0.00000E+000	9	...........	1425.16
	70	11.1	4.00518E-001	2.91716E-005	0.00000E+000	4.00072E-001	0.00000E+000	9	...........	1425.16
	71	12.1	4.00521E-001	2.78653E-005	0.00000E+000	4.00072E-001	0.00000E+000	9	...........	1425.16
	72	13.1	4.00519E-001	2.67805E-005	0.00000E+000	4.00072E-001	0.00000E+000	9	...........	1425.16
	73	14.1	4.00517E-001	2.57885E-005	0.00000E+000	4.00072E-001	0.00000E+000	9	...........	1425.16
	74	15.1	4.00527E-001	2.48534E-005	0.00000E+000	4.00072E-001	0.00000E+000	9	...........	1425.25
	75	16.1	4.00512E-001	2.41065E-005	0.00000E+000	4.00072E-001	0.00000E+000	9	...........	1425.16
	76	26.1	4.00533E-001	1.92737E-005	0.00000E+000	4.00072E-001	0.00000E+000	9	...........	1425.16
	77	36.1	4.00520E-001	1.71307E-005	0.00000E+000	4.00072E-001	0.00000E+000	9	...........	1425.25
	78	46.1	4.00510E-001	1.58741E-005	0.00000E+000	4.00072E-001	0.00000E+000	9	...........	1425.16
	79	56.1	4.00520E-001	1.49213E-005	0.00000E+000	4.00072E-001	0.00000E+000	9	...........	1425.25
	80	66.1	4.00522E-001	1.42452E-005	0.00000E+000	4.00072E-001	0.00000E+000	9	...........	1425.25
	81	76.1	4.00528E-001	1.37708E-005	0.00000E+000	4.00072E-001	0.00000E+000	9	...........	1425.25
	82	86.1	4.00515E-001	1.33894E-005	0.00000E+000	4.00072E-001	0.00000E+000	9	...........	1425.25
	83	96.1	4.00514E-001	1.32359E-005	0.00000E+000	4.00072E-001	0.00000E+000	9	...........	1425.16
	84	106.1	4.00516E-001	1.32000E-005	0.00000E+000	4.00072E-001	0.00000E+000	9	...........	1425.25
	85	116.1	4.00519E-001	1.29604E-005	0.00000E+000	4.00072E-001	0.00000E+000	9	...........	1425.25
	86	216.1	4.00516E-001	1.27521E-005	0.00000E+000	4.00072E-001	0.00000E+000	9	...........	1425.25
	87	300	4.00528E-001	1.25437E-005	0.00000E+000	4.00072E-001	0.00000E+000	9	...........	1425.16
	88	300.1	3.00484E-001	-3.90466E-004	0.00000E+000	3.00072E-001	0.00000E+000	9	...........	1425.16
	89	300.2	3.00470E-001	-3.33815E-004	0.00000E+000	3.00072E-001	0.00000E+000	9	...........	1425.16
	90	300.3	3.00480E-001	-2.91003E-004	0.00000E+000	3.00072E-001	0.00000E+000	9	...........	1425.16
	91	300.4	3.00471E-001	-2.56153E-004	0.00000E+000	3.00072E-001	0.00000E+000	9	...........	1425.16
	92	300.5	3.00473E-001	-2.27024E-004	0.00000E+000	3.00072E-001	0.00000E+000	9	...........	1425.16
	93	300.6	3.00469E-001	-2.02360E-004	0.00000E+000	3.00072E-001	0.00000E+000	9	...........	1425.16
	94	300.7	3.00464E-001	-1.81366E-004	0.00000E+000	3.00072E-001	0.00000E+000	9	...........	1425.16
	95	300.8	3.00467E-001	-1.63341E-004	0.00000E+000	3.00072E-001	0.00000E+000	9	...........	1425.16
	96	300.9	3.00477E-001	-1.47883E-004	0.00000E+000	3.00072E-001	0.00000E+000	9	...........	1425.25
	97	301	3.00471E-001	-1.34541E-004	0.00000E+000	3.00072E-001	0.00000E+000	9	...........	1425.25
