EXPLAIN
TAG	CHRONOA
TITLE	LABEL	Chronoamperometry Scan	Test Identifier
DATE	LABEL	17/12/2021	Date
TIME	LABEL	15:26:44	Time
NOTES	NOTES	1	Notes...
	
PSTAT	PSTAT	IFC1010-21051	Potentiostat
VPRESTEP	POTEN	3.00000E-001	F	Pre-step Voltage (V)
TPRESTEP	QUANT	5.00000E-001	Pre-step Delay Time (s)
VSTEP1	POTEN	4.00000E-001	F	Step 1 Voltage (V)
TSTEP1	QUANT	3.00000E+002	Step 1 Time (s)
VSTEP2	POTEN	3.00000E-001	F	Step 2 Voltage (V)
TSTEP2	QUANT	1.00000E+000	Step 2 Time (s)
SAMPLETIME	QUANT	1.00000E-001	Sample Period (s)
DECIMATE	TOGGLE	T	Decimate
ILIMIT	QUANT	1.00000E+000	Limit I (mA/cm^2)
IMODE	SELECTOR	1	I/E Range Mode
IRANGE	QUANT	3.00000E-001	Max Current (mA)
EQDELAY	QUANT	5.00000E+000	Equil. Time (s)
SAMPLINGMODE	SELECTOR	1	Sampling Mode
AREA	QUANT	1.00000E+000	Sample Area (cm^2)
IRCOMP	SELECTOR	0	IRComp
PFCOR	QUANT	5.00000E+001	PF Corr. (ohm)
SEQUENCER	TOGGLE	TRUE	Run as Sequence
PSTATMODEL	IQUANT	64	Pstat Model
PSTATSECTION	LABEL	IFC1010-21051	Pstat Section
PSTATSERIALNO	LABEL	21051	Pstat Serial Number
CTRLMODE	IQUANT	1	Control Mode
ELECTROMETER	IQUANT	0	RE=0 or CS=1
IESTAB	IQUANT	0	I/E Stability
CASPEED	IQUANT	4	Control Amp Speed
CONVENTION	IQUANT	1	Current Convention
ICHRANGE	IQUANT	2	Ich Range
ICHRANGEMODE	TOGGLE	T	Ich Auto Range
ICHOFFSETENABLE	TOGGLE	F	Ich Offset Enable
ICHOFFSET	QUANT	0	Ich Offset (V)
ICHFILTER	IQUANT	3	Ich Filter
VCHRANGE	IQUANT	3	Vch Range
VCHRANGEMODE	TOGGLE	T	Vch Auto Range
VCHOFFSETENABLE	TOGGLE	F	Vch Offset Enable
VCHOFFSET	QUANT	0	Vch Offset (V)
VCHFILTER	IQUANT	3	Vch Filter
IERANGELOWERLIMIT	IQUANT	4	I/E Range Lower Limit
IERANGEMODE	TOGGLE	F	I/E AutoRange
IERANGE	IQUANT	9	I/E Range
ACHSELECT	IQUANT	0	Ach Select
ACHRANGE	IQUANT	2	Ach Range
ACHOFFSETENABLE	TOGGLE	F	Ach Offset Enable
ACHOFFSET	QUANT	0	Ach Offset (V)
ACHFILTER	IQUANT	1	Ach Filter
SENSECABLEID	IQUANT	14	Sense Cable ID
PWRCABLEID	IQUANT	14	Power Cable ID
DCCALDATE	LABEL	10/1/2020	DC Calibration Date
ACCALDATE	LABEL	4/2/2018	AC Calibration Date
FRAMEWORKVERSION	QUANT	7.06	Framework Version
INSTRUMENTVERSION	LABEL	4.30	Instrument Version
CURVE	TABLE	98
	Pt	T	Vf	Im	Vu	Sig	Ach	IERange	Over	Temp
	#	s	V vs. Ref.	A	V	V	V	#	bits	deg C
	0	-0.4	3.00129E-001	1.98867E-005	0.00000E+000	3.00072E-001	0.00000E+000	9	...........	1426.13
	1	-0.3	3.00439E-001	1.97380E-005	0.00000E+000	3.00072E-001	0.00000E+000	9	...........	1426.13
	2	-0.2	3.00435E-001	1.96278E-005	0.00000E+000	3.00072E-001	0.00000E+000	9	...........	1426.13
	3	-0.1	3.00448E-001	1.95305E-005	0.00000E+000	3.00072E-001	0.00000E+000	9	...........	1426.13
	4	0	3.00456E-001	1.93959E-005	0.00000E+000	3.00072E-001	0.00000E+000	9	...........	1426.13
	5	0.1	4.00492E-001	4.45139E-004	0.00000E+000	4.00072E-001	0.00000E+000	9	...........	1426.13
	6	0.2	4.00489E-001	4.06785E-004	0.00000E+000	4.00072E-001	0.00000E+000	9	...........	1426.13
	7	0.3	4.00491E-001	3.75245E-004	0.00000E+000	4.00072E-001	0.00000E+000	9	...........	1426.13
	8	0.4	4.00478E-001	3.44294E-004	0.00000E+000	4.00072E-001	0.00000E+000	9	...........	1426.13
	9	0.5	4.00492E-001	3.17946E-004	0.00000E+000	4.00072E-001	0.00000E+000	9	...........	1426.13
	10	0.6	4.00490E-001	2.96229E-004	0.00000E+000	4.00072E-001	0.00000E+000	9	...........	1426.13
	11	0.7	4.00486E-001	2.78073E-004	0.00000E+000	4.00072E-001	0.00000E+000	9	...........	1426.13
	12	0.8	4.00484E-001	2.62758E-004	0.00000E+000	4.00072E-001	0.00000E+000	9	...........	1426.13
	13	0.9	4.00491E-001	2.49495E-004	0.00000E+000	4.00072E-001	0.00000E+000	9	...........	1426.13
	14	1	4.00486E-001	2.37960E-004	0.00000E+000	4.00072E-001	0.00000E+000	9	...........	1426.04
	15	1.1	4.00488E-001	2.27742E-004	0.00000E+000	4.00072E-001	0.00000E+000	9	...........	1426.04
	16	1.2	4.00489E-001	2.18688E-004	0.00000E+000	4.00072E-001	0.00000E+000	9	...........	1426.04
	17	1.3	4.00488E-001	2.10549E-004	0.00000E+000	4.00072E-001	0.00000E+000	9	...........	1426.04
	18	1.4	4.00493E-001	2.03215E-004	0.00000E+000	4.00072E-001	0.00000E+000	9	...........	1426.04
	19	1.5	4.00485E-001	1.96470E-004	0.00000E+000	4.00072E-001	0.00000E+000	9	...........	1426.04
	20	1.6	4.00481E-001	1.90439E-004	0.00000E+000	4.00072E-001	0.00000E+000	9	...........	1426.04
	21	1.7	4.00484E-001	1.84830E-004	0.00000E+000	4.00072E-001	0.00000E+000	9	...........	1426.04
	22	1.8	4.00487E-001	1.79694E-004	0.00000E+000	4.00072E-001	0.00000E+000	9	...........	1426.04
	23	1.9	4.00495E-001	1.74910E-004	0.00000E+000	4.00072E-001	0.00000E+000	9	...........	1426.04
	24	2	4.00493E-001	1.70479E-004	0.00000E+000	4.00072E-001	0.00000E+000	9	...........	1425.95
	25	2.1	4.00492E-001	1.66332E-004	0.00000E+000	4.00072E-001	0.00000E+000	9	...........	1425.95
	26	2.2	4.00470E-001	1.62430E-004	0.00000E+000	4.00072E-001	0.00000E+000	9	...........	1425.95
	27	2.3	4.00484E-001	1.58857E-004	0.00000E+000	4.00072E-001	0.00000E+000	9	...........	1425.95
	28	2.4	4.00492E-001	1.55416E-004	0.00000E+000	4.00072E-001	0.00000E+000	9	...........	1425.95
	29	2.5	4.00487E-001	1.52214E-004	0.00000E+000	4.00072E-001	0.00000E+000	9	...........	1425.95
	30	2.6	4.00497E-001	1.49127E-004	0.00000E+000	4.00072E-001	0.00000E+000	9	...........	1425.95
	31	2.7	4.00481E-001	1.46259E-004	0.00000E+000	4.00072E-001	0.00000E+000	9	...........	1425.95
	32	2.8	4.00475E-001	1.43524E-004	0.00000E+000	4.00072E-001	0.00000E+000	9	...........	1425.95
	33	2.9	4.00489E-001	1.40919E-004	0.00000E+000	4.00072E-001	0.00000E+000	9	...........	1425.95
	34	3	4.00485E-001	1.38459E-004	0.00000E+000	4.00072E-001	0.00000E+000	9	...........	1425.95
	35	3.1	4.00505E-001	1.36077E-004	0.00000E+000	4.00072E-001	0.00000E+000	9	...........	1425.95
	36	3.2	4.00494E-001	1.33772E-004	0.00000E+000	4.00072E-001	0.00000E+000	9	...........	1425.95
	37	3.3	4.00498E-001	1.31639E-004	0.00000E+000	4.00072E-001	0.00000E+000	9	...........	1425.95
	38	3.4	4.00494E-001	1.29588E-004	0.00000E+000	4.00072E-001	0.00000E+000	9	...........	1425.95
	39	3.5	4.00491E-001	1.27577E-004	0.00000E+000	4.00072E-001	0.00000E+000	9	...........	1425.95
	40	3.6	4.00489E-001	1.25693E-004	0.00000E+000	4.00072E-001	0.00000E+000	9	...........	1425.95
	41	3.7	4.00487E-001	1.23836E-004	0.00000E+000	4.00072E-001	0.00000E+000	9	...........	1425.95
	42	3.8	4.00479E-001	1.22068E-004	0.00000E+000	4.00072E-001	0.00000E+000	9	...........	1425.95
	43	3.9	4.00489E-001	1.20381E-004	0.00000E+000	4.00072E-001	0.00000E+000	9	...........	1425.95
	44	4	4.00489E-001	1.18758E-004	0.00000E+000	4.00072E-001	0.00000E+000	9	...........	1426.04
	45	4.1	4.00485E-001	1.17111E-004	0.00000E+000	4.00072E-001	0.00000E+000	9	...........	1426.04
	46	4.2	4.00486E-001	1.15626E-004	0.00000E+000	4.00072E-001	0.00000E+000	9	...........	1426.04
	47	4.3	4.00484E-001	1.14133E-004	0.00000E+000	4.00072E-001	0.00000E+000	9	...........	1426.04
	48	4.4	4.00506E-001	1.12716E-004	0.00000E+000	4.00072E-001	0.00000E+000	9	...........	1426.04
	49	4.5	4.00490E-001	1.11364E-004	0.00000E+000	4.00072E-001	0.00000E+000	9	...........	1426.04
	50	4.6	4.00487E-001	1.10004E-004	0.00000E+000	4.00072E-001	0.00000E+000	9	...........	1426.04
	51	4.7	4.00485E-001	1.08689E-004	0.00000E+000	4.00072E-001	0.00000E+000	9	...........	1426.04
	52	4.8	4.00489E-001	1.07412E-004	0.00000E+000	4.00072E-001	0.00000E+000	9	...........	1426.04
	53	4.9	4.00489E-001	1.06228E-004	0.00000E+000	4.00072E-001	0.00000E+000	9	...........	1426.04
	54	5	4.00502E-001	1.05052E-004	0.00000E+000	4.00072E-001	0.00000E+000	9	...........	1425.95
	55	5.1	4.00490E-001	1.03875E-004	0.00000E+000	4.00072E-001	0.00000E+000	9	...........	1425.95
	56	5.2	4.00489E-001	1.02738E-004	0.00000E+000	4.00072E-001	0.00000E+000	9	...........	1425.95
	57	5.3	4.00494E-001	1.01662E-004	0.00000E+000	4.00072E-001	0.00000E+000	9	...........	1425.95
	58	5.4	4.00496E-001	1.00576E-004	0.00000E+000	4.00072E-001	0.00000E+000	9	...........	1425.95
	59	5.5	4.00490E-001	9.95624E-005	0.00000E+000	4.00072E-001	0.00000E+000	9	...........	1425.95
	60	5.6	4.00493E-001	9.85455E-005	0.00000E+000	4.00072E-001	0.00000E+000	9	...........	1425.95
	61	5.7	4.00501E-001	9.76285E-005	0.00000E+000	4.00072E-001	0.00000E+000	9	...........	1425.95
	62	5.8	4.00499E-001	9.66623E-005	0.00000E+000	4.00072E-001	0.00000E+000	9	...........	1425.95
	63	5.9	4.00496E-001	9.57014E-005	0.00000E+000	4.00072E-001	0.00000E+000	9	...........	1425.95
	64	6	4.00501E-001	9.47561E-005	0.00000E+000	4.00072E-001	0.00000E+000	9	...........	1426.13
	65	6.1	4.00487E-001	9.38458E-005	0.00000E+000	4.00072E-001	0.00000E+000	9	...........	1426.13
	66	7.1	4.00499E-001	8.60031E-005	0.00000E+000	4.00072E-001	0.00000E+000	9	...........	1426.04
	67	8.1	4.00491E-001	7.96185E-005	0.00000E+000	4.00072E-001	0.00000E+000	9	...........	1426.13
	68	9.1	4.00493E-001	7.43386E-005	0.00000E+000	4.00072E-001	0.00000E+000	9	...........	1426.13
	69	10.1	4.00474E-001	6.98483E-005	0.00000E+000	4.00072E-001	0.00000E+000	9	...........	1426.13
	70	11.1	4.00475E-001	6.60650E-005	0.00000E+000	4.00072E-001	0.00000E+000	9	...........	1426.13
	71	12.1	4.00499E-001	6.26945E-005	0.00000E+000	4.00072E-001	0.00000E+000	9	...........	1426.13
	72	13.1	4.00496E-001	5.97388E-005	0.00000E+000	4.00072E-001	0.00000E+000	9	...........	1426.13
	73	14.1	4.00491E-001	5.71415E-005	0.00000E+000	4.00072E-001	0.00000E+000	9	...........	1426.13
	74	15.1	4.00483E-001	5.48216E-005	0.00000E+000	4.00072E-001	0.00000E+000	9	...........	1426.13
	75	16.1	4.00491E-001	5.27444E-005	0.00000E+000	4.00072E-001	0.00000E+000	9	...........	1426.13
	76	26.1	4.00492E-001	4.00069E-005	0.00000E+000	4.00072E-001	0.00000E+000	9	...........	1426.13
	77	36.1	4.00485E-001	3.35706E-005	0.00000E+000	4.00072E-001	0.00000E+000	9	...........	1426.13
	78	46.1	4.00483E-001	2.97818E-005	0.00000E+000	4.00072E-001	0.00000E+000	9	...........	1426.13
	79	56.1	4.00500E-001	2.71891E-005	0.00000E+000	4.00072E-001	0.00000E+000	9	...........	1426.13
	80	66.1	4.00487E-001	2.56113E-005	0.00000E+000	4.00072E-001	0.00000E+000	9	...........	1426.13
	81	76.1	4.00498E-001	2.43028E-005	0.00000E+000	4.00072E-001	0.00000E+000	9	...........	1426.13
	82	86.1	4.00483E-001	2.33418E-005	0.00000E+000	4.00072E-001	0.00000E+000	9	...........	1426.13
	83	96.1	4.00486E-001	2.28175E-005	0.00000E+000	4.00072E-001	0.00000E+000	9	...........	1426.13
	84	106.1	4.00489E-001	2.20688E-005	0.00000E+000	4.00072E-001	0.00000E+000	9	...........	1426.13
	85	116.1	4.00483E-001	2.16257E-005	0.00000E+000	4.00072E-001	0.00000E+000	9	...........	1426.13
	86	216.1	4.00500E-001	1.87338E-005	0.00000E+000	4.00072E-001	0.00000E+000	9	...........	1426.13
	87	300	4.00495E-001	1.77937E-005	0.00000E+000	4.00072E-001	0.00000E+000	9	...........	1426.13
	88	300.1	3.00446E-001	-3.90140E-004	0.00000E+000	3.00072E-001	0.00000E+000	9	...........	1426.13
	89	300.2	3.00435E-001	-3.08066E-004	0.00000E+000	3.00072E-001	0.00000E+000	9	...........	1426.13
	90	300.3	3.00438E-001	-2.52980E-004	0.00000E+000	3.00072E-001	0.00000E+000	9	...........	1426.13
	91	300.4	3.00437E-001	-2.12495E-004	0.00000E+000	3.00072E-001	0.00000E+000	9	...........	1426.13
	92	300.5	3.00428E-001	-1.81627E-004	0.00000E+000	3.00072E-001	0.00000E+000	9	...........	1426.13
	93	300.6	3.00441E-001	-1.57738E-004	0.00000E+000	3.00072E-001	0.00000E+000	9	...........	1426.13
	94	300.7	3.00443E-001	-1.38908E-004	0.00000E+000	3.00072E-001	0.00000E+000	9	...........	1426.13
	95	300.8	3.00440E-001	-1.23909E-004	0.00000E+000	3.00072E-001	0.00000E+000	9	...........	1426.13
	96	300.9	3.00457E-001	-1.11789E-004	0.00000E+000	3.00072E-001	0.00000E+000	9	...........	1426.13
	97	301	3.00438E-001	-1.01888E-004	0.00000E+000	3.00072E-001	0.00000E+000	9	...........	1426.13
