EXPLAIN
TAG	CHRONOA
TITLE	LABEL	Chronoamperometry Scan	Test Identifier
DATE	LABEL	17/12/2021	Date
TIME	LABEL	12:46:04	Time
NOTES	NOTES	1	Notes...
	
PSTAT	PSTAT	IFC1010-21051	Potentiostat
VPRESTEP	POTEN	-3.00000E-001	F	Pre-step Voltage (V)
TPRESTEP	QUANT	5.00000E-001	Pre-step Delay Time (s)
VSTEP1	POTEN	-4.00000E-001	F	Step 1 Voltage (V)
TSTEP1	QUANT	3.00000E+002	Step 1 Time (s)
VSTEP2	POTEN	-5.00000E-001	F	Step 2 Voltage (V)
TSTEP2	QUANT	1.00000E+000	Step 2 Time (s)
SAMPLETIME	QUANT	1.00000E-001	Sample Period (s)
DECIMATE	TOGGLE	T	Decimate
ILIMIT	QUANT	1.00000E+000	Limit I (mA/cm^2)
IMODE	SELECTOR	1	I/E Range Mode
IRANGE	QUANT	3.00000E-001	Max Current (mA)
EQDELAY	QUANT	5.00000E+000	Equil. Time (s)
SAMPLINGMODE	SELECTOR	1	Sampling Mode
AREA	QUANT	1.00000E+000	Sample Area (cm^2)
IRCOMP	SELECTOR	0	IRComp
PFCOR	QUANT	5.00000E+001	PF Corr. (ohm)
SEQUENCER	TOGGLE	TRUE	Run as Sequence
PSTATMODEL	IQUANT	64	Pstat Model
PSTATSECTION	LABEL	IFC1010-21051	Pstat Section
PSTATSERIALNO	LABEL	21051	Pstat Serial Number
CTRLMODE	IQUANT	1	Control Mode
ELECTROMETER	IQUANT	0	RE=0 or CS=1
IESTAB	IQUANT	0	I/E Stability
CASPEED	IQUANT	4	Control Amp Speed
CONVENTION	IQUANT	1	Current Convention
ICHRANGE	IQUANT	2	Ich Range
ICHRANGEMODE	TOGGLE	T	Ich Auto Range
ICHOFFSETENABLE	TOGGLE	F	Ich Offset Enable
ICHOFFSET	QUANT	0	Ich Offset (V)
ICHFILTER	IQUANT	3	Ich Filter
VCHRANGE	IQUANT	3	Vch Range
VCHRANGEMODE	TOGGLE	T	Vch Auto Range
VCHOFFSETENABLE	TOGGLE	F	Vch Offset Enable
VCHOFFSET	QUANT	0	Vch Offset (V)
VCHFILTER	IQUANT	3	Vch Filter
IERANGELOWERLIMIT	IQUANT	4	I/E Range Lower Limit
IERANGEMODE	TOGGLE	F	I/E AutoRange
IERANGE	IQUANT	9	I/E Range
ACHSELECT	IQUANT	0	Ach Select
ACHRANGE	IQUANT	2	Ach Range
ACHOFFSETENABLE	TOGGLE	F	Ach Offset Enable
ACHOFFSET	QUANT	0	Ach Offset (V)
ACHFILTER	IQUANT	1	Ach Filter
SENSECABLEID	IQUANT	14	Sense Cable ID
PWRCABLEID	IQUANT	14	Power Cable ID
DCCALDATE	LABEL	10/1/2020	DC Calibration Date
ACCALDATE	LABEL	4/2/2018	AC Calibration Date
FRAMEWORKVERSION	QUANT	7.06	Framework Version
INSTRUMENTVERSION	LABEL	4.30	Instrument Version
CURVE	TABLE	98
	Pt	T	Vf	Im	Vu	Sig	Ach	IERange	Over	Temp
	#	s	V vs. Ref.	A	V	V	V	#	bits	deg C
	0	-0.4	-3.00678E-001	-6.25067E-005	0.00000E+000	-3.00011E-001	0.00000E+000	9	...........	1426.04
	1	-0.3	-3.00545E-001	-6.23490E-005	0.00000E+000	-3.00011E-001	0.00000E+000	9	...........	1426.04
	2	-0.2	-3.00537E-001	-6.21512E-005	0.00000E+000	-3.00011E-001	0.00000E+000	9	...........	1426.04
	3	-0.1	-3.00543E-001	-6.19933E-005	0.00000E+000	-3.00011E-001	0.00000E+000	9	...........	1426.04
	4	0	-3.00549E-001	-6.18679E-005	0.00000E+000	-3.00011E-001	0.00000E+000	9	...........	1426.04
	5	0.1	-4.00586E-001	-4.24395E-004	0.00000E+000	-4.00011E-001	0.00000E+000	9	...........	1426.04
	6	0.2	-4.00593E-001	-3.24979E-004	0.00000E+000	-4.00011E-001	0.00000E+000	9	...........	1426.04
	7	0.3	-4.00585E-001	-2.66136E-004	0.00000E+000	-4.00011E-001	0.00000E+000	9	...........	1426.04
	8	0.4	-4.00577E-001	-2.29952E-004	0.00000E+000	-4.00011E-001	0.00000E+000	9	...........	1426.04
	9	0.5	-4.00587E-001	-2.06169E-004	0.00000E+000	-4.00011E-001	0.00000E+000	9	...........	1426.04
	10	0.6	-4.00589E-001	-1.89599E-004	0.00000E+000	-4.00011E-001	0.00000E+000	9	...........	1425.95
	11	0.7	-4.00587E-001	-1.77630E-004	0.00000E+000	-4.00011E-001	0.00000E+000	9	...........	1425.95
	12	0.8	-4.00583E-001	-1.68549E-004	0.00000E+000	-4.00011E-001	0.00000E+000	9	...........	1425.95
	13	0.9	-4.00594E-001	-1.61470E-004	0.00000E+000	-4.00011E-001	0.00000E+000	9	...........	1425.95
	14	1	-4.00595E-001	-1.55826E-004	0.00000E+000	-4.00011E-001	0.00000E+000	9	...........	1425.95
	15	1.1	-4.00593E-001	-1.51178E-004	0.00000E+000	-4.00011E-001	0.00000E+000	9	...........	1425.95
	16	1.2	-4.00585E-001	-1.47251E-004	0.00000E+000	-4.00011E-001	0.00000E+000	9	...........	1425.95
	17	1.3	-4.00605E-001	-1.43885E-004	0.00000E+000	-4.00011E-001	0.00000E+000	9	...........	1425.95
	18	1.4	-4.00600E-001	-1.40958E-004	0.00000E+000	-4.00011E-001	0.00000E+000	9	...........	1425.95
	19	1.5	-4.00590E-001	-1.38382E-004	0.00000E+000	-4.00011E-001	0.00000E+000	9	...........	1425.95
	20	1.6	-4.00585E-001	-1.36067E-004	0.00000E+000	-4.00011E-001	0.00000E+000	9	...........	1425.87
	21	1.7	-4.00591E-001	-1.33944E-004	0.00000E+000	-4.00011E-001	0.00000E+000	9	...........	1425.87
	22	1.8	-4.00592E-001	-1.32061E-004	0.00000E+000	-4.00011E-001	0.00000E+000	9	...........	1425.87
	23	1.9	-4.00595E-001	-1.30280E-004	0.00000E+000	-4.00011E-001	0.00000E+000	9	...........	1425.87
	24	2	-4.00586E-001	-1.28673E-004	0.00000E+000	-4.00011E-001	0.00000E+000	9	...........	1425.87
	25	2.1	-4.00586E-001	-1.27180E-004	0.00000E+000	-4.00011E-001	0.00000E+000	9	...........	1425.87
	26	2.2	-4.00585E-001	-1.25800E-004	0.00000E+000	-4.00011E-001	0.00000E+000	9	...........	1425.87
	27	2.3	-4.00590E-001	-1.24498E-004	0.00000E+000	-4.00011E-001	0.00000E+000	9	...........	1425.87
	28	2.4	-4.00594E-001	-1.23277E-004	0.00000E+000	-4.00011E-001	0.00000E+000	9	...........	1425.87
	29	2.5	-4.00589E-001	-1.22097E-004	0.00000E+000	-4.00011E-001	0.00000E+000	9	...........	1425.87
	30	2.6	-4.00584E-001	-1.20981E-004	0.00000E+000	-4.00011E-001	0.00000E+000	9	...........	1425.87
	31	2.7	-4.00589E-001	-1.19974E-004	0.00000E+000	-4.00011E-001	0.00000E+000	9	...........	1425.87
	32	2.8	-4.00585E-001	-1.18949E-004	0.00000E+000	-4.00011E-001	0.00000E+000	9	...........	1425.87
	33	2.9	-4.00587E-001	-1.18043E-004	0.00000E+000	-4.00011E-001	0.00000E+000	9	...........	1425.87
	34	3	-4.00606E-001	-1.17175E-004	0.00000E+000	-4.00011E-001	0.00000E+000	9	...........	1425.87
	35	3.1	-4.00598E-001	-1.16286E-004	0.00000E+000	-4.00011E-001	0.00000E+000	9	...........	1425.87
	36	3.2	-4.00590E-001	-1.15461E-004	0.00000E+000	-4.00011E-001	0.00000E+000	9	...........	1425.87
	37	3.3	-4.00584E-001	-1.14649E-004	0.00000E+000	-4.00011E-001	0.00000E+000	9	...........	1425.87
	38	3.4	-4.00596E-001	-1.13909E-004	0.00000E+000	-4.00011E-001	0.00000E+000	9	...........	1425.87
	39	3.5	-4.00585E-001	-1.13167E-004	0.00000E+000	-4.00011E-001	0.00000E+000	9	...........	1425.87
	40	3.6	-4.00580E-001	-1.12434E-004	0.00000E+000	-4.00011E-001	0.00000E+000	9	...........	1425.87
	41	3.7	-4.00588E-001	-1.11777E-004	0.00000E+000	-4.00011E-001	0.00000E+000	9	...........	1425.87
	42	3.8	-4.00592E-001	-1.11140E-004	0.00000E+000	-4.00011E-001	0.00000E+000	9	...........	1425.87
	43	3.9	-4.00589E-001	-1.10519E-004	0.00000E+000	-4.00011E-001	0.00000E+000	9	...........	1425.87
	44	4	-4.00596E-001	-1.09937E-004	0.00000E+000	-4.00011E-001	0.00000E+000	9	...........	1425.87
	45	4.1	-4.00590E-001	-1.09315E-004	0.00000E+000	-4.00011E-001	0.00000E+000	9	...........	1425.87
	46	4.2	-4.00597E-001	-1.08781E-004	0.00000E+000	-4.00011E-001	0.00000E+000	9	...........	1425.87
	47	4.3	-4.00587E-001	-1.08230E-004	0.00000E+000	-4.00011E-001	0.00000E+000	9	...........	1425.87
	48	4.4	-4.00588E-001	-1.07726E-004	0.00000E+000	-4.00011E-001	0.00000E+000	9	...........	1425.87
	49	4.5	-4.00577E-001	-1.07187E-004	0.00000E+000	-4.00011E-001	0.00000E+000	9	...........	1425.87
	50	4.6	-4.00575E-001	-1.06702E-004	0.00000E+000	-4.00011E-001	0.00000E+000	9	...........	1425.87
	51	4.7	-4.00585E-001	-1.06215E-004	0.00000E+000	-4.00011E-001	0.00000E+000	9	...........	1425.87
	52	4.8	-4.00589E-001	-1.05723E-004	0.00000E+000	-4.00011E-001	0.00000E+000	9	...........	1425.87
	53	4.9	-4.00593E-001	-1.05263E-004	0.00000E+000	-4.00011E-001	0.00000E+000	9	...........	1425.87
	54	5	-4.00595E-001	-1.04848E-004	0.00000E+000	-4.00011E-001	0.00000E+000	9	...........	1425.87
	55	5.1	-4.00587E-001	-1.04402E-004	0.00000E+000	-4.00011E-001	0.00000E+000	9	...........	1425.87
	56	5.2	-4.00589E-001	-1.03998E-004	0.00000E+000	-4.00011E-001	0.00000E+000	9	...........	1425.87
	57	5.3	-4.00588E-001	-1.03581E-004	0.00000E+000	-4.00011E-001	0.00000E+000	9	...........	1425.87
	58	5.4	-4.00585E-001	-1.03181E-004	0.00000E+000	-4.00011E-001	0.00000E+000	9	...........	1425.87
	59	5.5	-4.00598E-001	-1.02790E-004	0.00000E+000	-4.00011E-001	0.00000E+000	9	...........	1425.87
	60	5.6	-4.00590E-001	-1.02376E-004	0.00000E+000	-4.00011E-001	0.00000E+000	9	...........	1425.87
	61	5.7	-4.00599E-001	-1.02046E-004	0.00000E+000	-4.00011E-001	0.00000E+000	9	...........	1425.87
	62	5.8	-4.00603E-001	-1.01649E-004	0.00000E+000	-4.00011E-001	0.00000E+000	9	...........	1425.87
	63	5.9	-4.00596E-001	-1.01273E-004	0.00000E+000	-4.00011E-001	0.00000E+000	9	...........	1425.87
	64	6	-4.00591E-001	-1.00935E-004	0.00000E+000	-4.00011E-001	0.00000E+000	9	...........	1425.87
	65	6.1	-4.00593E-001	-1.00545E-004	0.00000E+000	-4.00011E-001	0.00000E+000	9	...........	1425.87
	66	7.1	-4.00584E-001	-9.73542E-005	0.00000E+000	-4.00011E-001	0.00000E+000	9	...........	1425.87
	67	8.1	-4.00598E-001	-9.47271E-005	0.00000E+000	-4.00011E-001	0.00000E+000	9	...........	1425.87
	68	9.1	-4.00587E-001	-9.25559E-005	0.00000E+000	-4.00011E-001	0.00000E+000	9	...........	1425.95
	69	10.1	-4.00591E-001	-9.06562E-005	0.00000E+000	-4.00011E-001	0.00000E+000	9	...........	1425.95
	70	11.1	-4.00597E-001	-8.87763E-005	0.00000E+000	-4.00011E-001	0.00000E+000	9	...........	1425.95
	71	12.1	-4.00580E-001	-8.70377E-005	0.00000E+000	-4.00011E-001	0.00000E+000	9	...........	1425.95
	72	13.1	-4.00598E-001	-8.55976E-005	0.00000E+000	-4.00011E-001	0.00000E+000	9	...........	1425.95
	73	14.1	-4.00598E-001	-8.42179E-005	0.00000E+000	-4.00011E-001	0.00000E+000	9	...........	1425.95
	74	15.1	-4.00593E-001	-8.28061E-005	0.00000E+000	-4.00011E-001	0.00000E+000	9	...........	1426.04
	75	16.1	-4.00591E-001	-8.14531E-005	0.00000E+000	-4.00011E-001	0.00000E+000	9	...........	1425.95
	76	26.1	-4.00584E-001	-7.37733E-005	0.00000E+000	-4.00011E-001	0.00000E+000	9	...........	1426.04
	77	36.1	-4.00592E-001	-6.90408E-005	0.00000E+000	-4.00011E-001	0.00000E+000	9	...........	1426.04
	78	46.1	-4.00588E-001	-6.54980E-005	0.00000E+000	-4.00011E-001	0.00000E+000	9	...........	1425.95
	79	56.1	-4.00589E-001	-6.29427E-005	0.00000E+000	-4.00011E-001	0.00000E+000	9	...........	1426.04
	80	66.1	-4.00589E-001	-6.13412E-005	0.00000E+000	-4.00011E-001	0.00000E+000	9	...........	1426.04
	81	76.1	-4.00581E-001	-6.00780E-005	0.00000E+000	-4.00011E-001	0.00000E+000	9	...........	1426.04
	82	86.1	-4.00580E-001	-5.89961E-005	0.00000E+000	-4.00011E-001	0.00000E+000	9	...........	1426.04
	83	96.1	-4.00602E-001	-5.78319E-005	0.00000E+000	-4.00011E-001	0.00000E+000	9	...........	1426.04
	84	106.1	-4.00600E-001	-5.68459E-005	0.00000E+000	-4.00011E-001	0.00000E+000	9	...........	1426.04
	85	116.1	-4.00586E-001	-5.60418E-005	0.00000E+000	-4.00011E-001	0.00000E+000	9	...........	1426.04
	86	216.1	-4.00586E-001	-5.23614E-005	0.00000E+000	-4.00011E-001	0.00000E+000	9	...........	1426.04
	87	300	-4.00586E-001	-5.03420E-005	0.00000E+000	-4.00011E-001	0.00000E+000	9	...........	1426.04
	88	300.1	-5.00594E-001	-3.86465E-004	0.00000E+000	-5.00010E-001	0.00000E+000	9	...........	1426.04
	89	300.2	-5.00600E-001	-2.78213E-004	0.00000E+000	-5.00010E-001	0.00000E+000	9	...........	1426.04
	90	300.3	-5.00601E-001	-2.19719E-004	0.00000E+000	-5.00010E-001	0.00000E+000	9	...........	1426.04
	91	300.4	-5.00600E-001	-1.85248E-004	0.00000E+000	-5.00010E-001	0.00000E+000	9	...........	1426.04
	92	300.5	-5.00597E-001	-1.63589E-004	0.00000E+000	-5.00010E-001	0.00000E+000	9	...........	1426.04
	93	300.6	-5.00596E-001	-1.49329E-004	0.00000E+000	-5.00010E-001	0.00000E+000	9	...........	1426.04
	94	300.7	-5.00594E-001	-1.39489E-004	0.00000E+000	-5.00010E-001	0.00000E+000	9	...........	1426.04
	95	300.8	-5.00600E-001	-1.32392E-004	0.00000E+000	-5.00010E-001	0.00000E+000	9	...........	1426.04
	96	300.9	-5.00606E-001	-1.27120E-004	0.00000E+000	-5.00010E-001	0.00000E+000	9	...........	1426.04
	97	301	-5.00605E-001	-1.23041E-004	0.00000E+000	-5.00010E-001	0.00000E+000	9	...........	1426.04
