EXPLAIN
TAG	CHRONOA
TITLE	LABEL	Chronoamperometry Scan	Test Identifier
DATE	LABEL	17/12/2021	Date
TIME	LABEL	13:55:06	Time
NOTES	NOTES	1	Notes...
	
PSTAT	PSTAT	IFC1010-21051	Potentiostat
VPRESTEP	POTEN	1.00000E-002	F	Pre-step Voltage (V)
TPRESTEP	QUANT	5.00000E-001	Pre-step Delay Time (s)
VSTEP1	POTEN	0.00000E+000	F	Step 1 Voltage (V)
TSTEP1	QUANT	3.00000E+002	Step 1 Time (s)
VSTEP2	POTEN	-1.00000E-001	T	Step 2 Voltage (V)
TSTEP2	QUANT	1.00000E+000	Step 2 Time (s)
SAMPLETIME	QUANT	1.00000E-001	Sample Period (s)
DECIMATE	TOGGLE	T	Decimate
ILIMIT	QUANT	1.00000E+000	Limit I (mA/cm^2)
IMODE	SELECTOR	1	I/E Range Mode
IRANGE	QUANT	3.00000E-001	Max Current (mA)
EQDELAY	QUANT	5.00000E+000	Equil. Time (s)
SAMPLINGMODE	SELECTOR	1	Sampling Mode
AREA	QUANT	1.00000E+000	Sample Area (cm^2)
IRCOMP	SELECTOR	0	IRComp
PFCOR	QUANT	5.00000E+001	PF Corr. (ohm)
SEQUENCER	TOGGLE	TRUE	Run as Sequence
PSTATMODEL	IQUANT	64	Pstat Model
PSTATSECTION	LABEL	IFC1010-21051	Pstat Section
PSTATSERIALNO	LABEL	21051	Pstat Serial Number
CTRLMODE	IQUANT	1	Control Mode
ELECTROMETER	IQUANT	0	RE=0 or CS=1
IESTAB	IQUANT	0	I/E Stability
CASPEED	IQUANT	4	Control Amp Speed
CONVENTION	IQUANT	1	Current Convention
ICHRANGE	IQUANT	2	Ich Range
ICHRANGEMODE	TOGGLE	T	Ich Auto Range
ICHOFFSETENABLE	TOGGLE	F	Ich Offset Enable
ICHOFFSET	QUANT	0	Ich Offset (V)
ICHFILTER	IQUANT	3	Ich Filter
VCHRANGE	IQUANT	3	Vch Range
VCHRANGEMODE	TOGGLE	T	Vch Auto Range
VCHOFFSETENABLE	TOGGLE	F	Vch Offset Enable
VCHOFFSET	QUANT	0	Vch Offset (V)
VCHFILTER	IQUANT	3	Vch Filter
IERANGELOWERLIMIT	IQUANT	4	I/E Range Lower Limit
IERANGEMODE	TOGGLE	F	I/E AutoRange
IERANGE	IQUANT	9	I/E Range
ACHSELECT	IQUANT	0	Ach Select
ACHRANGE	IQUANT	2	Ach Range
ACHOFFSETENABLE	TOGGLE	F	Ach Offset Enable
ACHOFFSET	QUANT	0	Ach Offset (V)
ACHFILTER	IQUANT	1	Ach Filter
SENSECABLEID	IQUANT	14	Sense Cable ID
PWRCABLEID	IQUANT	14	Power Cable ID
DCCALDATE	LABEL	10/1/2020	DC Calibration Date
ACCALDATE	LABEL	4/2/2018	AC Calibration Date
FRAMEWORKVERSION	QUANT	7.06	Framework Version
INSTRUMENTVERSION	LABEL	4.30	Instrument Version
CURVE	TABLE	98
	Pt	T	Vf	Im	Vu	Sig	Ach	IERange	Over	Temp
	#	s	V vs. Ref.	A	V	V	V	#	bits	deg C
	0	-0.4	9.74515E-003	-1.56882E-005	0.00000E+000	1.00559E-002	0.00000E+000	9	...........	1426.04
	1	-0.3	1.00258E-002	-1.55627E-005	0.00000E+000	1.00559E-002	0.00000E+000	9	...........	1426.04
	2	-0.2	1.00758E-002	-1.54365E-005	0.00000E+000	1.00559E-002	0.00000E+000	9	...........	1426.04
	3	-0.1	1.00831E-002	-1.53160E-005	0.00000E+000	1.00559E-002	0.00000E+000	9	...........	1426.04
	4	0	1.00826E-002	-1.51891E-005	0.00000E+000	1.00559E-002	0.00000E+000	9	...........	1426.04
	5	0.1	7.44507E-005	-4.38608E-005	0.00000E+000	5.34840E-005	0.00000E+000	9	...........	1426.04
	6	0.2	7.28727E-005	-3.29833E-005	0.00000E+000	5.34840E-005	0.00000E+000	9	...........	1426.04
	7	0.3	7.38669E-005	-2.73515E-005	0.00000E+000	5.34840E-005	0.00000E+000	9	...........	1426.04
	8	0.4	7.37618E-005	-2.41143E-005	0.00000E+000	5.34840E-005	0.00000E+000	9	...........	1426.04
	9	0.5	7.37959E-005	-2.21050E-005	0.00000E+000	5.34840E-005	0.00000E+000	9	...........	1426.04
	10	0.6	7.34895E-005	-2.07846E-005	0.00000E+000	5.34840E-005	0.00000E+000	9	...........	1426.04
	11	0.7	7.25924E-005	-1.98561E-005	0.00000E+000	5.34840E-005	0.00000E+000	9	...........	1426.04
	12	0.8	7.31070E-005	-1.91691E-005	0.00000E+000	5.34840E-005	0.00000E+000	9	...........	1426.22
	13	0.9	7.24532E-005	-1.86449E-005	0.00000E+000	5.34840E-005	0.00000E+000	9	...........	1426.22
	14	1	7.25714E-005	-1.82240E-005	0.00000E+000	5.34840E-005	0.00000E+000	9	...........	1426.22
	15	1.1	7.24872E-005	-1.78742E-005	0.00000E+000	5.34840E-005	0.00000E+000	9	...........	1426.22
	16	1.2	7.24182E-005	-1.75912E-005	0.00000E+000	5.34840E-005	0.00000E+000	9	...........	1426.22
	17	1.3	7.26224E-005	-1.73329E-005	0.00000E+000	5.34840E-005	0.00000E+000	9	...........	1426.22
	18	1.4	7.24392E-005	-1.71097E-005	0.00000E+000	5.34840E-005	0.00000E+000	9	...........	1426.22
	19	1.5	7.24602E-005	-1.69089E-005	0.00000E+000	5.34840E-005	0.00000E+000	9	...........	1426.22
	20	1.6	7.29768E-005	-1.67198E-005	0.00000E+000	5.34840E-005	0.00000E+000	9	...........	1426.22
	21	1.7	7.18895E-005	-1.65583E-005	0.00000E+000	5.34840E-005	0.00000E+000	9	...........	1426.22
	22	1.8	7.33213E-005	-1.64027E-005	0.00000E+000	5.34840E-005	0.00000E+000	9	...........	1425.95
	23	1.9	7.25163E-005	-1.62593E-005	0.00000E+000	5.34840E-005	0.00000E+000	9	...........	1425.95
	24	2	7.32812E-005	-1.61275E-005	0.00000E+000	5.34840E-005	0.00000E+000	9	...........	1425.95
	25	2.1	7.26484E-005	-1.59992E-005	0.00000E+000	5.34840E-005	0.00000E+000	9	...........	1425.95
	26	2.2	7.21488E-005	-1.58791E-005	0.00000E+000	5.34840E-005	0.00000E+000	9	...........	1425.95
	27	2.3	7.24292E-005	-1.57726E-005	0.00000E+000	5.34840E-005	0.00000E+000	9	...........	1425.95
	28	2.4	7.18084E-005	-1.56631E-005	0.00000E+000	5.34840E-005	0.00000E+000	9	...........	1425.95
	29	2.5	7.21078E-005	-1.55681E-005	0.00000E+000	5.34840E-005	0.00000E+000	9	...........	1425.95
	30	2.6	7.12848E-005	-1.54738E-005	0.00000E+000	5.34840E-005	0.00000E+000	9	...........	1425.95
	31	2.7	7.27686E-005	-1.53724E-005	0.00000E+000	5.34840E-005	0.00000E+000	9	...........	1425.95
	32	2.8	7.27095E-005	-1.52821E-005	0.00000E+000	5.34840E-005	0.00000E+000	9	...........	1426.22
	33	2.9	7.15281E-005	-1.52018E-005	0.00000E+000	5.34840E-005	0.00000E+000	9	...........	1426.22
	34	3	7.23160E-005	-1.51139E-005	0.00000E+000	5.34840E-005	0.00000E+000	9	...........	1426.22
	35	3.1	7.23240E-005	-1.50328E-005	0.00000E+000	5.34840E-005	0.00000E+000	9	...........	1426.22
	36	3.2	7.21909E-005	-1.49561E-005	0.00000E+000	5.34840E-005	0.00000E+000	9	...........	1426.22
	37	3.3	7.21078E-005	-1.48833E-005	0.00000E+000	5.34840E-005	0.00000E+000	9	...........	1426.22
	38	3.4	7.15201E-005	-1.48154E-005	0.00000E+000	5.34840E-005	0.00000E+000	9	...........	1426.22
	39	3.5	7.15962E-005	-1.47411E-005	0.00000E+000	5.34840E-005	0.00000E+000	9	...........	1426.22
	40	3.6	7.24131E-005	-1.46814E-005	0.00000E+000	5.34840E-005	0.00000E+000	9	...........	1426.22
	41	3.7	7.38129E-005	-1.46200E-005	0.00000E+000	5.34840E-005	0.00000E+000	9	...........	1426.22
	42	3.8	7.29909E-005	-1.45632E-005	0.00000E+000	5.34840E-005	0.00000E+000	9	...........	1425.95
	43	3.9	7.24332E-005	-1.44999E-005	0.00000E+000	5.34840E-005	0.00000E+000	9	...........	1425.95
	44	4	7.21999E-005	-1.44408E-005	0.00000E+000	5.34840E-005	0.00000E+000	9	...........	1425.95
	45	4.1	7.19786E-005	-1.43925E-005	0.00000E+000	5.34840E-005	0.00000E+000	9	...........	1425.95
	46	4.2	7.24162E-005	-1.43387E-005	0.00000E+000	5.34840E-005	0.00000E+000	9	...........	1425.95
	47	4.3	7.17694E-005	-1.42984E-005	0.00000E+000	5.34840E-005	0.00000E+000	9	...........	1425.95
	48	4.4	7.25333E-005	-1.42399E-005	0.00000E+000	5.34840E-005	0.00000E+000	9	...........	1425.95
	49	4.5	7.30740E-005	-1.41976E-005	0.00000E+000	5.34840E-005	0.00000E+000	9	...........	1425.95
	50	4.6	7.15971E-005	-1.41478E-005	0.00000E+000	5.34840E-005	0.00000E+000	9	...........	1425.95
	51	4.7	7.24052E-005	-1.40949E-005	0.00000E+000	5.34840E-005	0.00000E+000	9	...........	1425.95
	52	4.8	7.25864E-005	-1.40390E-005	0.00000E+000	5.34840E-005	0.00000E+000	9	...........	1426.31
	53	4.9	7.21568E-005	-1.39857E-005	0.00000E+000	5.34840E-005	0.00000E+000	9	...........	1426.31
	54	5	7.16693E-005	-1.39400E-005	0.00000E+000	5.34840E-005	0.00000E+000	9	...........	1426.31
	55	5.1	7.40201E-005	-1.38843E-005	0.00000E+000	5.34840E-005	0.00000E+000	9	...........	1426.31
	56	5.2	7.32362E-005	-1.38353E-005	0.00000E+000	5.34840E-005	0.00000E+000	9	...........	1426.31
	57	5.3	7.30209E-005	-1.37871E-005	0.00000E+000	5.34840E-005	0.00000E+000	9	...........	1426.31
	58	5.4	7.37978E-005	-1.37323E-005	0.00000E+000	5.34840E-005	0.00000E+000	9	...........	1426.31
	59	5.5	7.29809E-005	-1.36986E-005	0.00000E+000	5.34840E-005	0.00000E+000	9	...........	1426.31
	60	5.6	7.33112E-005	-1.36513E-005	0.00000E+000	5.34840E-005	0.00000E+000	9	...........	1426.31
	61	5.7	7.33934E-005	-1.36089E-005	0.00000E+000	5.34840E-005	0.00000E+000	9	...........	1426.31
	62	5.8	7.29949E-005	-1.35687E-005	0.00000E+000	5.34840E-005	0.00000E+000	9	...........	1425.87
	63	5.9	7.28757E-005	-1.35196E-005	0.00000E+000	5.34840E-005	0.00000E+000	9	...........	1425.87
	64	6	7.43575E-005	-1.34751E-005	0.00000E+000	5.34840E-005	0.00000E+000	9	...........	1425.87
	65	6.1	7.39941E-005	-1.34419E-005	0.00000E+000	5.34840E-005	0.00000E+000	9	...........	1425.87
	66	7.1	7.36587E-005	-1.30760E-005	0.00000E+000	5.34840E-005	0.00000E+000	9	...........	1426.31
	67	8.1	7.37338E-005	-1.27763E-005	0.00000E+000	5.34840E-005	0.00000E+000	9	...........	1426.31
	68	9.1	7.28948E-005	-1.25843E-005	0.00000E+000	5.34840E-005	0.00000E+000	9	...........	1426.40
	69	10.1	7.34824E-005	-1.24185E-005	0.00000E+000	5.34840E-005	0.00000E+000	9	...........	1426.40
	70	11.1	7.12297E-005	-1.22747E-005	0.00000E+000	5.34840E-005	0.00000E+000	9	...........	1426.40
	71	12.1	7.33493E-005	-1.21689E-005	0.00000E+000	5.34840E-005	0.00000E+000	9	...........	1426.40
	72	13.1	7.41353E-005	-1.20070E-005	0.00000E+000	5.34840E-005	0.00000E+000	9	...........	1426.40
	73	14.1	7.47610E-005	-1.18448E-005	0.00000E+000	5.34840E-005	0.00000E+000	9	...........	1426.40
	74	15.1	7.24382E-005	-1.16992E-005	0.00000E+000	5.34840E-005	0.00000E+000	9	...........	1426.40
	75	16.1	7.35485E-005	-1.15219E-005	0.00000E+000	5.34840E-005	0.00000E+000	9	...........	1426.40
	76	26.1	7.25263E-005	-1.02788E-005	0.00000E+000	5.34840E-005	0.00000E+000	9	...........	1426.40
	77	36.1	7.37248E-005	-9.92354E-006	0.00000E+000	5.34840E-005	0.00000E+000	9	...........	1426.40
	78	46.1	7.39741E-005	-9.70228E-006	0.00000E+000	5.34840E-005	0.00000E+000	9	...........	1426.40
	79	56.1	7.30910E-005	-9.16716E-006	0.00000E+000	5.34840E-005	0.00000E+000	9	...........	1426.40
	80	66.1	7.25764E-005	-9.28592E-006	0.00000E+000	5.34840E-005	0.00000E+000	9	...........	1426.40
	81	76.1	7.02805E-005	-8.92708E-006	0.00000E+000	5.34840E-005	0.00000E+000	9	...........	1426.40
	82	86.1	7.27866E-005	-9.07033E-006	0.00000E+000	5.34840E-005	0.00000E+000	9	...........	1426.40
	83	96.1	7.21829E-005	-8.76558E-006	0.00000E+000	5.34840E-005	0.00000E+000	9	...........	1426.40
	84	106.1	7.34054E-005	-8.88534E-006	0.00000E+000	5.34840E-005	0.00000E+000	9	...........	1426.40
	85	116.1	7.25613E-005	-8.63511E-006	0.00000E+000	5.34840E-005	0.00000E+000	9	...........	1426.40
	86	216.1	7.27526E-005	-8.06045E-006	0.00000E+000	5.34840E-005	0.00000E+000	9	...........	1426.40
	87	300	7.23100E-005	-7.84189E-006	0.00000E+000	5.34840E-005	0.00000E+000	9	...........	1426.40
	88	300.1	-3.29021E-002	-2.78320E-004	0.00000E+000	-9.99460E-002	0.00000E+000	9	.........v.	1426.40
	89	300.2	-9.99463E-002	-1.72404E-004	0.00000E+000	-9.99460E-002	0.00000E+000	9	...........	1426.40
	90	300.3	-9.99453E-002	-1.21985E-004	0.00000E+000	-9.99460E-002	0.00000E+000	9	...........	1426.40
	91	300.4	-9.99448E-002	-9.45121E-005	0.00000E+000	-9.99460E-002	0.00000E+000	9	...........	1426.40
	92	300.5	-9.99444E-002	-7.81297E-005	0.00000E+000	-9.99460E-002	0.00000E+000	9	...........	1426.40
	93	300.6	-9.99441E-002	-6.76365E-005	0.00000E+000	-9.99460E-002	0.00000E+000	9	...........	1426.40
	94	300.7	-9.99410E-002	-6.05116E-005	0.00000E+000	-9.99460E-002	0.00000E+000	9	...........	1426.40
	95	300.8	-9.99440E-002	-5.54335E-005	0.00000E+000	-9.99460E-002	0.00000E+000	9	...........	1426.40
	96	300.9	-9.99449E-002	-5.16355E-005	0.00000E+000	-9.99460E-002	0.00000E+000	9	...........	1426.40
	97	301	-9.99436E-002	-4.86916E-005	0.00000E+000	-9.99460E-002	0.00000E+000	9	...........	1426.40
