EXPLAIN
TAG	CHRONOA
TITLE	LABEL	Chronoamperometry Scan	Test Identifier
DATE	LABEL	17/12/2021	Date
TIME	LABEL	10:45:27	Time
NOTES	NOTES	1	Notes...
	
PSTAT	PSTAT	IFC1010-21051	Potentiostat
VPRESTEP	POTEN	-3.00000E-001	F	Pre-step Voltage (V)
TPRESTEP	QUANT	5.00000E-001	Pre-step Delay Time (s)
VSTEP1	POTEN	-4.00000E-001	F	Step 1 Voltage (V)
TSTEP1	QUANT	3.00000E+002	Step 1 Time (s)
VSTEP2	POTEN	-5.00000E-001	F	Step 2 Voltage (V)
TSTEP2	QUANT	1.00000E+000	Step 2 Time (s)
SAMPLETIME	QUANT	1.00000E-001	Sample Period (s)
DECIMATE	TOGGLE	T	Decimate
ILIMIT	QUANT	1.00000E+000	Limit I (mA/cm^2)
IMODE	SELECTOR	1	I/E Range Mode
IRANGE	QUANT	3.00000E-001	Max Current (mA)
EQDELAY	QUANT	5.00000E+000	Equil. Time (s)
SAMPLINGMODE	SELECTOR	1	Sampling Mode
AREA	QUANT	1.00000E+000	Sample Area (cm^2)
IRCOMP	SELECTOR	0	IRComp
PFCOR	QUANT	5.00000E+001	PF Corr. (ohm)
SEQUENCER	TOGGLE	TRUE	Run as Sequence
PSTATMODEL	IQUANT	64	Pstat Model
PSTATSECTION	LABEL	IFC1010-21051	Pstat Section
PSTATSERIALNO	LABEL	21051	Pstat Serial Number
CTRLMODE	IQUANT	1	Control Mode
ELECTROMETER	IQUANT	0	RE=0 or CS=1
IESTAB	IQUANT	0	I/E Stability
CASPEED	IQUANT	4	Control Amp Speed
CONVENTION	IQUANT	1	Current Convention
ICHRANGE	IQUANT	2	Ich Range
ICHRANGEMODE	TOGGLE	T	Ich Auto Range
ICHOFFSETENABLE	TOGGLE	F	Ich Offset Enable
ICHOFFSET	QUANT	0	Ich Offset (V)
ICHFILTER	IQUANT	3	Ich Filter
VCHRANGE	IQUANT	3	Vch Range
VCHRANGEMODE	TOGGLE	T	Vch Auto Range
VCHOFFSETENABLE	TOGGLE	F	Vch Offset Enable
VCHOFFSET	QUANT	0	Vch Offset (V)
VCHFILTER	IQUANT	3	Vch Filter
IERANGELOWERLIMIT	IQUANT	4	I/E Range Lower Limit
IERANGEMODE	TOGGLE	F	I/E AutoRange
IERANGE	IQUANT	9	I/E Range
ACHSELECT	IQUANT	0	Ach Select
ACHRANGE	IQUANT	2	Ach Range
ACHOFFSETENABLE	TOGGLE	F	Ach Offset Enable
ACHOFFSET	QUANT	0	Ach Offset (V)
ACHFILTER	IQUANT	1	Ach Filter
SENSECABLEID	IQUANT	14	Sense Cable ID
PWRCABLEID	IQUANT	14	Power Cable ID
DCCALDATE	LABEL	10/1/2020	DC Calibration Date
ACCALDATE	LABEL	4/2/2018	AC Calibration Date
FRAMEWORKVERSION	QUANT	7.06	Framework Version
INSTRUMENTVERSION	LABEL	4.30	Instrument Version
CURVE	TABLE	98
	Pt	T	Vf	Im	Vu	Sig	Ach	IERange	Over	Temp
	#	s	V vs. Ref.	A	V	V	V	#	bits	deg C
	0	-0.4	-3.00666E-001	-6.72900E-005	0.00000E+000	-3.00011E-001	0.00000E+000	9	...........	1425.42
	1	-0.3	-3.00503E-001	-6.70858E-005	0.00000E+000	-3.00011E-001	0.00000E+000	9	...........	1425.42
	2	-0.2	-3.00528E-001	-6.68935E-005	0.00000E+000	-3.00011E-001	0.00000E+000	9	...........	1425.42
	3	-0.1	-3.00511E-001	-6.66926E-005	0.00000E+000	-3.00011E-001	0.00000E+000	9	...........	1425.42
	4	0	-3.00518E-001	-6.65173E-005	0.00000E+000	-3.00011E-001	0.00000E+000	9	...........	1425.42
	5	0.1	-4.00552E-001	-4.14320E-004	0.00000E+000	-4.00011E-001	0.00000E+000	9	...........	1425.42
	6	0.2	-4.00552E-001	-3.30137E-004	0.00000E+000	-4.00011E-001	0.00000E+000	9	...........	1425.42
	7	0.3	-4.00553E-001	-2.80676E-004	0.00000E+000	-4.00011E-001	0.00000E+000	9	...........	1425.42
	8	0.4	-4.00552E-001	-2.48121E-004	0.00000E+000	-4.00011E-001	0.00000E+000	9	...........	1425.42
	9	0.5	-4.00544E-001	-2.25218E-004	0.00000E+000	-4.00011E-001	0.00000E+000	9	...........	1425.42
	10	0.6	-4.00546E-001	-2.08313E-004	0.00000E+000	-4.00011E-001	0.00000E+000	9	...........	1425.42
	11	0.7	-4.00530E-001	-1.95374E-004	0.00000E+000	-4.00011E-001	0.00000E+000	9	...........	1425.42
	12	0.8	-4.00556E-001	-1.85200E-004	0.00000E+000	-4.00011E-001	0.00000E+000	9	...........	1425.42
	13	0.9	-4.00552E-001	-1.76913E-004	0.00000E+000	-4.00011E-001	0.00000E+000	9	...........	1425.42
	14	1	-4.00558E-001	-1.70089E-004	0.00000E+000	-4.00011E-001	0.00000E+000	9	...........	1425.16
	15	1.1	-4.00563E-001	-1.64324E-004	0.00000E+000	-4.00011E-001	0.00000E+000	9	...........	1425.16
	16	1.2	-4.00556E-001	-1.59401E-004	0.00000E+000	-4.00011E-001	0.00000E+000	9	...........	1425.16
	17	1.3	-4.00555E-001	-1.55110E-004	0.00000E+000	-4.00011E-001	0.00000E+000	9	...........	1425.16
	18	1.4	-4.00557E-001	-1.51378E-004	0.00000E+000	-4.00011E-001	0.00000E+000	9	...........	1425.16
	19	1.5	-4.00558E-001	-1.48039E-004	0.00000E+000	-4.00011E-001	0.00000E+000	9	...........	1425.16
	20	1.6	-4.00546E-001	-1.45060E-004	0.00000E+000	-4.00011E-001	0.00000E+000	9	...........	1425.16
	21	1.7	-4.00544E-001	-1.42355E-004	0.00000E+000	-4.00011E-001	0.00000E+000	9	...........	1425.16
	22	1.8	-4.00562E-001	-1.39929E-004	0.00000E+000	-4.00011E-001	0.00000E+000	9	...........	1425.16
	23	1.9	-4.00543E-001	-1.37685E-004	0.00000E+000	-4.00011E-001	0.00000E+000	9	...........	1425.16
	24	2	-4.00552E-001	-1.35639E-004	0.00000E+000	-4.00011E-001	0.00000E+000	9	...........	1424.98
	25	2.1	-4.00561E-001	-1.33733E-004	0.00000E+000	-4.00011E-001	0.00000E+000	9	...........	1424.98
	26	2.2	-4.00564E-001	-1.31957E-004	0.00000E+000	-4.00011E-001	0.00000E+000	9	...........	1424.98
	27	2.3	-4.00554E-001	-1.30302E-004	0.00000E+000	-4.00011E-001	0.00000E+000	9	...........	1424.98
	28	2.4	-4.00555E-001	-1.28755E-004	0.00000E+000	-4.00011E-001	0.00000E+000	9	...........	1424.98
	29	2.5	-4.00551E-001	-1.27289E-004	0.00000E+000	-4.00011E-001	0.00000E+000	9	...........	1424.98
	30	2.6	-4.00559E-001	-1.25935E-004	0.00000E+000	-4.00011E-001	0.00000E+000	9	...........	1424.98
	31	2.7	-4.00556E-001	-1.24682E-004	0.00000E+000	-4.00011E-001	0.00000E+000	9	...........	1424.98
	32	2.8	-4.00549E-001	-1.23431E-004	0.00000E+000	-4.00011E-001	0.00000E+000	9	...........	1424.98
	33	2.9	-4.00541E-001	-1.22272E-004	0.00000E+000	-4.00011E-001	0.00000E+000	9	...........	1424.98
	34	3	-4.00552E-001	-1.21212E-004	0.00000E+000	-4.00011E-001	0.00000E+000	9	...........	1425.16
	35	3.1	-4.00561E-001	-1.20167E-004	0.00000E+000	-4.00011E-001	0.00000E+000	9	...........	1425.16
	36	3.2	-4.00558E-001	-1.19154E-004	0.00000E+000	-4.00011E-001	0.00000E+000	9	...........	1425.16
	37	3.3	-4.00554E-001	-1.18183E-004	0.00000E+000	-4.00011E-001	0.00000E+000	9	...........	1425.16
	38	3.4	-4.00545E-001	-1.17271E-004	0.00000E+000	-4.00011E-001	0.00000E+000	9	...........	1425.16
	39	3.5	-4.00551E-001	-1.16388E-004	0.00000E+000	-4.00011E-001	0.00000E+000	9	...........	1425.16
	40	3.6	-4.00554E-001	-1.15535E-004	0.00000E+000	-4.00011E-001	0.00000E+000	9	...........	1425.16
	41	3.7	-4.00545E-001	-1.14704E-004	0.00000E+000	-4.00011E-001	0.00000E+000	9	...........	1425.16
	42	3.8	-4.00547E-001	-1.13944E-004	0.00000E+000	-4.00011E-001	0.00000E+000	9	...........	1425.16
	43	3.9	-4.00558E-001	-1.13184E-004	0.00000E+000	-4.00011E-001	0.00000E+000	9	...........	1425.16
	44	4	-4.00556E-001	-1.12478E-004	0.00000E+000	-4.00011E-001	0.00000E+000	9	...........	1424.98
	45	4.1	-4.00553E-001	-1.11770E-004	0.00000E+000	-4.00011E-001	0.00000E+000	9	...........	1424.98
	46	4.2	-4.00565E-001	-1.11093E-004	0.00000E+000	-4.00011E-001	0.00000E+000	9	...........	1424.98
	47	4.3	-4.00558E-001	-1.10407E-004	0.00000E+000	-4.00011E-001	0.00000E+000	9	...........	1424.98
	48	4.4	-4.00560E-001	-1.09802E-004	0.00000E+000	-4.00011E-001	0.00000E+000	9	...........	1424.98
	49	4.5	-4.00556E-001	-1.09182E-004	0.00000E+000	-4.00011E-001	0.00000E+000	9	...........	1424.98
	50	4.6	-4.00555E-001	-1.08580E-004	0.00000E+000	-4.00011E-001	0.00000E+000	9	...........	1424.98
	51	4.7	-4.00563E-001	-1.08026E-004	0.00000E+000	-4.00011E-001	0.00000E+000	9	...........	1424.98
	52	4.8	-4.00561E-001	-1.07455E-004	0.00000E+000	-4.00011E-001	0.00000E+000	9	...........	1424.98
	53	4.9	-4.00561E-001	-1.06895E-004	0.00000E+000	-4.00011E-001	0.00000E+000	9	...........	1424.98
	54	5	-4.00562E-001	-1.06348E-004	0.00000E+000	-4.00011E-001	0.00000E+000	9	...........	1425.34
	55	5.1	-4.00550E-001	-1.05850E-004	0.00000E+000	-4.00011E-001	0.00000E+000	9	...........	1425.34
	56	5.2	-4.00565E-001	-1.05378E-004	0.00000E+000	-4.00011E-001	0.00000E+000	9	...........	1425.34
	57	5.3	-4.00552E-001	-1.04895E-004	0.00000E+000	-4.00011E-001	0.00000E+000	9	...........	1425.34
	58	5.4	-4.00556E-001	-1.04399E-004	0.00000E+000	-4.00011E-001	0.00000E+000	9	...........	1425.34
	59	5.5	-4.00555E-001	-1.03941E-004	0.00000E+000	-4.00011E-001	0.00000E+000	9	...........	1425.34
	60	5.6	-4.00558E-001	-1.03479E-004	0.00000E+000	-4.00011E-001	0.00000E+000	9	...........	1425.34
	61	5.7	-4.00558E-001	-1.03003E-004	0.00000E+000	-4.00011E-001	0.00000E+000	9	...........	1425.34
	62	5.8	-4.00558E-001	-1.02607E-004	0.00000E+000	-4.00011E-001	0.00000E+000	9	...........	1425.34
	63	5.9	-4.00559E-001	-1.02191E-004	0.00000E+000	-4.00011E-001	0.00000E+000	9	...........	1425.34
	64	6	-4.00553E-001	-1.01776E-004	0.00000E+000	-4.00011E-001	0.00000E+000	9	...........	1424.98
	65	6.1	-4.00562E-001	-1.01361E-004	0.00000E+000	-4.00011E-001	0.00000E+000	9	...........	1424.98
	66	7.1	-4.00554E-001	-9.77814E-005	0.00000E+000	-4.00011E-001	0.00000E+000	9	...........	1425.34
	67	8.1	-4.00552E-001	-9.48456E-005	0.00000E+000	-4.00011E-001	0.00000E+000	9	...........	1425.42
	68	9.1	-4.00555E-001	-9.24043E-005	0.00000E+000	-4.00011E-001	0.00000E+000	9	...........	1425.42
	69	10.1	-4.00549E-001	-9.03070E-005	0.00000E+000	-4.00011E-001	0.00000E+000	9	...........	1425.42
	70	11.1	-4.00564E-001	-8.84680E-005	0.00000E+000	-4.00011E-001	0.00000E+000	9	...........	1425.42
	71	12.1	-4.00558E-001	-8.69078E-005	0.00000E+000	-4.00011E-001	0.00000E+000	9	...........	1425.42
	72	13.1	-4.00562E-001	-8.53736E-005	0.00000E+000	-4.00011E-001	0.00000E+000	9	...........	1425.42
	73	14.1	-4.00552E-001	-8.40021E-005	0.00000E+000	-4.00011E-001	0.00000E+000	9	...........	1425.42
	74	15.1	-4.00561E-001	-8.27571E-005	0.00000E+000	-4.00011E-001	0.00000E+000	9	...........	1425.34
	75	16.1	-4.00556E-001	-8.15751E-005	0.00000E+000	-4.00011E-001	0.00000E+000	9	...........	1425.42
	76	26.1	-4.00568E-001	-7.36646E-005	0.00000E+000	-4.00011E-001	0.00000E+000	9	...........	1425.42
	77	36.1	-4.00543E-001	-6.96188E-005	0.00000E+000	-4.00011E-001	0.00000E+000	9	...........	1425.51
	78	46.1	-4.00555E-001	-6.68452E-005	0.00000E+000	-4.00011E-001	0.00000E+000	9	...........	1425.42
	79	56.1	-4.00556E-001	-6.45013E-005	0.00000E+000	-4.00011E-001	0.00000E+000	9	...........	1425.51
	80	66.1	-4.00554E-001	-6.30952E-005	0.00000E+000	-4.00011E-001	0.00000E+000	9	...........	1425.51
	81	76.1	-4.00547E-001	-6.21626E-005	0.00000E+000	-4.00011E-001	0.00000E+000	9	...........	1425.51
	82	86.1	-4.00551E-001	-6.10624E-005	0.00000E+000	-4.00011E-001	0.00000E+000	9	...........	1425.51
	83	96.1	-4.00545E-001	-6.01031E-005	0.00000E+000	-4.00011E-001	0.00000E+000	9	...........	1425.42
	84	106.1	-4.00552E-001	-5.96903E-005	0.00000E+000	-4.00011E-001	0.00000E+000	9	...........	1425.51
	85	116.1	-4.00560E-001	-5.87942E-005	0.00000E+000	-4.00011E-001	0.00000E+000	9	...........	1425.51
	86	216.1	-4.00548E-001	-5.62538E-005	0.00000E+000	-4.00011E-001	0.00000E+000	9	...........	1425.51
	87	300	-4.00543E-001	-5.57378E-005	0.00000E+000	-4.00011E-001	0.00000E+000	9	...........	1425.60
	88	300.1	-5.00558E-001	-3.91626E-004	0.00000E+000	-5.00010E-001	0.00000E+000	9	...........	1425.60
	89	300.2	-5.00548E-001	-2.96825E-004	0.00000E+000	-5.00010E-001	0.00000E+000	9	...........	1425.60
	90	300.3	-5.00552E-001	-2.42143E-004	0.00000E+000	-5.00010E-001	0.00000E+000	9	...........	1425.60
	91	300.4	-5.00569E-001	-2.07386E-004	0.00000E+000	-5.00010E-001	0.00000E+000	9	...........	1425.60
	92	300.5	-5.00562E-001	-1.83886E-004	0.00000E+000	-5.00010E-001	0.00000E+000	9	...........	1425.60
	93	300.6	-5.00575E-001	-1.67314E-004	0.00000E+000	-5.00010E-001	0.00000E+000	9	...........	1425.60
	94	300.7	-5.00564E-001	-1.55155E-004	0.00000E+000	-5.00010E-001	0.00000E+000	9	...........	1425.60
	95	300.8	-5.00574E-001	-1.46042E-004	0.00000E+000	-5.00010E-001	0.00000E+000	9	...........	1425.60
	96	300.9	-5.00569E-001	-1.38944E-004	0.00000E+000	-5.00010E-001	0.00000E+000	9	...........	1425.60
	97	301	-5.00573E-001	-1.33331E-004	0.00000E+000	-5.00010E-001	0.00000E+000	9	...........	1425.60
