EXPLAIN
TAG	CHRONOA
TITLE	LABEL	Chronoamperometry Scan	Test Identifier
DATE	LABEL	17/12/2021	Date
TIME	LABEL	11:53:40	Time
NOTES	NOTES	1	Notes...
	
PSTAT	PSTAT	IFC1010-21051	Potentiostat
VPRESTEP	POTEN	3.00000E-001	F	Pre-step Voltage (V)
TPRESTEP	QUANT	5.00000E-001	Pre-step Delay Time (s)
VSTEP1	POTEN	4.00000E-001	F	Step 1 Voltage (V)
TSTEP1	QUANT	3.00000E+002	Step 1 Time (s)
VSTEP2	POTEN	3.00000E-001	F	Step 2 Voltage (V)
TSTEP2	QUANT	1.00000E+000	Step 2 Time (s)
SAMPLETIME	QUANT	1.00000E-001	Sample Period (s)
DECIMATE	TOGGLE	T	Decimate
ILIMIT	QUANT	1.00000E+000	Limit I (mA/cm^2)
IMODE	SELECTOR	1	I/E Range Mode
IRANGE	QUANT	3.00000E-001	Max Current (mA)
EQDELAY	QUANT	5.00000E+000	Equil. Time (s)
SAMPLINGMODE	SELECTOR	1	Sampling Mode
AREA	QUANT	1.00000E+000	Sample Area (cm^2)
IRCOMP	SELECTOR	0	IRComp
PFCOR	QUANT	5.00000E+001	PF Corr. (ohm)
SEQUENCER	TOGGLE	TRUE	Run as Sequence
PSTATMODEL	IQUANT	64	Pstat Model
PSTATSECTION	LABEL	IFC1010-21051	Pstat Section
PSTATSERIALNO	LABEL	21051	Pstat Serial Number
CTRLMODE	IQUANT	1	Control Mode
ELECTROMETER	IQUANT	0	RE=0 or CS=1
IESTAB	IQUANT	0	I/E Stability
CASPEED	IQUANT	4	Control Amp Speed
CONVENTION	IQUANT	1	Current Convention
ICHRANGE	IQUANT	2	Ich Range
ICHRANGEMODE	TOGGLE	T	Ich Auto Range
ICHOFFSETENABLE	TOGGLE	F	Ich Offset Enable
ICHOFFSET	QUANT	0	Ich Offset (V)
ICHFILTER	IQUANT	3	Ich Filter
VCHRANGE	IQUANT	3	Vch Range
VCHRANGEMODE	TOGGLE	T	Vch Auto Range
VCHOFFSETENABLE	TOGGLE	F	Vch Offset Enable
VCHOFFSET	QUANT	0	Vch Offset (V)
VCHFILTER	IQUANT	3	Vch Filter
IERANGELOWERLIMIT	IQUANT	4	I/E Range Lower Limit
IERANGEMODE	TOGGLE	F	I/E AutoRange
IERANGE	IQUANT	9	I/E Range
ACHSELECT	IQUANT	0	Ach Select
ACHRANGE	IQUANT	2	Ach Range
ACHOFFSETENABLE	TOGGLE	F	Ach Offset Enable
ACHOFFSET	QUANT	0	Ach Offset (V)
ACHFILTER	IQUANT	1	Ach Filter
SENSECABLEID	IQUANT	14	Sense Cable ID
PWRCABLEID	IQUANT	14	Power Cable ID
DCCALDATE	LABEL	10/1/2020	DC Calibration Date
ACCALDATE	LABEL	4/2/2018	AC Calibration Date
FRAMEWORKVERSION	QUANT	7.06	Framework Version
INSTRUMENTVERSION	LABEL	4.30	Instrument Version
CURVE	TABLE	98
	Pt	T	Vf	Im	Vu	Sig	Ach	IERange	Over	Temp
	#	s	V vs. Ref.	A	V	V	V	#	bits	deg C
	0	-0.4	3.00138E-001	6.07206E-006	0.00000E+000	3.00072E-001	0.00000E+000	9	...........	1425.87
	1	-0.3	3.00453E-001	6.01447E-006	0.00000E+000	3.00072E-001	0.00000E+000	9	...........	1425.87
	2	-0.2	3.00450E-001	5.96515E-006	0.00000E+000	3.00072E-001	0.00000E+000	9	...........	1425.87
	3	-0.1	3.00448E-001	5.89101E-006	0.00000E+000	3.00072E-001	0.00000E+000	9	...........	1425.87
	4	0	3.00455E-001	5.84149E-006	0.00000E+000	3.00072E-001	0.00000E+000	9	...........	1425.87
	5	0.1	4.00488E-001	4.14779E-004	0.00000E+000	4.00072E-001	0.00000E+000	9	...........	1425.87
	6	0.2	4.00490E-001	3.38261E-004	0.00000E+000	4.00072E-001	0.00000E+000	9	...........	1425.78
	7	0.3	4.00494E-001	2.88803E-004	0.00000E+000	4.00072E-001	0.00000E+000	9	...........	1425.78
	8	0.4	4.00499E-001	2.53869E-004	0.00000E+000	4.00072E-001	0.00000E+000	9	...........	1425.78
	9	0.5	4.00501E-001	2.27712E-004	0.00000E+000	4.00072E-001	0.00000E+000	9	...........	1425.78
	10	0.6	4.00493E-001	2.07280E-004	0.00000E+000	4.00072E-001	0.00000E+000	9	...........	1425.78
	11	0.7	4.00499E-001	1.90839E-004	0.00000E+000	4.00072E-001	0.00000E+000	9	...........	1425.78
	12	0.8	4.00502E-001	1.77304E-004	0.00000E+000	4.00072E-001	0.00000E+000	9	...........	1425.78
	13	0.9	4.00500E-001	1.66001E-004	0.00000E+000	4.00072E-001	0.00000E+000	9	...........	1425.78
	14	1	4.00497E-001	1.56431E-004	0.00000E+000	4.00072E-001	0.00000E+000	9	...........	1425.78
	15	1.1	4.00502E-001	1.48188E-004	0.00000E+000	4.00072E-001	0.00000E+000	9	...........	1425.78
	16	1.2	4.00498E-001	1.40997E-004	0.00000E+000	4.00072E-001	0.00000E+000	9	...........	1425.42
	17	1.3	4.00496E-001	1.34762E-004	0.00000E+000	4.00072E-001	0.00000E+000	9	...........	1425.42
	18	1.4	4.00502E-001	1.29154E-004	0.00000E+000	4.00072E-001	0.00000E+000	9	...........	1425.42
	19	1.5	4.00492E-001	1.24186E-004	0.00000E+000	4.00072E-001	0.00000E+000	9	...........	1425.42
	20	1.6	4.00491E-001	1.19684E-004	0.00000E+000	4.00072E-001	0.00000E+000	9	...........	1425.42
	21	1.7	4.00493E-001	1.15641E-004	0.00000E+000	4.00072E-001	0.00000E+000	9	...........	1425.42
	22	1.8	4.00494E-001	1.11919E-004	0.00000E+000	4.00072E-001	0.00000E+000	9	...........	1425.42
	23	1.9	4.00489E-001	1.08500E-004	0.00000E+000	4.00072E-001	0.00000E+000	9	...........	1425.42
	24	2	4.00495E-001	1.05351E-004	0.00000E+000	4.00072E-001	0.00000E+000	9	...........	1425.42
	25	2.1	4.00493E-001	1.02422E-004	0.00000E+000	4.00072E-001	0.00000E+000	9	...........	1425.42
	26	2.2	4.00496E-001	9.97040E-005	0.00000E+000	4.00072E-001	0.00000E+000	9	...........	1425.42
	27	2.3	4.00481E-001	9.71627E-005	0.00000E+000	4.00072E-001	0.00000E+000	9	...........	1425.42
	28	2.4	4.00490E-001	9.47957E-005	0.00000E+000	4.00072E-001	0.00000E+000	9	...........	1425.42
	29	2.5	4.00498E-001	9.26135E-005	0.00000E+000	4.00072E-001	0.00000E+000	9	...........	1425.42
	30	2.6	4.00505E-001	9.04901E-005	0.00000E+000	4.00072E-001	0.00000E+000	9	...........	1425.42
	31	2.7	4.00492E-001	8.85516E-005	0.00000E+000	4.00072E-001	0.00000E+000	9	...........	1425.42
	32	2.8	4.00490E-001	8.66912E-005	0.00000E+000	4.00072E-001	0.00000E+000	9	...........	1425.42
	33	2.9	4.00514E-001	8.49402E-005	0.00000E+000	4.00072E-001	0.00000E+000	9	...........	1425.42
	34	3	4.00507E-001	8.32571E-005	0.00000E+000	4.00072E-001	0.00000E+000	9	...........	1425.42
	35	3.1	4.00498E-001	8.17000E-005	0.00000E+000	4.00072E-001	0.00000E+000	9	...........	1425.42
	36	3.2	4.00504E-001	8.01900E-005	0.00000E+000	4.00072E-001	0.00000E+000	9	...........	1425.42
	37	3.3	4.00489E-001	7.87425E-005	0.00000E+000	4.00072E-001	0.00000E+000	9	...........	1425.42
	38	3.4	4.00489E-001	7.73771E-005	0.00000E+000	4.00072E-001	0.00000E+000	9	...........	1425.42
	39	3.5	4.00498E-001	7.60329E-005	0.00000E+000	4.00072E-001	0.00000E+000	9	...........	1425.42
	40	3.6	4.00494E-001	7.47842E-005	0.00000E+000	4.00072E-001	0.00000E+000	9	...........	1425.42
	41	3.7	4.00487E-001	7.35421E-005	0.00000E+000	4.00072E-001	0.00000E+000	9	...........	1425.42
	42	3.8	4.00508E-001	7.24173E-005	0.00000E+000	4.00072E-001	0.00000E+000	9	...........	1425.42
	43	3.9	4.00500E-001	7.12915E-005	0.00000E+000	4.00072E-001	0.00000E+000	9	...........	1425.42
	44	4	4.00498E-001	7.02529E-005	0.00000E+000	4.00072E-001	0.00000E+000	9	...........	1425.42
	45	4.1	4.00500E-001	6.92079E-005	0.00000E+000	4.00072E-001	0.00000E+000	9	...........	1425.42
	46	4.2	4.00484E-001	6.82694E-005	0.00000E+000	4.00072E-001	0.00000E+000	9	...........	1425.51
	47	4.3	4.00482E-001	6.72864E-005	0.00000E+000	4.00072E-001	0.00000E+000	9	...........	1425.51
	48	4.4	4.00484E-001	6.63633E-005	0.00000E+000	4.00072E-001	0.00000E+000	9	...........	1425.51
	49	4.5	4.00502E-001	6.54487E-005	0.00000E+000	4.00072E-001	0.00000E+000	9	...........	1425.51
	50	4.6	4.00502E-001	6.46241E-005	0.00000E+000	4.00072E-001	0.00000E+000	9	...........	1425.51
	51	4.7	4.00492E-001	6.37679E-005	0.00000E+000	4.00072E-001	0.00000E+000	9	...........	1425.51
	52	4.8	4.00520E-001	6.29776E-005	0.00000E+000	4.00072E-001	0.00000E+000	9	...........	1425.51
	53	4.9	4.00499E-001	6.22292E-005	0.00000E+000	4.00072E-001	0.00000E+000	9	...........	1425.51
	54	5	4.00499E-001	6.14831E-005	0.00000E+000	4.00072E-001	0.00000E+000	9	...........	1425.51
	55	5.1	4.00495E-001	6.07671E-005	0.00000E+000	4.00072E-001	0.00000E+000	9	...........	1425.51
	56	5.2	4.00505E-001	6.00544E-005	0.00000E+000	4.00072E-001	0.00000E+000	9	...........	1425.78
	57	5.3	4.00508E-001	5.93705E-005	0.00000E+000	4.00072E-001	0.00000E+000	9	...........	1425.78
	58	5.4	4.00500E-001	5.86976E-005	0.00000E+000	4.00072E-001	0.00000E+000	9	...........	1425.78
	59	5.5	4.00489E-001	5.80521E-005	0.00000E+000	4.00072E-001	0.00000E+000	9	...........	1425.78
	60	5.6	4.00511E-001	5.74336E-005	0.00000E+000	4.00072E-001	0.00000E+000	9	...........	1425.78
	61	5.7	4.00510E-001	5.68208E-005	0.00000E+000	4.00072E-001	0.00000E+000	9	...........	1425.78
	62	5.8	4.00510E-001	5.62290E-005	0.00000E+000	4.00072E-001	0.00000E+000	9	...........	1425.78
	63	5.9	4.00504E-001	5.56663E-005	0.00000E+000	4.00072E-001	0.00000E+000	9	...........	1425.78
	64	6	4.00499E-001	5.51004E-005	0.00000E+000	4.00072E-001	0.00000E+000	9	...........	1425.78
	65	6.1	4.00500E-001	5.45557E-005	0.00000E+000	4.00072E-001	0.00000E+000	9	...........	1425.78
	66	7.1	4.00502E-001	4.97716E-005	0.00000E+000	4.00072E-001	0.00000E+000	9	...........	1425.78
	67	8.1	4.00499E-001	4.60483E-005	0.00000E+000	4.00072E-001	0.00000E+000	9	...........	1425.87
	68	9.1	4.00510E-001	4.29937E-005	0.00000E+000	4.00072E-001	0.00000E+000	9	...........	1425.87
	69	10.1	4.00510E-001	4.04098E-005	0.00000E+000	4.00072E-001	0.00000E+000	9	...........	1425.87
	70	11.1	4.00492E-001	3.82484E-005	0.00000E+000	4.00072E-001	0.00000E+000	9	...........	1425.87
	71	12.1	4.00503E-001	3.64054E-005	0.00000E+000	4.00072E-001	0.00000E+000	9	...........	1425.87
	72	13.1	4.00491E-001	3.48396E-005	0.00000E+000	4.00072E-001	0.00000E+000	9	...........	1425.42
	73	14.1	4.00497E-001	3.34654E-005	0.00000E+000	4.00072E-001	0.00000E+000	9	...........	1425.69
	74	15.1	4.00493E-001	3.22637E-005	0.00000E+000	4.00072E-001	0.00000E+000	9	...........	1425.42
	75	16.1	4.00497E-001	3.11082E-005	0.00000E+000	4.00072E-001	0.00000E+000	9	...........	1425.69
	76	26.1	4.00497E-001	2.46987E-005	0.00000E+000	4.00072E-001	0.00000E+000	9	...........	1425.78
	77	36.1	4.00483E-001	2.13756E-005	0.00000E+000	4.00072E-001	0.00000E+000	9	...........	1425.87
	78	46.1	4.00499E-001	1.98772E-005	0.00000E+000	4.00072E-001	0.00000E+000	9	...........	1425.87
	79	56.1	4.00496E-001	1.88385E-005	0.00000E+000	4.00072E-001	0.00000E+000	9	...........	1425.95
	80	66.1	4.00491E-001	1.77610E-005	0.00000E+000	4.00072E-001	0.00000E+000	9	...........	1425.78
	81	76.1	4.00499E-001	1.71784E-005	0.00000E+000	4.00072E-001	0.00000E+000	9	...........	1425.87
	82	86.1	4.00501E-001	1.70086E-005	0.00000E+000	4.00072E-001	0.00000E+000	9	...........	1425.87
	83	96.1	4.00506E-001	1.65517E-005	0.00000E+000	4.00072E-001	0.00000E+000	9	...........	1425.78
	84	106.1	4.00500E-001	1.63737E-005	0.00000E+000	4.00072E-001	0.00000E+000	9	...........	1425.87
	85	116.1	4.00504E-001	1.63026E-005	0.00000E+000	4.00072E-001	0.00000E+000	9	...........	1425.87
	86	216.1	4.00500E-001	1.54341E-005	0.00000E+000	4.00072E-001	0.00000E+000	9	...........	1425.87
	87	300	4.00495E-001	1.43019E-005	0.00000E+000	4.00072E-001	0.00000E+000	9	...........	1425.87
	88	300.1	3.00461E-001	-4.02962E-004	0.00000E+000	3.00072E-001	0.00000E+000	9	...........	1425.87
	89	300.2	3.00454E-001	-3.38904E-004	0.00000E+000	3.00072E-001	0.00000E+000	9	...........	1425.95
	90	300.3	3.00450E-001	-2.90247E-004	0.00000E+000	3.00072E-001	0.00000E+000	9	...........	1425.95
	91	300.4	3.00445E-001	-2.51146E-004	0.00000E+000	3.00072E-001	0.00000E+000	9	...........	1425.95
	92	300.5	3.00450E-001	-2.19183E-004	0.00000E+000	3.00072E-001	0.00000E+000	9	...........	1425.95
	93	300.6	3.00444E-001	-1.92917E-004	0.00000E+000	3.00072E-001	0.00000E+000	9	...........	1425.95
	94	300.7	3.00452E-001	-1.71483E-004	0.00000E+000	3.00072E-001	0.00000E+000	9	...........	1425.95
	95	300.8	3.00464E-001	-1.54052E-004	0.00000E+000	3.00072E-001	0.00000E+000	9	...........	1425.95
	96	300.9	3.00463E-001	-1.39609E-004	0.00000E+000	3.00072E-001	0.00000E+000	9	...........	1425.95
	97	301	3.00445E-001	-1.27627E-004	0.00000E+000	3.00072E-001	0.00000E+000	9	...........	1425.95
