EXPLAIN
TAG	CHRONOA
TITLE	LABEL	Chronoamperometry Scan	Test Identifier
DATE	LABEL	17/12/2021	Date
TIME	LABEL	14:16:39	Time
NOTES	NOTES	1	Notes...
	
PSTAT	PSTAT	IFC1010-21051	Potentiostat
VPRESTEP	POTEN	-3.00000E-001	F	Pre-step Voltage (V)
TPRESTEP	QUANT	5.00000E-001	Pre-step Delay Time (s)
VSTEP1	POTEN	-4.00000E-001	F	Step 1 Voltage (V)
TSTEP1	QUANT	3.00000E+002	Step 1 Time (s)
VSTEP2	POTEN	-5.00000E-001	F	Step 2 Voltage (V)
TSTEP2	QUANT	1.00000E+000	Step 2 Time (s)
SAMPLETIME	QUANT	1.00000E-001	Sample Period (s)
DECIMATE	TOGGLE	T	Decimate
ILIMIT	QUANT	1.00000E+000	Limit I (mA/cm^2)
IMODE	SELECTOR	1	I/E Range Mode
IRANGE	QUANT	3.00000E-001	Max Current (mA)
EQDELAY	QUANT	5.00000E+000	Equil. Time (s)
SAMPLINGMODE	SELECTOR	1	Sampling Mode
AREA	QUANT	1.00000E+000	Sample Area (cm^2)
IRCOMP	SELECTOR	0	IRComp
PFCOR	QUANT	5.00000E+001	PF Corr. (ohm)
SEQUENCER	TOGGLE	TRUE	Run as Sequence
PSTATMODEL	IQUANT	64	Pstat Model
PSTATSECTION	LABEL	IFC1010-21051	Pstat Section
PSTATSERIALNO	LABEL	21051	Pstat Serial Number
CTRLMODE	IQUANT	1	Control Mode
ELECTROMETER	IQUANT	0	RE=0 or CS=1
IESTAB	IQUANT	0	I/E Stability
CASPEED	IQUANT	4	Control Amp Speed
CONVENTION	IQUANT	1	Current Convention
ICHRANGE	IQUANT	2	Ich Range
ICHRANGEMODE	TOGGLE	T	Ich Auto Range
ICHOFFSETENABLE	TOGGLE	F	Ich Offset Enable
ICHOFFSET	QUANT	0	Ich Offset (V)
ICHFILTER	IQUANT	3	Ich Filter
VCHRANGE	IQUANT	3	Vch Range
VCHRANGEMODE	TOGGLE	T	Vch Auto Range
VCHOFFSETENABLE	TOGGLE	F	Vch Offset Enable
VCHOFFSET	QUANT	0	Vch Offset (V)
VCHFILTER	IQUANT	3	Vch Filter
IERANGELOWERLIMIT	IQUANT	4	I/E Range Lower Limit
IERANGEMODE	TOGGLE	F	I/E AutoRange
IERANGE	IQUANT	9	I/E Range
ACHSELECT	IQUANT	0	Ach Select
ACHRANGE	IQUANT	2	Ach Range
ACHOFFSETENABLE	TOGGLE	F	Ach Offset Enable
ACHOFFSET	QUANT	0	Ach Offset (V)
ACHFILTER	IQUANT	1	Ach Filter
SENSECABLEID	IQUANT	14	Sense Cable ID
PWRCABLEID	IQUANT	14	Power Cable ID
DCCALDATE	LABEL	10/1/2020	DC Calibration Date
ACCALDATE	LABEL	4/2/2018	AC Calibration Date
FRAMEWORKVERSION	QUANT	7.06	Framework Version
INSTRUMENTVERSION	LABEL	4.30	Instrument Version
CURVE	TABLE	98
	Pt	T	Vf	Im	Vu	Sig	Ach	IERange	Over	Temp
	#	s	V vs. Ref.	A	V	V	V	#	bits	deg C
	0	-0.4	-3.00721E-001	-5.21633E-005	0.00000E+000	-3.00011E-001	0.00000E+000	9	...........	1426.13
	1	-0.3	-3.00532E-001	-5.20242E-005	0.00000E+000	-3.00011E-001	0.00000E+000	9	...........	1426.13
	2	-0.2	-3.00551E-001	-5.19566E-005	0.00000E+000	-3.00011E-001	0.00000E+000	9	...........	1426.13
	3	-0.1	-3.00553E-001	-5.18385E-005	0.00000E+000	-3.00011E-001	0.00000E+000	9	...........	1426.13
	4	0	-3.00547E-001	-5.17726E-005	0.00000E+000	-3.00011E-001	0.00000E+000	9	...........	1426.13
	5	0.1	-4.00591E-001	-3.91432E-004	0.00000E+000	-4.00011E-001	0.00000E+000	9	...........	1426.13
	6	0.2	-4.00588E-001	-2.94602E-004	0.00000E+000	-4.00011E-001	0.00000E+000	9	...........	1426.13
	7	0.3	-4.00587E-001	-2.41582E-004	0.00000E+000	-4.00011E-001	0.00000E+000	9	...........	1426.13
	8	0.4	-4.00588E-001	-2.11404E-004	0.00000E+000	-4.00011E-001	0.00000E+000	9	...........	1426.13
	9	0.5	-4.00586E-001	-1.92754E-004	0.00000E+000	-4.00011E-001	0.00000E+000	9	...........	1426.13
	10	0.6	-4.00582E-001	-1.80362E-004	0.00000E+000	-4.00011E-001	0.00000E+000	9	...........	1425.69
	11	0.7	-4.00588E-001	-1.71639E-004	0.00000E+000	-4.00011E-001	0.00000E+000	9	...........	1425.69
	12	0.8	-4.00587E-001	-1.65136E-004	0.00000E+000	-4.00011E-001	0.00000E+000	9	...........	1425.69
	13	0.9	-4.00591E-001	-1.60035E-004	0.00000E+000	-4.00011E-001	0.00000E+000	9	...........	1425.69
	14	1	-4.00588E-001	-1.55884E-004	0.00000E+000	-4.00011E-001	0.00000E+000	9	...........	1425.69
	15	1.1	-4.00589E-001	-1.52461E-004	0.00000E+000	-4.00011E-001	0.00000E+000	9	...........	1425.69
	16	1.2	-4.00607E-001	-1.49513E-004	0.00000E+000	-4.00011E-001	0.00000E+000	9	...........	1425.69
	17	1.3	-4.00580E-001	-1.46931E-004	0.00000E+000	-4.00011E-001	0.00000E+000	9	...........	1425.69
	18	1.4	-4.00587E-001	-1.44679E-004	0.00000E+000	-4.00011E-001	0.00000E+000	9	...........	1425.69
	19	1.5	-4.00582E-001	-1.42592E-004	0.00000E+000	-4.00011E-001	0.00000E+000	9	...........	1425.69
	20	1.6	-4.00579E-001	-1.40702E-004	0.00000E+000	-4.00011E-001	0.00000E+000	9	...........	1425.87
	21	1.7	-4.00578E-001	-1.38980E-004	0.00000E+000	-4.00011E-001	0.00000E+000	9	...........	1425.87
	22	1.8	-4.00577E-001	-1.37341E-004	0.00000E+000	-4.00011E-001	0.00000E+000	9	...........	1425.87
	23	1.9	-4.00596E-001	-1.35913E-004	0.00000E+000	-4.00011E-001	0.00000E+000	9	...........	1425.87
	24	2	-4.00589E-001	-1.34494E-004	0.00000E+000	-4.00011E-001	0.00000E+000	9	...........	1425.87
	25	2.1	-4.00574E-001	-1.33131E-004	0.00000E+000	-4.00011E-001	0.00000E+000	9	...........	1425.87
	26	2.2	-4.00592E-001	-1.31933E-004	0.00000E+000	-4.00011E-001	0.00000E+000	9	...........	1425.87
	27	2.3	-4.00596E-001	-1.30819E-004	0.00000E+000	-4.00011E-001	0.00000E+000	9	...........	1425.87
	28	2.4	-4.00589E-001	-1.29672E-004	0.00000E+000	-4.00011E-001	0.00000E+000	9	...........	1425.87
	29	2.5	-4.00592E-001	-1.28595E-004	0.00000E+000	-4.00011E-001	0.00000E+000	9	...........	1425.87
	30	2.6	-4.00591E-001	-1.27573E-004	0.00000E+000	-4.00011E-001	0.00000E+000	9	...........	1425.60
	31	2.7	-4.00602E-001	-1.26604E-004	0.00000E+000	-4.00011E-001	0.00000E+000	9	...........	1425.60
	32	2.8	-4.00603E-001	-1.25656E-004	0.00000E+000	-4.00011E-001	0.00000E+000	9	...........	1425.60
	33	2.9	-4.00590E-001	-1.24759E-004	0.00000E+000	-4.00011E-001	0.00000E+000	9	...........	1425.60
	34	3	-4.00586E-001	-1.23909E-004	0.00000E+000	-4.00011E-001	0.00000E+000	9	...........	1425.60
	35	3.1	-4.00583E-001	-1.23033E-004	0.00000E+000	-4.00011E-001	0.00000E+000	9	...........	1425.60
	36	3.2	-4.00579E-001	-1.22219E-004	0.00000E+000	-4.00011E-001	0.00000E+000	9	...........	1425.60
	37	3.3	-4.00594E-001	-1.21472E-004	0.00000E+000	-4.00011E-001	0.00000E+000	9	...........	1425.60
	38	3.4	-4.00586E-001	-1.20694E-004	0.00000E+000	-4.00011E-001	0.00000E+000	9	...........	1425.60
	39	3.5	-4.00578E-001	-1.19981E-004	0.00000E+000	-4.00011E-001	0.00000E+000	9	...........	1425.60
	40	3.6	-4.00587E-001	-1.19247E-004	0.00000E+000	-4.00011E-001	0.00000E+000	9	...........	1426.04
	41	3.7	-4.00592E-001	-1.18603E-004	0.00000E+000	-4.00011E-001	0.00000E+000	9	...........	1426.04
	42	3.8	-4.00590E-001	-1.17908E-004	0.00000E+000	-4.00011E-001	0.00000E+000	9	...........	1426.04
	43	3.9	-4.00589E-001	-1.17250E-004	0.00000E+000	-4.00011E-001	0.00000E+000	9	...........	1426.04
	44	4	-4.00595E-001	-1.16646E-004	0.00000E+000	-4.00011E-001	0.00000E+000	9	...........	1426.04
	45	4.1	-4.00593E-001	-1.16013E-004	0.00000E+000	-4.00011E-001	0.00000E+000	9	...........	1426.04
	46	4.2	-4.00581E-001	-1.15377E-004	0.00000E+000	-4.00011E-001	0.00000E+000	9	...........	1426.04
	47	4.3	-4.00582E-001	-1.14823E-004	0.00000E+000	-4.00011E-001	0.00000E+000	9	...........	1426.04
	48	4.4	-4.00578E-001	-1.14255E-004	0.00000E+000	-4.00011E-001	0.00000E+000	9	...........	1426.04
	49	4.5	-4.00578E-001	-1.13690E-004	0.00000E+000	-4.00011E-001	0.00000E+000	9	...........	1426.04
	50	4.6	-4.00585E-001	-1.13157E-004	0.00000E+000	-4.00011E-001	0.00000E+000	9	...........	1425.60
	51	4.7	-4.00597E-001	-1.12614E-004	0.00000E+000	-4.00011E-001	0.00000E+000	9	...........	1425.60
	52	4.8	-4.00575E-001	-1.12068E-004	0.00000E+000	-4.00011E-001	0.00000E+000	9	...........	1425.60
	53	4.9	-4.00589E-001	-1.11617E-004	0.00000E+000	-4.00011E-001	0.00000E+000	9	...........	1425.60
	54	5	-4.00576E-001	-1.11097E-004	0.00000E+000	-4.00011E-001	0.00000E+000	9	...........	1425.60
	55	5.1	-4.00598E-001	-1.10634E-004	0.00000E+000	-4.00011E-001	0.00000E+000	9	...........	1425.60
	56	5.2	-4.00593E-001	-1.10163E-004	0.00000E+000	-4.00011E-001	0.00000E+000	9	...........	1425.60
	57	5.3	-4.00589E-001	-1.09695E-004	0.00000E+000	-4.00011E-001	0.00000E+000	9	...........	1425.60
	58	5.4	-4.00583E-001	-1.09182E-004	0.00000E+000	-4.00011E-001	0.00000E+000	9	...........	1425.60
	59	5.5	-4.00595E-001	-1.08797E-004	0.00000E+000	-4.00011E-001	0.00000E+000	9	...........	1425.60
	60	5.6	-4.00594E-001	-1.08341E-004	0.00000E+000	-4.00011E-001	0.00000E+000	9	...........	1425.87
	61	5.7	-4.00595E-001	-1.07945E-004	0.00000E+000	-4.00011E-001	0.00000E+000	9	...........	1425.87
	62	5.8	-4.00584E-001	-1.07492E-004	0.00000E+000	-4.00011E-001	0.00000E+000	9	...........	1425.87
	63	5.9	-4.00592E-001	-1.07103E-004	0.00000E+000	-4.00011E-001	0.00000E+000	9	...........	1425.87
	64	6	-4.00588E-001	-1.06669E-004	0.00000E+000	-4.00011E-001	0.00000E+000	9	...........	1425.87
	65	6.1	-4.00590E-001	-1.06302E-004	0.00000E+000	-4.00011E-001	0.00000E+000	9	...........	1425.87
	66	7.1	-4.00591E-001	-1.02674E-004	0.00000E+000	-4.00011E-001	0.00000E+000	9	...........	1425.60
	67	8.1	-4.00596E-001	-9.95583E-005	0.00000E+000	-4.00011E-001	0.00000E+000	9	...........	1426.04
	68	9.1	-4.00593E-001	-9.68574E-005	0.00000E+000	-4.00011E-001	0.00000E+000	9	...........	1426.04
	69	10.1	-4.00593E-001	-9.45319E-005	0.00000E+000	-4.00011E-001	0.00000E+000	9	...........	1426.13
	70	11.1	-4.00591E-001	-9.24039E-005	0.00000E+000	-4.00011E-001	0.00000E+000	9	...........	1426.13
	71	12.1	-4.00587E-001	-9.05093E-005	0.00000E+000	-4.00011E-001	0.00000E+000	9	...........	1426.13
	72	13.1	-4.00597E-001	-8.87835E-005	0.00000E+000	-4.00011E-001	0.00000E+000	9	...........	1426.04
	73	14.1	-4.00603E-001	-8.72274E-005	0.00000E+000	-4.00011E-001	0.00000E+000	9	...........	1426.13
	74	15.1	-4.00578E-001	-8.57653E-005	0.00000E+000	-4.00011E-001	0.00000E+000	9	...........	1426.13
	75	16.1	-4.00586E-001	-8.44729E-005	0.00000E+000	-4.00011E-001	0.00000E+000	9	...........	1426.04
	76	26.1	-4.00598E-001	-7.52455E-005	0.00000E+000	-4.00011E-001	0.00000E+000	9	...........	1426.13
	77	36.1	-4.00580E-001	-6.99316E-005	0.00000E+000	-4.00011E-001	0.00000E+000	9	...........	1426.13
	78	46.1	-4.00590E-001	-6.60157E-005	0.00000E+000	-4.00011E-001	0.00000E+000	9	...........	1426.13
	79	56.1	-4.00578E-001	-6.31430E-005	0.00000E+000	-4.00011E-001	0.00000E+000	9	...........	1426.22
	80	66.1	-4.00585E-001	-6.09304E-005	0.00000E+000	-4.00011E-001	0.00000E+000	9	...........	1426.13
	81	76.1	-4.00592E-001	-5.92022E-005	0.00000E+000	-4.00011E-001	0.00000E+000	9	...........	1426.22
	82	86.1	-4.00583E-001	-5.76893E-005	0.00000E+000	-4.00011E-001	0.00000E+000	9	...........	1426.22
	83	96.1	-4.00583E-001	-5.62983E-005	0.00000E+000	-4.00011E-001	0.00000E+000	9	...........	1426.22
	84	106.1	-4.00586E-001	-5.51043E-005	0.00000E+000	-4.00011E-001	0.00000E+000	9	...........	1426.22
	85	116.1	-4.00596E-001	-5.42057E-005	0.00000E+000	-4.00011E-001	0.00000E+000	9	...........	1426.22
	86	216.1	-4.00590E-001	-4.92528E-005	0.00000E+000	-4.00011E-001	0.00000E+000	9	...........	1426.22
	87	300	-4.00604E-001	-4.68785E-005	0.00000E+000	-4.00011E-001	0.00000E+000	9	...........	1426.22
	88	300.1	-5.00602E-001	-3.68957E-004	0.00000E+000	-5.00010E-001	0.00000E+000	9	...........	1426.22
	89	300.2	-5.00592E-001	-2.61878E-004	0.00000E+000	-5.00010E-001	0.00000E+000	9	...........	1426.22
	90	300.3	-5.00607E-001	-2.09993E-004	0.00000E+000	-5.00010E-001	0.00000E+000	9	...........	1426.22
	91	300.4	-5.00592E-001	-1.81815E-004	0.00000E+000	-5.00010E-001	0.00000E+000	9	...........	1426.22
	92	300.5	-5.00590E-001	-1.65132E-004	0.00000E+000	-5.00010E-001	0.00000E+000	9	...........	1426.22
	93	300.6	-5.00583E-001	-1.54450E-004	0.00000E+000	-5.00010E-001	0.00000E+000	9	...........	1426.22
	94	300.7	-5.00595E-001	-1.47239E-004	0.00000E+000	-5.00010E-001	0.00000E+000	9	...........	1426.22
	95	300.8	-5.00585E-001	-1.41974E-004	0.00000E+000	-5.00010E-001	0.00000E+000	9	...........	1426.22
	96	300.9	-5.00606E-001	-1.37997E-004	0.00000E+000	-5.00010E-001	0.00000E+000	9	...........	1426.22
	97	301	-5.00591E-001	-1.34836E-004	0.00000E+000	-5.00010E-001	0.00000E+000	9	...........	1426.22
