EXPLAIN
TAG	CHRONOA
TITLE	LABEL	Chronoamperometry Scan	Test Identifier
DATE	LABEL	17/12/2021	Date
TIME	LABEL	11:04:23	Time
NOTES	NOTES	1	Notes...
	
PSTAT	PSTAT	IFC1010-21051	Potentiostat
VPRESTEP	POTEN	1.00000E-002	F	Pre-step Voltage (V)
TPRESTEP	QUANT	5.00000E-001	Pre-step Delay Time (s)
VSTEP1	POTEN	0.00000E+000	F	Step 1 Voltage (V)
TSTEP1	QUANT	3.00000E+002	Step 1 Time (s)
VSTEP2	POTEN	-1.00000E-001	T	Step 2 Voltage (V)
TSTEP2	QUANT	1.00000E+000	Step 2 Time (s)
SAMPLETIME	QUANT	1.00000E-001	Sample Period (s)
DECIMATE	TOGGLE	T	Decimate
ILIMIT	QUANT	1.00000E+000	Limit I (mA/cm^2)
IMODE	SELECTOR	1	I/E Range Mode
IRANGE	QUANT	3.00000E-001	Max Current (mA)
EQDELAY	QUANT	5.00000E+000	Equil. Time (s)
SAMPLINGMODE	SELECTOR	1	Sampling Mode
AREA	QUANT	1.00000E+000	Sample Area (cm^2)
IRCOMP	SELECTOR	0	IRComp
PFCOR	QUANT	5.00000E+001	PF Corr. (ohm)
SEQUENCER	TOGGLE	TRUE	Run as Sequence
PSTATMODEL	IQUANT	64	Pstat Model
PSTATSECTION	LABEL	IFC1010-21051	Pstat Section
PSTATSERIALNO	LABEL	21051	Pstat Serial Number
CTRLMODE	IQUANT	1	Control Mode
ELECTROMETER	IQUANT	0	RE=0 or CS=1
IESTAB	IQUANT	0	I/E Stability
CASPEED	IQUANT	4	Control Amp Speed
CONVENTION	IQUANT	1	Current Convention
ICHRANGE	IQUANT	2	Ich Range
ICHRANGEMODE	TOGGLE	T	Ich Auto Range
ICHOFFSETENABLE	TOGGLE	F	Ich Offset Enable
ICHOFFSET	QUANT	0	Ich Offset (V)
ICHFILTER	IQUANT	3	Ich Filter
VCHRANGE	IQUANT	3	Vch Range
VCHRANGEMODE	TOGGLE	T	Vch Auto Range
VCHOFFSETENABLE	TOGGLE	F	Vch Offset Enable
VCHOFFSET	QUANT	0	Vch Offset (V)
VCHFILTER	IQUANT	3	Vch Filter
IERANGELOWERLIMIT	IQUANT	4	I/E Range Lower Limit
IERANGEMODE	TOGGLE	F	I/E AutoRange
IERANGE	IQUANT	9	I/E Range
ACHSELECT	IQUANT	0	Ach Select
ACHRANGE	IQUANT	2	Ach Range
ACHOFFSETENABLE	TOGGLE	F	Ach Offset Enable
ACHOFFSET	QUANT	0	Ach Offset (V)
ACHFILTER	IQUANT	1	Ach Filter
SENSECABLEID	IQUANT	14	Sense Cable ID
PWRCABLEID	IQUANT	14	Power Cable ID
DCCALDATE	LABEL	10/1/2020	DC Calibration Date
ACCALDATE	LABEL	4/2/2018	AC Calibration Date
FRAMEWORKVERSION	QUANT	7.06	Framework Version
INSTRUMENTVERSION	LABEL	4.30	Instrument Version
CURVE	TABLE	98
	Pt	T	Vf	Im	Vu	Sig	Ach	IERange	Over	Temp
	#	s	V vs. Ref.	A	V	V	V	#	bits	deg C
	0	-0.4	9.81802E-003	-2.82587E-005	0.00000E+000	1.00559E-002	0.00000E+000	9	...........	1425.69
	1	-0.3	1.00340E-002	-2.79935E-005	0.00000E+000	1.00559E-002	0.00000E+000	9	...........	1425.69
	2	-0.2	1.00842E-002	-2.77412E-005	0.00000E+000	1.00559E-002	0.00000E+000	9	...........	1425.69
	3	-0.1	1.00913E-002	-2.74991E-005	0.00000E+000	1.00559E-002	0.00000E+000	9	...........	1425.69
	4	0	1.00917E-002	-2.72595E-005	0.00000E+000	1.00559E-002	0.00000E+000	9	...........	1425.69
	5	0.1	8.47944E-005	-6.10440E-005	0.00000E+000	5.34840E-005	0.00000E+000	9	...........	1425.69
	6	0.2	8.38062E-005	-5.23099E-005	0.00000E+000	5.34840E-005	0.00000E+000	9	...........	1425.69
	7	0.3	8.33306E-005	-4.67252E-005	0.00000E+000	5.34840E-005	0.00000E+000	9	...........	1425.69
	8	0.4	8.40275E-005	-4.28352E-005	0.00000E+000	5.34840E-005	0.00000E+000	9	...........	1425.69
	9	0.5	8.42597E-005	-3.99794E-005	0.00000E+000	5.34840E-005	0.00000E+000	9	...........	1425.69
	10	0.6	8.35719E-005	-3.78341E-005	0.00000E+000	5.34840E-005	0.00000E+000	9	...........	1425.69
	11	0.7	8.38182E-005	-3.61443E-005	0.00000E+000	5.34840E-005	0.00000E+000	9	...........	1425.69
	12	0.8	8.35268E-005	-3.48045E-005	0.00000E+000	5.34840E-005	0.00000E+000	9	...........	1425.69
	13	0.9	8.27298E-005	-3.36835E-005	0.00000E+000	5.34840E-005	0.00000E+000	9	...........	1425.69
	14	1	8.19489E-005	-3.27741E-005	0.00000E+000	5.34840E-005	0.00000E+000	9	...........	1425.69
	15	1.1	8.25156E-005	-3.19871E-005	0.00000E+000	5.34840E-005	0.00000E+000	9	...........	1425.69
	16	1.2	8.37511E-005	-3.13155E-005	0.00000E+000	5.34840E-005	0.00000E+000	9	...........	1426.04
	17	1.3	8.30382E-005	-3.07327E-005	0.00000E+000	5.34840E-005	0.00000E+000	9	...........	1426.04
	18	1.4	8.21782E-005	-3.02154E-005	0.00000E+000	5.34840E-005	0.00000E+000	9	...........	1426.04
	19	1.5	8.19379E-005	-2.97521E-005	0.00000E+000	5.34840E-005	0.00000E+000	9	...........	1426.04
	20	1.6	8.37121E-005	-2.93208E-005	0.00000E+000	5.34840E-005	0.00000E+000	9	...........	1426.04
	21	1.7	8.33586E-005	-2.89484E-005	0.00000E+000	5.34840E-005	0.00000E+000	9	...........	1426.04
	22	1.8	8.20961E-005	-2.86052E-005	0.00000E+000	5.34840E-005	0.00000E+000	9	...........	1426.04
	23	1.9	8.26527E-005	-2.82753E-005	0.00000E+000	5.34840E-005	0.00000E+000	9	...........	1426.04
	24	2	8.22693E-005	-2.79853E-005	0.00000E+000	5.34840E-005	0.00000E+000	9	...........	1426.04
	25	2.1	8.30352E-005	-2.77004E-005	0.00000E+000	5.34840E-005	0.00000E+000	9	...........	1426.04
	26	2.2	8.29992E-005	-2.74440E-005	0.00000E+000	5.34840E-005	0.00000E+000	9	...........	1425.78
	27	2.3	8.33005E-005	-2.71955E-005	0.00000E+000	5.34840E-005	0.00000E+000	9	...........	1425.78
	28	2.4	8.24815E-005	-2.69657E-005	0.00000E+000	5.34840E-005	0.00000E+000	9	...........	1425.78
	29	2.5	8.29421E-005	-2.67383E-005	0.00000E+000	5.34840E-005	0.00000E+000	9	...........	1425.78
	30	2.6	8.30182E-005	-2.65359E-005	0.00000E+000	5.34840E-005	0.00000E+000	9	...........	1425.78
	31	2.7	8.26597E-005	-2.63334E-005	0.00000E+000	5.34840E-005	0.00000E+000	9	...........	1425.78
	32	2.8	8.37431E-005	-2.61426E-005	0.00000E+000	5.34840E-005	0.00000E+000	9	...........	1425.78
	33	2.9	8.31023E-005	-2.59597E-005	0.00000E+000	5.34840E-005	0.00000E+000	9	...........	1425.78
	34	3	8.22352E-005	-2.57856E-005	0.00000E+000	5.34840E-005	0.00000E+000	9	...........	1425.78
	35	3.1	8.33146E-005	-2.56159E-005	0.00000E+000	5.34840E-005	0.00000E+000	9	...........	1425.78
	36	3.2	8.16165E-005	-2.54541E-005	0.00000E+000	5.34840E-005	0.00000E+000	9	...........	1425.87
	37	3.3	8.24865E-005	-2.52931E-005	0.00000E+000	5.34840E-005	0.00000E+000	9	...........	1425.87
	38	3.4	8.22372E-005	-2.51379E-005	0.00000E+000	5.34840E-005	0.00000E+000	9	...........	1425.87
	39	3.5	8.21011E-005	-2.49871E-005	0.00000E+000	5.34840E-005	0.00000E+000	9	...........	1425.87
	40	3.6	8.19479E-005	-2.48497E-005	0.00000E+000	5.34840E-005	0.00000E+000	9	...........	1425.87
	41	3.7	8.10708E-005	-2.47184E-005	0.00000E+000	5.34840E-005	0.00000E+000	9	...........	1425.87
	42	3.8	8.05281E-005	-2.45783E-005	0.00000E+000	5.34840E-005	0.00000E+000	9	...........	1425.87
	43	3.9	8.13221E-005	-2.44442E-005	0.00000E+000	5.34840E-005	0.00000E+000	9	...........	1425.87
	44	4	8.23013E-005	-2.43206E-005	0.00000E+000	5.34840E-005	0.00000E+000	9	...........	1425.87
	45	4.1	8.24074E-005	-2.41889E-005	0.00000E+000	5.34840E-005	0.00000E+000	9	...........	1425.87
	46	4.2	8.20650E-005	-2.40765E-005	0.00000E+000	5.34840E-005	0.00000E+000	9	...........	1425.95
	47	4.3	8.19158E-005	-2.39513E-005	0.00000E+000	5.34840E-005	0.00000E+000	9	...........	1425.95
	48	4.4	8.15544E-005	-2.38379E-005	0.00000E+000	5.34840E-005	0.00000E+000	9	...........	1425.95
	49	4.5	8.29832E-005	-2.37259E-005	0.00000E+000	5.34840E-005	0.00000E+000	9	...........	1425.95
	50	4.6	8.20330E-005	-2.36178E-005	0.00000E+000	5.34840E-005	0.00000E+000	9	...........	1425.95
	51	4.7	8.16135E-005	-2.35162E-005	0.00000E+000	5.34840E-005	0.00000E+000	9	...........	1425.95
	52	4.8	8.23834E-005	-2.34108E-005	0.00000E+000	5.34840E-005	0.00000E+000	9	...........	1425.95
	53	4.9	8.17056E-005	-2.33161E-005	0.00000E+000	5.34840E-005	0.00000E+000	9	...........	1425.95
	54	5	8.27639E-005	-2.32152E-005	0.00000E+000	5.34840E-005	0.00000E+000	9	...........	1425.95
	55	5.1	8.12620E-005	-2.31172E-005	0.00000E+000	5.34840E-005	0.00000E+000	9	...........	1425.95
	56	5.2	8.13792E-005	-2.30313E-005	0.00000E+000	5.34840E-005	0.00000E+000	9	...........	1425.95
	57	5.3	8.22022E-005	-2.29333E-005	0.00000E+000	5.34840E-005	0.00000E+000	9	...........	1425.95
	58	5.4	8.18127E-005	-2.28425E-005	0.00000E+000	5.34840E-005	0.00000E+000	9	...........	1425.95
	59	5.5	8.26508E-005	-2.27565E-005	0.00000E+000	5.34840E-005	0.00000E+000	9	...........	1425.95
	60	5.6	8.14503E-005	-2.26682E-005	0.00000E+000	5.34840E-005	0.00000E+000	9	...........	1425.95
	61	5.7	8.21351E-005	-2.25849E-005	0.00000E+000	5.34840E-005	0.00000E+000	9	...........	1425.95
	62	5.8	8.17416E-005	-2.24975E-005	0.00000E+000	5.34840E-005	0.00000E+000	9	...........	1425.95
	63	5.9	8.22052E-005	-2.24240E-005	0.00000E+000	5.34840E-005	0.00000E+000	9	...........	1425.95
	64	6	8.21101E-005	-2.23452E-005	0.00000E+000	5.34840E-005	0.00000E+000	9	...........	1425.95
	65	6.1	8.01076E-005	-2.22649E-005	0.00000E+000	5.34840E-005	0.00000E+000	9	...........	1425.95
	66	7.1	8.19759E-005	-2.15133E-005	0.00000E+000	5.34840E-005	0.00000E+000	9	...........	1425.95
	67	8.1	8.29571E-005	-2.08712E-005	0.00000E+000	5.34840E-005	0.00000E+000	9	...........	1425.95
	68	9.1	8.22643E-005	-2.03072E-005	0.00000E+000	5.34840E-005	0.00000E+000	9	...........	1425.95
	69	10.1	8.07744E-005	-1.98091E-005	0.00000E+000	5.34840E-005	0.00000E+000	9	...........	1425.95
	70	11.1	8.12200E-005	-1.93616E-005	0.00000E+000	5.34840E-005	0.00000E+000	9	...........	1425.87
	71	12.1	8.28510E-005	-1.89433E-005	0.00000E+000	5.34840E-005	0.00000E+000	9	...........	1425.95
	72	13.1	8.09186E-005	-1.85997E-005	0.00000E+000	5.34840E-005	0.00000E+000	9	...........	1425.95
	73	14.1	8.22473E-005	-1.82962E-005	0.00000E+000	5.34840E-005	0.00000E+000	9	...........	1425.95
	74	15.1	8.18838E-005	-1.79972E-005	0.00000E+000	5.34840E-005	0.00000E+000	9	...........	1425.95
	75	16.1	8.14463E-005	-1.77235E-005	0.00000E+000	5.34840E-005	0.00000E+000	9	...........	1425.95
	76	26.1	8.10958E-005	-1.54468E-005	0.00000E+000	5.34840E-005	0.00000E+000	9	...........	1426.04
	77	36.1	8.11980E-005	-1.45179E-005	0.00000E+000	5.34840E-005	0.00000E+000	9	...........	1425.95
	78	46.1	8.20090E-005	-1.36872E-005	0.00000E+000	5.34840E-005	0.00000E+000	9	...........	1426.04
	79	56.1	8.14493E-005	-1.34838E-005	0.00000E+000	5.34840E-005	0.00000E+000	9	...........	1425.95
	80	66.1	8.16165E-005	-1.28422E-005	0.00000E+000	5.34840E-005	0.00000E+000	9	...........	1426.04
	81	76.1	8.19579E-005	-1.29535E-005	0.00000E+000	5.34840E-005	0.00000E+000	9	...........	1426.04
	82	86.1	8.26407E-005	-1.26286E-005	0.00000E+000	5.34840E-005	0.00000E+000	9	...........	1426.04
	83	96.1	8.25426E-005	-1.24753E-005	0.00000E+000	5.34840E-005	0.00000E+000	9	...........	1426.04
	84	106.1	8.39323E-005	-1.24870E-005	0.00000E+000	5.34840E-005	0.00000E+000	9	...........	1426.04
	85	116.1	8.18808E-005	-1.24530E-005	0.00000E+000	5.34840E-005	0.00000E+000	9	...........	1426.04
	86	216.1	8.10398E-005	-1.13692E-005	0.00000E+000	5.34840E-005	0.00000E+000	9	...........	1426.04
	87	300	8.19909E-005	-1.09047E-005	0.00000E+000	5.34840E-005	0.00000E+000	9	...........	1426.04
	88	300.1	-3.29021E-002	-3.25314E-004	0.00000E+000	-9.99460E-002	0.00000E+000	9	.........v.	1426.04
	89	300.2	-9.99355E-002	-2.34730E-004	0.00000E+000	-9.99460E-002	0.00000E+000	9	...........	1426.04
	90	300.3	-9.99329E-002	-1.81732E-004	0.00000E+000	-9.99460E-002	0.00000E+000	9	...........	1426.04
	91	300.4	-9.99346E-002	-1.47336E-004	0.00000E+000	-9.99460E-002	0.00000E+000	9	...........	1426.04
	92	300.5	-9.99342E-002	-1.23546E-004	0.00000E+000	-9.99460E-002	0.00000E+000	9	...........	1426.04
	93	300.6	-9.99353E-002	-1.06341E-004	0.00000E+000	-9.99460E-002	0.00000E+000	9	...........	1426.04
	94	300.7	-9.99341E-002	-9.34603E-005	0.00000E+000	-9.99460E-002	0.00000E+000	9	...........	1426.04
	95	300.8	-9.99349E-002	-8.35727E-005	0.00000E+000	-9.99460E-002	0.00000E+000	9	...........	1426.04
	96	300.9	-9.99317E-002	-7.57751E-005	0.00000E+000	-9.99460E-002	0.00000E+000	9	...........	1426.04
	97	301	-9.99357E-002	-6.95501E-005	0.00000E+000	-9.99460E-002	0.00000E+000	9	...........	1426.04
