EXPLAIN
TAG	CHRONOA
TITLE	LABEL	Chronoamperometry Scan	Test Identifier
DATE	LABEL	17/12/2021	Date
TIME	LABEL	16:21:41	Time
NOTES	NOTES	1	Notes...
	
PSTAT	PSTAT	IFC1010-21051	Potentiostat
VPRESTEP	POTEN	-3.00000E-001	F	Pre-step Voltage (V)
TPRESTEP	QUANT	5.00000E-001	Pre-step Delay Time (s)
VSTEP1	POTEN	-4.00000E-001	F	Step 1 Voltage (V)
TSTEP1	QUANT	3.00000E+002	Step 1 Time (s)
VSTEP2	POTEN	-5.00000E-001	F	Step 2 Voltage (V)
TSTEP2	QUANT	1.00000E+000	Step 2 Time (s)
SAMPLETIME	QUANT	1.00000E-001	Sample Period (s)
DECIMATE	TOGGLE	T	Decimate
ILIMIT	QUANT	1.00000E+000	Limit I (mA/cm^2)
IMODE	SELECTOR	1	I/E Range Mode
IRANGE	QUANT	3.00000E-001	Max Current (mA)
EQDELAY	QUANT	5.00000E+000	Equil. Time (s)
SAMPLINGMODE	SELECTOR	1	Sampling Mode
AREA	QUANT	1.00000E+000	Sample Area (cm^2)
IRCOMP	SELECTOR	0	IRComp
PFCOR	QUANT	5.00000E+001	PF Corr. (ohm)
SEQUENCER	TOGGLE	TRUE	Run as Sequence
PSTATMODEL	IQUANT	64	Pstat Model
PSTATSECTION	LABEL	IFC1010-21051	Pstat Section
PSTATSERIALNO	LABEL	21051	Pstat Serial Number
CTRLMODE	IQUANT	1	Control Mode
ELECTROMETER	IQUANT	0	RE=0 or CS=1
IESTAB	IQUANT	0	I/E Stability
CASPEED	IQUANT	4	Control Amp Speed
CONVENTION	IQUANT	1	Current Convention
ICHRANGE	IQUANT	2	Ich Range
ICHRANGEMODE	TOGGLE	T	Ich Auto Range
ICHOFFSETENABLE	TOGGLE	F	Ich Offset Enable
ICHOFFSET	QUANT	0	Ich Offset (V)
ICHFILTER	IQUANT	3	Ich Filter
VCHRANGE	IQUANT	3	Vch Range
VCHRANGEMODE	TOGGLE	T	Vch Auto Range
VCHOFFSETENABLE	TOGGLE	F	Vch Offset Enable
VCHOFFSET	QUANT	0	Vch Offset (V)
VCHFILTER	IQUANT	3	Vch Filter
IERANGELOWERLIMIT	IQUANT	4	I/E Range Lower Limit
IERANGEMODE	TOGGLE	F	I/E AutoRange
IERANGE	IQUANT	9	I/E Range
ACHSELECT	IQUANT	0	Ach Select
ACHRANGE	IQUANT	2	Ach Range
ACHOFFSETENABLE	TOGGLE	F	Ach Offset Enable
ACHOFFSET	QUANT	0	Ach Offset (V)
ACHFILTER	IQUANT	1	Ach Filter
SENSECABLEID	IQUANT	14	Sense Cable ID
PWRCABLEID	IQUANT	14	Power Cable ID
DCCALDATE	LABEL	10/1/2020	DC Calibration Date
ACCALDATE	LABEL	4/2/2018	AC Calibration Date
FRAMEWORKVERSION	QUANT	7.06	Framework Version
INSTRUMENTVERSION	LABEL	4.30	Instrument Version
CURVE	TABLE	98
	Pt	T	Vf	Im	Vu	Sig	Ach	IERange	Over	Temp
	#	s	V vs. Ref.	A	V	V	V	#	bits	deg C
	0	-0.4	-3.00726E-001	-6.16676E-005	0.00000E+000	-3.00011E-001	0.00000E+000	9	...........	1426.13
	1	-0.3	-3.00545E-001	-6.14534E-005	0.00000E+000	-3.00011E-001	0.00000E+000	9	...........	1426.13
	2	-0.2	-3.00548E-001	-6.11946E-005	0.00000E+000	-3.00011E-001	0.00000E+000	9	...........	1426.13
	3	-0.1	-3.00537E-001	-6.09727E-005	0.00000E+000	-3.00011E-001	0.00000E+000	9	...........	1426.13
	4	0	-3.00547E-001	-6.07406E-005	0.00000E+000	-3.00011E-001	0.00000E+000	9	...........	1426.13
	5	0.1	-4.00588E-001	-3.80495E-004	0.00000E+000	-4.00011E-001	0.00000E+000	9	...........	1426.13
	6	0.2	-4.00592E-001	-2.90910E-004	0.00000E+000	-4.00011E-001	0.00000E+000	9	...........	1426.13
	7	0.3	-4.00587E-001	-2.56025E-004	0.00000E+000	-4.00011E-001	0.00000E+000	9	...........	1426.13
	8	0.4	-4.00588E-001	-2.37183E-004	0.00000E+000	-4.00011E-001	0.00000E+000	9	...........	1426.13
	9	0.5	-4.00590E-001	-2.24759E-004	0.00000E+000	-4.00011E-001	0.00000E+000	9	...........	1426.13
	10	0.6	-4.00593E-001	-2.15608E-004	0.00000E+000	-4.00011E-001	0.00000E+000	9	...........	1425.69
	11	0.7	-4.00590E-001	-2.08301E-004	0.00000E+000	-4.00011E-001	0.00000E+000	9	...........	1425.69
	12	0.8	-4.00597E-001	-2.02316E-004	0.00000E+000	-4.00011E-001	0.00000E+000	9	...........	1425.69
	13	0.9	-4.00584E-001	-1.97143E-004	0.00000E+000	-4.00011E-001	0.00000E+000	9	...........	1425.69
	14	1	-4.00597E-001	-1.92671E-004	0.00000E+000	-4.00011E-001	0.00000E+000	9	...........	1425.69
	15	1.1	-4.00582E-001	-1.88644E-004	0.00000E+000	-4.00011E-001	0.00000E+000	9	...........	1425.69
	16	1.2	-4.00607E-001	-1.85105E-004	0.00000E+000	-4.00011E-001	0.00000E+000	9	...........	1425.69
	17	1.3	-4.00601E-001	-1.81858E-004	0.00000E+000	-4.00011E-001	0.00000E+000	9	...........	1425.69
	18	1.4	-4.00599E-001	-1.78889E-004	0.00000E+000	-4.00011E-001	0.00000E+000	9	...........	1425.69
	19	1.5	-4.00588E-001	-1.76153E-004	0.00000E+000	-4.00011E-001	0.00000E+000	9	...........	1425.69
	20	1.6	-4.00587E-001	-1.73585E-004	0.00000E+000	-4.00011E-001	0.00000E+000	9	...........	1426.13
	21	1.7	-4.00586E-001	-1.71253E-004	0.00000E+000	-4.00011E-001	0.00000E+000	9	...........	1426.13
	22	1.8	-4.00591E-001	-1.69051E-004	0.00000E+000	-4.00011E-001	0.00000E+000	9	...........	1426.13
	23	1.9	-4.00587E-001	-1.66920E-004	0.00000E+000	-4.00011E-001	0.00000E+000	9	...........	1426.13
	24	2	-4.00597E-001	-1.65024E-004	0.00000E+000	-4.00011E-001	0.00000E+000	9	...........	1426.13
	25	2.1	-4.00591E-001	-1.63115E-004	0.00000E+000	-4.00011E-001	0.00000E+000	9	...........	1426.13
	26	2.2	-4.00587E-001	-1.61402E-004	0.00000E+000	-4.00011E-001	0.00000E+000	9	...........	1426.13
	27	2.3	-4.00590E-001	-1.59721E-004	0.00000E+000	-4.00011E-001	0.00000E+000	9	...........	1426.13
	28	2.4	-4.00590E-001	-1.58118E-004	0.00000E+000	-4.00011E-001	0.00000E+000	9	...........	1426.13
	29	2.5	-4.00593E-001	-1.56632E-004	0.00000E+000	-4.00011E-001	0.00000E+000	9	...........	1426.13
	30	2.6	-4.00590E-001	-1.55166E-004	0.00000E+000	-4.00011E-001	0.00000E+000	9	...........	1425.87
	31	2.7	-4.00594E-001	-1.53748E-004	0.00000E+000	-4.00011E-001	0.00000E+000	9	...........	1425.87
	32	2.8	-4.00588E-001	-1.52440E-004	0.00000E+000	-4.00011E-001	0.00000E+000	9	...........	1425.87
	33	2.9	-4.00584E-001	-1.51125E-004	0.00000E+000	-4.00011E-001	0.00000E+000	9	...........	1425.87
	34	3	-4.00587E-001	-1.49949E-004	0.00000E+000	-4.00011E-001	0.00000E+000	9	...........	1425.87
	35	3.1	-4.00590E-001	-1.48799E-004	0.00000E+000	-4.00011E-001	0.00000E+000	9	...........	1425.87
	36	3.2	-4.00587E-001	-1.47656E-004	0.00000E+000	-4.00011E-001	0.00000E+000	9	...........	1425.87
	37	3.3	-4.00594E-001	-1.46582E-004	0.00000E+000	-4.00011E-001	0.00000E+000	9	...........	1425.87
	38	3.4	-4.00600E-001	-1.45531E-004	0.00000E+000	-4.00011E-001	0.00000E+000	9	...........	1425.87
	39	3.5	-4.00601E-001	-1.44521E-004	0.00000E+000	-4.00011E-001	0.00000E+000	9	...........	1425.87
	40	3.6	-4.00602E-001	-1.43553E-004	0.00000E+000	-4.00011E-001	0.00000E+000	9	...........	1426.04
	41	3.7	-4.00602E-001	-1.42586E-004	0.00000E+000	-4.00011E-001	0.00000E+000	9	...........	1426.04
	42	3.8	-4.00604E-001	-1.41640E-004	0.00000E+000	-4.00011E-001	0.00000E+000	9	...........	1426.04
	43	3.9	-4.00603E-001	-1.40735E-004	0.00000E+000	-4.00011E-001	0.00000E+000	9	...........	1426.04
	44	4	-4.00590E-001	-1.39858E-004	0.00000E+000	-4.00011E-001	0.00000E+000	9	...........	1426.04
	45	4.1	-4.00584E-001	-1.38994E-004	0.00000E+000	-4.00011E-001	0.00000E+000	9	...........	1426.04
	46	4.2	-4.00591E-001	-1.38205E-004	0.00000E+000	-4.00011E-001	0.00000E+000	9	...........	1426.04
	47	4.3	-4.00581E-001	-1.37346E-004	0.00000E+000	-4.00011E-001	0.00000E+000	9	...........	1426.04
	48	4.4	-4.00595E-001	-1.36630E-004	0.00000E+000	-4.00011E-001	0.00000E+000	9	...........	1426.04
	49	4.5	-4.00590E-001	-1.35845E-004	0.00000E+000	-4.00011E-001	0.00000E+000	9	...........	1426.04
	50	4.6	-4.00583E-001	-1.35032E-004	0.00000E+000	-4.00011E-001	0.00000E+000	9	...........	1425.95
	51	4.7	-4.00593E-001	-1.34370E-004	0.00000E+000	-4.00011E-001	0.00000E+000	9	...........	1425.95
	52	4.8	-4.00598E-001	-1.33677E-004	0.00000E+000	-4.00011E-001	0.00000E+000	9	...........	1425.95
	53	4.9	-4.00599E-001	-1.32972E-004	0.00000E+000	-4.00011E-001	0.00000E+000	9	...........	1425.95
	54	5	-4.00589E-001	-1.32241E-004	0.00000E+000	-4.00011E-001	0.00000E+000	9	...........	1425.95
	55	5.1	-4.00591E-001	-1.31605E-004	0.00000E+000	-4.00011E-001	0.00000E+000	9	...........	1425.95
	56	5.2	-4.00592E-001	-1.30926E-004	0.00000E+000	-4.00011E-001	0.00000E+000	9	...........	1425.95
	57	5.3	-4.00579E-001	-1.30197E-004	0.00000E+000	-4.00011E-001	0.00000E+000	9	...........	1425.95
	58	5.4	-4.00597E-001	-1.29614E-004	0.00000E+000	-4.00011E-001	0.00000E+000	9	...........	1425.95
	59	5.5	-4.00592E-001	-1.28922E-004	0.00000E+000	-4.00011E-001	0.00000E+000	9	...........	1425.95
	60	5.6	-4.00586E-001	-1.28349E-004	0.00000E+000	-4.00011E-001	0.00000E+000	9	...........	1426.13
	61	5.7	-4.00584E-001	-1.27698E-004	0.00000E+000	-4.00011E-001	0.00000E+000	9	...........	1426.13
	62	5.8	-4.00606E-001	-1.27146E-004	0.00000E+000	-4.00011E-001	0.00000E+000	9	...........	1426.13
	63	5.9	-4.00594E-001	-1.26571E-004	0.00000E+000	-4.00011E-001	0.00000E+000	9	...........	1426.13
	64	6	-4.00584E-001	-1.25962E-004	0.00000E+000	-4.00011E-001	0.00000E+000	9	...........	1426.13
	65	6.1	-4.00597E-001	-1.25465E-004	0.00000E+000	-4.00011E-001	0.00000E+000	9	...........	1426.13
	66	7.1	-4.00598E-001	-1.20328E-004	0.00000E+000	-4.00011E-001	0.00000E+000	9	...........	1426.04
	67	8.1	-4.00594E-001	-1.16141E-004	0.00000E+000	-4.00011E-001	0.00000E+000	9	...........	1426.13
	68	9.1	-4.00592E-001	-1.12632E-004	0.00000E+000	-4.00011E-001	0.00000E+000	9	...........	1426.13
	69	10.1	-4.00591E-001	-1.09334E-004	0.00000E+000	-4.00011E-001	0.00000E+000	9	...........	1426.13
	70	11.1	-4.00596E-001	-1.06528E-004	0.00000E+000	-4.00011E-001	0.00000E+000	9	...........	1426.13
	71	12.1	-4.00595E-001	-1.04218E-004	0.00000E+000	-4.00011E-001	0.00000E+000	9	...........	1426.13
	72	13.1	-4.00585E-001	-1.02239E-004	0.00000E+000	-4.00011E-001	0.00000E+000	9	...........	1426.13
	73	14.1	-4.00585E-001	-1.00247E-004	0.00000E+000	-4.00011E-001	0.00000E+000	9	...........	1426.13
	74	15.1	-4.00593E-001	-9.83680E-005	0.00000E+000	-4.00011E-001	0.00000E+000	9	...........	1426.13
	75	16.1	-4.00584E-001	-9.66849E-005	0.00000E+000	-4.00011E-001	0.00000E+000	9	...........	1426.13
	76	26.1	-4.00603E-001	-8.43851E-005	0.00000E+000	-4.00011E-001	0.00000E+000	9	...........	1426.13
	77	36.1	-4.00588E-001	-7.65729E-005	0.00000E+000	-4.00011E-001	0.00000E+000	9	...........	1426.22
	78	46.1	-4.00590E-001	-7.19234E-005	0.00000E+000	-4.00011E-001	0.00000E+000	9	...........	1426.22
	79	56.1	-4.00581E-001	-6.83931E-005	0.00000E+000	-4.00011E-001	0.00000E+000	9	...........	1426.22
	80	66.1	-4.00590E-001	-6.51843E-005	0.00000E+000	-4.00011E-001	0.00000E+000	9	...........	1426.22
	81	76.1	-4.00570E-001	-6.33639E-005	0.00000E+000	-4.00011E-001	0.00000E+000	9	...........	1426.22
	82	86.1	-4.00596E-001	-6.08359E-005	0.00000E+000	-4.00011E-001	0.00000E+000	9	...........	1426.22
	83	96.1	-4.00581E-001	-5.97543E-005	0.00000E+000	-4.00011E-001	0.00000E+000	9	...........	1426.22
	84	106.1	-4.00587E-001	-5.80508E-005	0.00000E+000	-4.00011E-001	0.00000E+000	9	...........	1426.22
	85	116.1	-4.00598E-001	-5.72941E-005	0.00000E+000	-4.00011E-001	0.00000E+000	9	...........	1426.22
	86	216.1	-4.00592E-001	-5.16063E-005	0.00000E+000	-4.00011E-001	0.00000E+000	9	...........	1426.22
	87	300	-4.00589E-001	-4.97741E-005	0.00000E+000	-4.00011E-001	0.00000E+000	9	...........	1426.22
	88	300.1	-5.00589E-001	-3.55040E-004	0.00000E+000	-5.00010E-001	0.00000E+000	9	...........	1426.22
	89	300.2	-5.00594E-001	-2.49092E-004	0.00000E+000	-5.00010E-001	0.00000E+000	9	...........	1426.22
	90	300.3	-5.00604E-001	-2.13531E-004	0.00000E+000	-5.00010E-001	0.00000E+000	9	...........	1426.22
	91	300.4	-5.00602E-001	-1.98583E-004	0.00000E+000	-5.00010E-001	0.00000E+000	9	...........	1426.22
	92	300.5	-5.00587E-001	-1.90746E-004	0.00000E+000	-5.00010E-001	0.00000E+000	9	...........	1426.22
	93	300.6	-5.00595E-001	-1.85709E-004	0.00000E+000	-5.00010E-001	0.00000E+000	9	...........	1426.22
	94	300.7	-5.00598E-001	-1.82004E-004	0.00000E+000	-5.00010E-001	0.00000E+000	9	...........	1426.22
	95	300.8	-5.00599E-001	-1.78994E-004	0.00000E+000	-5.00010E-001	0.00000E+000	9	...........	1426.22
	96	300.9	-5.00603E-001	-1.76460E-004	0.00000E+000	-5.00010E-001	0.00000E+000	9	...........	1426.22
	97	301	-5.00597E-001	-1.74177E-004	0.00000E+000	-5.00010E-001	0.00000E+000	9	...........	1426.22
