EXPLAIN
TAG	CHRONOA
TITLE	LABEL	Chronoamperometry Scan	Test Identifier
DATE	LABEL	7/2/2022	Date
TIME	LABEL	17:24:19	Time
NOTES	NOTES	1	Notes...
	
PSTAT	PSTAT	IFC1010-21051	Potentiostat
VPRESTEP	POTEN	1.00000E-002	F	Pre-step Voltage (V)
TPRESTEP	QUANT	5.00000E-001	Pre-step Delay Time (s)
VSTEP1	POTEN	0.00000E+000	F	Step 1 Voltage (V)
TSTEP1	QUANT	3.00000E+002	Step 1 Time (s)
VSTEP2	POTEN	-1.00000E-001	F	Step 2 Voltage (V)
TSTEP2	QUANT	1.00000E+000	Step 2 Time (s)
SAMPLETIME	QUANT	1.00000E-001	Sample Period (s)
DECIMATE	TOGGLE	T	Decimate
ILIMIT	QUANT	1.00000E+000	Limit I (mA/cm^2)
IMODE	SELECTOR	1	I/E Range Mode
IRANGE	QUANT	3.00000E-001	Max Current (mA)
EQDELAY	QUANT	5.00000E+000	Equil. Time (s)
SAMPLINGMODE	SELECTOR	1	Sampling Mode
AREA	QUANT	1.00000E+000	Sample Area (cm^2)
IRCOMP	SELECTOR	0	IRComp
PFCOR	QUANT	5.00000E+001	PF Corr. (ohm)
SEQUENCER	TOGGLE	TRUE	Run as Sequence
PSTATMODEL	IQUANT	64	Pstat Model
PSTATSECTION	LABEL	IFC1010-21051	Pstat Section
PSTATSERIALNO	LABEL	21051	Pstat Serial Number
CTRLMODE	IQUANT	1	Control Mode
ELECTROMETER	IQUANT	0	RE=0 or CS=1
IESTAB	IQUANT	0	I/E Stability
CASPEED	IQUANT	4	Control Amp Speed
CONVENTION	IQUANT	1	Current Convention
ICHRANGE	IQUANT	2	Ich Range
ICHRANGEMODE	TOGGLE	T	Ich Auto Range
ICHOFFSETENABLE	TOGGLE	F	Ich Offset Enable
ICHOFFSET	QUANT	0	Ich Offset (V)
ICHFILTER	IQUANT	3	Ich Filter
VCHRANGE	IQUANT	3	Vch Range
VCHRANGEMODE	TOGGLE	T	Vch Auto Range
VCHOFFSETENABLE	TOGGLE	F	Vch Offset Enable
VCHOFFSET	QUANT	0	Vch Offset (V)
VCHFILTER	IQUANT	3	Vch Filter
IERANGELOWERLIMIT	IQUANT	4	I/E Range Lower Limit
IERANGEMODE	TOGGLE	F	I/E AutoRange
IERANGE	IQUANT	9	I/E Range
ACHSELECT	IQUANT	0	Ach Select
ACHRANGE	IQUANT	2	Ach Range
ACHOFFSETENABLE	TOGGLE	F	Ach Offset Enable
ACHOFFSET	QUANT	0	Ach Offset (V)
ACHFILTER	IQUANT	1	Ach Filter
SENSECABLEID	IQUANT	14	Sense Cable ID
PWRCABLEID	IQUANT	14	Power Cable ID
DCCALDATE	LABEL	1/24/2022	DC Calibration Date
ACCALDATE	LABEL	4/2/2018	AC Calibration Date
FRAMEWORKVERSION	QUANT	7.06	Framework Version
INSTRUMENTVERSION	LABEL	4.30	Instrument Version
CURVE	TABLE	98
	Pt	T	Vf	Im	Vu	Sig	Ach	IERange	Over	Temp
	#	s	V vs. Ref.	A	V	V	V	#	bits	deg C
	0	-0.4	9.17226E-003	-1.27852E-005	0.00000E+000	1.00559E-002	0.00000E+000	9	...........	1426.22
	1	-0.3	9.88441E-003	-1.26917E-005	0.00000E+000	1.00559E-002	0.00000E+000	9	...........	1426.22
	2	-0.2	1.00371E-002	-1.26075E-005	0.00000E+000	1.00559E-002	0.00000E+000	9	...........	1426.22
	3	-0.1	1.00520E-002	-1.25153E-005	0.00000E+000	1.00559E-002	0.00000E+000	9	...........	1426.22
	4	0	1.00508E-002	-1.24221E-005	0.00000E+000	1.00559E-002	0.00000E+000	9	...........	1426.22
	5	0.1	4.40782E-005	-3.63248E-005	0.00000E+000	5.34840E-005	0.00000E+000	9	...........	1426.22
	6	0.2	4.38929E-005	-2.37602E-005	0.00000E+000	5.34840E-005	0.00000E+000	9	...........	1426.22
	7	0.3	4.31600E-005	-1.97612E-005	0.00000E+000	5.34840E-005	0.00000E+000	9	...........	1426.22
	8	0.4	4.43745E-005	-1.81257E-005	0.00000E+000	5.34840E-005	0.00000E+000	9	...........	1426.22
	9	0.5	4.47029E-005	-1.72778E-005	0.00000E+000	5.34840E-005	0.00000E+000	9	...........	1425.78
	10	0.6	4.44416E-005	-1.67594E-005	0.00000E+000	5.34840E-005	0.00000E+000	9	...........	1425.78
	11	0.7	4.36566E-005	-1.63780E-005	0.00000E+000	5.34840E-005	0.00000E+000	9	...........	1425.78
	12	0.8	4.38268E-005	-1.60787E-005	0.00000E+000	5.34840E-005	0.00000E+000	9	...........	1425.78
	13	0.9	4.51064E-005	-1.58217E-005	0.00000E+000	5.34840E-005	0.00000E+000	9	...........	1425.78
	14	1	4.41182E-005	-1.56185E-005	0.00000E+000	5.34840E-005	0.00000E+000	9	...........	1425.78
	15	1.1	4.36186E-005	-1.54247E-005	0.00000E+000	5.34840E-005	0.00000E+000	9	...........	1425.78
	16	1.2	4.40581E-005	-1.52553E-005	0.00000E+000	5.34840E-005	0.00000E+000	9	...........	1425.78
	17	1.3	4.46338E-005	-1.50826E-005	0.00000E+000	5.34840E-005	0.00000E+000	9	...........	1425.78
	18	1.4	4.43605E-005	-1.49466E-005	0.00000E+000	5.34840E-005	0.00000E+000	9	...........	1425.78
	19	1.5	4.33012E-005	-1.48126E-005	0.00000E+000	5.34840E-005	0.00000E+000	9	...........	1426.49
	20	1.6	4.44376E-005	-1.46887E-005	0.00000E+000	5.34840E-005	0.00000E+000	9	...........	1426.49
	21	1.7	4.37307E-005	-1.45547E-005	0.00000E+000	5.34840E-005	0.00000E+000	9	...........	1426.49
	22	1.8	4.36927E-005	-1.44429E-005	0.00000E+000	5.34840E-005	0.00000E+000	9	...........	1426.49
	23	1.9	4.43104E-005	-1.43378E-005	0.00000E+000	5.34840E-005	0.00000E+000	9	...........	1426.49
	24	2	4.36737E-005	-1.42241E-005	0.00000E+000	5.34840E-005	0.00000E+000	9	...........	1426.49
	25	2.1	4.32191E-005	-1.41144E-005	0.00000E+000	5.34840E-005	0.00000E+000	9	...........	1426.49
	26	2.2	4.43014E-005	-1.40248E-005	0.00000E+000	5.34840E-005	0.00000E+000	9	...........	1426.49
	27	2.3	4.33893E-005	-1.39355E-005	0.00000E+000	5.34840E-005	0.00000E+000	9	...........	1426.49
	28	2.4	4.37938E-005	-1.38418E-005	0.00000E+000	5.34840E-005	0.00000E+000	9	...........	1426.49
	29	2.5	4.43125E-005	-1.37501E-005	0.00000E+000	5.34840E-005	0.00000E+000	9	...........	1426.49
	30	2.6	4.44676E-005	-1.36632E-005	0.00000E+000	5.34840E-005	0.00000E+000	9	...........	1426.49
	31	2.7	4.24562E-005	-1.35872E-005	0.00000E+000	5.34840E-005	0.00000E+000	9	...........	1426.49
	32	2.8	4.41703E-005	-1.35082E-005	0.00000E+000	5.34840E-005	0.00000E+000	9	...........	1426.49
	33	2.9	4.25793E-005	-1.34430E-005	0.00000E+000	5.34840E-005	0.00000E+000	9	...........	1426.49
	34	3	4.38549E-005	-1.33601E-005	0.00000E+000	5.34840E-005	0.00000E+000	9	...........	1426.49
	35	3.1	4.32531E-005	-1.32867E-005	0.00000E+000	5.34840E-005	0.00000E+000	9	...........	1426.49
	36	3.2	4.30669E-005	-1.32248E-005	0.00000E+000	5.34840E-005	0.00000E+000	9	...........	1426.49
	37	3.3	4.36186E-005	-1.31635E-005	0.00000E+000	5.34840E-005	0.00000E+000	9	...........	1426.49
	38	3.4	4.43655E-005	-1.30980E-005	0.00000E+000	5.34840E-005	0.00000E+000	9	...........	1426.49
	39	3.5	4.32602E-005	-1.30398E-005	0.00000E+000	5.34840E-005	0.00000E+000	9	...........	1426.49
	40	3.6	4.31991E-005	-1.29988E-005	0.00000E+000	5.34840E-005	0.00000E+000	9	...........	1426.49
	41	3.7	4.37748E-005	-1.29292E-005	0.00000E+000	5.34840E-005	0.00000E+000	9	...........	1426.49
	42	3.8	4.41803E-005	-1.28784E-005	0.00000E+000	5.34840E-005	0.00000E+000	9	...........	1426.49
	43	3.9	4.38909E-005	-1.28250E-005	0.00000E+000	5.34840E-005	0.00000E+000	9	...........	1426.49
	44	4	4.23450E-005	-1.27703E-005	0.00000E+000	5.34840E-005	0.00000E+000	9	...........	1426.49
	45	4.1	4.33523E-005	-1.27277E-005	0.00000E+000	5.34840E-005	0.00000E+000	9	...........	1426.49
	46	4.2	4.36917E-005	-1.26752E-005	0.00000E+000	5.34840E-005	0.00000E+000	9	...........	1426.49
	47	4.3	4.37337E-005	-1.26317E-005	0.00000E+000	5.34840E-005	0.00000E+000	9	...........	1426.49
	48	4.4	4.36827E-005	-1.25794E-005	0.00000E+000	5.34840E-005	0.00000E+000	9	...........	1426.49
	49	4.5	4.38959E-005	-1.25416E-005	0.00000E+000	5.34840E-005	0.00000E+000	9	...........	1426.49
	50	4.6	4.44586E-005	-1.24971E-005	0.00000E+000	5.34840E-005	0.00000E+000	9	...........	1426.49
	51	4.7	4.34464E-005	-1.24551E-005	0.00000E+000	5.34840E-005	0.00000E+000	9	...........	1426.49
	52	4.8	4.30018E-005	-1.24158E-005	0.00000E+000	5.34840E-005	0.00000E+000	9	...........	1426.49
	53	4.9	4.31100E-005	-1.23700E-005	0.00000E+000	5.34840E-005	0.00000E+000	9	...........	1426.49
	54	5	4.25703E-005	-1.23292E-005	0.00000E+000	5.34840E-005	0.00000E+000	9	...........	1426.49
	55	5.1	4.32371E-005	-1.22877E-005	0.00000E+000	5.34840E-005	0.00000E+000	9	...........	1426.49
	56	5.2	4.41813E-005	-1.22404E-005	0.00000E+000	5.34840E-005	0.00000E+000	9	...........	1426.49
	57	5.3	4.20627E-005	-1.22026E-005	0.00000E+000	5.34840E-005	0.00000E+000	9	...........	1426.49
	58	5.4	4.25883E-005	-1.21498E-005	0.00000E+000	5.34840E-005	0.00000E+000	9	...........	1426.49
	59	5.5	4.32341E-005	-1.21161E-005	0.00000E+000	5.34840E-005	0.00000E+000	9	...........	1426.49
	60	5.6	4.26654E-005	-1.20691E-005	0.00000E+000	5.34840E-005	0.00000E+000	9	...........	1426.49
	61	5.7	4.26784E-005	-1.20277E-005	0.00000E+000	5.34840E-005	0.00000E+000	9	...........	1426.49
	62	5.8	4.42944E-005	-1.19847E-005	0.00000E+000	5.34840E-005	0.00000E+000	9	...........	1426.49
	63	5.9	4.30349E-005	-1.19343E-005	0.00000E+000	5.34840E-005	0.00000E+000	9	...........	1426.49
	64	6	4.39340E-005	-1.18975E-005	0.00000E+000	5.34840E-005	0.00000E+000	9	...........	1426.49
	65	6.1	4.23130E-005	-1.18534E-005	0.00000E+000	5.34840E-005	0.00000E+000	9	...........	1426.49
	66	7.1	4.26564E-005	-1.14894E-005	0.00000E+000	5.34840E-005	0.00000E+000	9	...........	1426.49
	67	8.1	4.36707E-005	-1.11734E-005	0.00000E+000	5.34840E-005	0.00000E+000	9	...........	1426.49
	68	9.1	4.37598E-005	-1.08957E-005	0.00000E+000	5.34840E-005	0.00000E+000	9	...........	1426.49
	69	10.1	4.24962E-005	-1.06236E-005	0.00000E+000	5.34840E-005	0.00000E+000	9	...........	1426.49
	70	11.1	4.31670E-005	-1.02934E-005	0.00000E+000	5.34840E-005	0.00000E+000	9	...........	1426.57
	71	12.1	4.34203E-005	-1.00103E-005	0.00000E+000	5.34840E-005	0.00000E+000	9	...........	1426.49
	72	13.1	4.19585E-005	-9.79803E-006	0.00000E+000	5.34840E-005	0.00000E+000	9	...........	1426.57
	73	14.1	4.18965E-005	-9.58177E-006	0.00000E+000	5.34840E-005	0.00000E+000	9	...........	1426.49
	74	15.1	4.27726E-005	-9.34723E-006	0.00000E+000	5.34840E-005	0.00000E+000	9	...........	1426.57
	75	16.1	4.26534E-005	-9.12947E-006	0.00000E+000	5.34840E-005	0.00000E+000	9	...........	1426.57
	76	26.1	4.36977E-005	-8.10959E-006	0.00000E+000	5.34840E-005	0.00000E+000	9	...........	1426.57
	77	36.1	4.36186E-005	-7.52825E-006	0.00000E+000	5.34840E-005	0.00000E+000	9	...........	1426.49
	78	46.1	4.35815E-005	-7.24329E-006	0.00000E+000	5.34840E-005	0.00000E+000	9	...........	1426.57
	79	56.1	4.38769E-005	-7.43245E-006	0.00000E+000	5.34840E-005	0.00000E+000	9	...........	1426.57
	80	66.1	4.16312E-005	-7.21409E-006	0.00000E+000	5.34840E-005	0.00000E+000	9	...........	1426.57
	81	76.1	4.48671E-005	-6.86931E-006	0.00000E+000	5.34840E-005	0.00000E+000	9	...........	1426.57
	82	86.1	4.18494E-005	-6.50176E-006	0.00000E+000	5.34840E-005	0.00000E+000	9	...........	1426.57
	83	96.1	4.50704E-005	-6.81842E-006	0.00000E+000	5.34840E-005	0.00000E+000	9	...........	1426.57
	84	106.1	4.48031E-005	-6.90067E-006	0.00000E+000	5.34840E-005	0.00000E+000	9	...........	1426.57
	85	116.1	4.15410E-005	-6.38274E-006	0.00000E+000	5.34840E-005	0.00000E+000	9	...........	1426.57
	86	216.1	4.54418E-005	-6.18190E-006	0.00000E+000	5.34840E-005	0.00000E+000	9	...........	1426.57
	87	300	4.21978E-005	-6.32891E-006	0.00000E+000	5.34840E-005	0.00000E+000	9	...........	1426.57
	88	300.1	-3.29270E-002	-2.64778E-004	0.00000E+000	-9.99460E-002	0.00000E+000	9	.........v.	1426.57
	89	300.2	-9.99843E-002	-1.45093E-004	0.00000E+000	-9.99460E-002	0.00000E+000	9	...........	1426.57
	90	300.3	-9.99827E-002	-1.09578E-004	0.00000E+000	-9.99460E-002	0.00000E+000	9	...........	1426.57
	91	300.4	-9.99826E-002	-9.61787E-005	0.00000E+000	-9.99460E-002	0.00000E+000	9	...........	1426.57
	92	300.5	-9.99820E-002	-8.95046E-005	0.00000E+000	-9.99460E-002	0.00000E+000	9	...........	1426.66
	93	300.6	-9.99815E-002	-8.52923E-005	0.00000E+000	-9.99460E-002	0.00000E+000	9	...........	1426.66
	94	300.7	-9.99825E-002	-8.21534E-005	0.00000E+000	-9.99460E-002	0.00000E+000	9	...........	1426.66
	95	300.8	-9.99841E-002	-7.96492E-005	0.00000E+000	-9.99460E-002	0.00000E+000	9	...........	1426.66
	96	300.9	-9.99832E-002	-7.74989E-005	0.00000E+000	-9.99460E-002	0.00000E+000	9	...........	1426.66
	97	301	-9.99828E-002	-7.56177E-005	0.00000E+000	-9.99460E-002	0.00000E+000	9	...........	1426.66
