EXPLAIN
TAG	CHRONOA
TITLE	LABEL	Chronoamperometry Scan	Test Identifier
DATE	LABEL	7/2/2022	Date
TIME	LABEL	17:34:31	Time
NOTES	NOTES	1	Notes...
	
PSTAT	PSTAT	IFC1010-21051	Potentiostat
VPRESTEP	POTEN	3.00000E-001	F	Pre-step Voltage (V)
TPRESTEP	QUANT	5.00000E-001	Pre-step Delay Time (s)
VSTEP1	POTEN	4.00000E-001	F	Step 1 Voltage (V)
TSTEP1	QUANT	3.00000E+002	Step 1 Time (s)
VSTEP2	POTEN	3.00000E-001	F	Step 2 Voltage (V)
TSTEP2	QUANT	1.00000E+000	Step 2 Time (s)
SAMPLETIME	QUANT	1.00000E-001	Sample Period (s)
DECIMATE	TOGGLE	T	Decimate
ILIMIT	QUANT	1.00000E+000	Limit I (mA/cm^2)
IMODE	SELECTOR	1	I/E Range Mode
IRANGE	QUANT	3.00000E-001	Max Current (mA)
EQDELAY	QUANT	5.00000E+000	Equil. Time (s)
SAMPLINGMODE	SELECTOR	1	Sampling Mode
AREA	QUANT	1.00000E+000	Sample Area (cm^2)
IRCOMP	SELECTOR	0	IRComp
PFCOR	QUANT	5.00000E+001	PF Corr. (ohm)
SEQUENCER	TOGGLE	TRUE	Run as Sequence
PSTATMODEL	IQUANT	64	Pstat Model
PSTATSECTION	LABEL	IFC1010-21051	Pstat Section
PSTATSERIALNO	LABEL	21051	Pstat Serial Number
CTRLMODE	IQUANT	1	Control Mode
ELECTROMETER	IQUANT	0	RE=0 or CS=1
IESTAB	IQUANT	0	I/E Stability
CASPEED	IQUANT	4	Control Amp Speed
CONVENTION	IQUANT	1	Current Convention
ICHRANGE	IQUANT	2	Ich Range
ICHRANGEMODE	TOGGLE	T	Ich Auto Range
ICHOFFSETENABLE	TOGGLE	F	Ich Offset Enable
ICHOFFSET	QUANT	0	Ich Offset (V)
ICHFILTER	IQUANT	3	Ich Filter
VCHRANGE	IQUANT	3	Vch Range
VCHRANGEMODE	TOGGLE	T	Vch Auto Range
VCHOFFSETENABLE	TOGGLE	F	Vch Offset Enable
VCHOFFSET	QUANT	0	Vch Offset (V)
VCHFILTER	IQUANT	3	Vch Filter
IERANGELOWERLIMIT	IQUANT	4	I/E Range Lower Limit
IERANGEMODE	TOGGLE	F	I/E AutoRange
IERANGE	IQUANT	9	I/E Range
ACHSELECT	IQUANT	0	Ach Select
ACHRANGE	IQUANT	2	Ach Range
ACHOFFSETENABLE	TOGGLE	F	Ach Offset Enable
ACHOFFSET	QUANT	0	Ach Offset (V)
ACHFILTER	IQUANT	1	Ach Filter
SENSECABLEID	IQUANT	14	Sense Cable ID
PWRCABLEID	IQUANT	14	Power Cable ID
DCCALDATE	LABEL	1/24/2022	DC Calibration Date
ACCALDATE	LABEL	4/2/2018	AC Calibration Date
FRAMEWORKVERSION	QUANT	7.06	Framework Version
INSTRUMENTVERSION	LABEL	4.30	Instrument Version
CURVE	TABLE	98
	Pt	T	Vf	Im	Vu	Sig	Ach	IERange	Over	Temp
	#	s	V vs. Ref.	A	V	V	V	#	bits	deg C
	0	-0.4	2.99546E-001	2.19651E-005	0.00000E+000	3.00072E-001	0.00000E+000	9	...........	1426.22
	1	-0.3	3.00315E-001	2.17743E-005	0.00000E+000	3.00072E-001	0.00000E+000	9	...........	1426.22
	2	-0.2	3.00305E-001	2.15787E-005	0.00000E+000	3.00072E-001	0.00000E+000	9	...........	1426.22
	3	-0.1	3.00302E-001	2.13851E-005	0.00000E+000	3.00072E-001	0.00000E+000	9	...........	1426.22
	4	0	3.00305E-001	2.12452E-005	0.00000E+000	3.00072E-001	0.00000E+000	9	...........	1426.22
	5	0.1	4.00348E-001	6.28629E-004	0.00000E+000	4.00072E-001	0.00000E+000	9	...........	1426.22
	6	0.2	4.00343E-001	5.39020E-004	0.00000E+000	4.00072E-001	0.00000E+000	9	...........	1426.22
	7	0.3	4.00344E-001	4.78666E-004	0.00000E+000	4.00072E-001	0.00000E+000	9	...........	1426.22
	8	0.4	4.00353E-001	4.34236E-004	0.00000E+000	4.00072E-001	0.00000E+000	9	...........	1426.22
	9	0.5	4.00360E-001	3.99756E-004	0.00000E+000	4.00072E-001	0.00000E+000	9	...........	1426.22
	10	0.6	4.00349E-001	3.72160E-004	0.00000E+000	4.00072E-001	0.00000E+000	9	...........	1426.22
	11	0.7	4.00362E-001	3.49325E-004	0.00000E+000	4.00072E-001	0.00000E+000	9	...........	1426.22
	12	0.8	4.00343E-001	3.30071E-004	0.00000E+000	4.00072E-001	0.00000E+000	9	...........	1426.22
	13	0.9	4.00339E-001	3.13508E-004	0.00000E+000	4.00072E-001	0.00000E+000	9	...........	1426.22
	14	1	4.00349E-001	2.98997E-004	0.00000E+000	4.00072E-001	0.00000E+000	9	...........	1426.22
	15	1.1	4.00346E-001	2.86174E-004	0.00000E+000	4.00072E-001	0.00000E+000	9	...........	1426.22
	16	1.2	4.00342E-001	2.74756E-004	0.00000E+000	4.00072E-001	0.00000E+000	9	...........	1426.22
	17	1.3	4.00346E-001	2.64429E-004	0.00000E+000	4.00072E-001	0.00000E+000	9	...........	1425.78
	18	1.4	4.00336E-001	2.55064E-004	0.00000E+000	4.00072E-001	0.00000E+000	9	...........	1425.78
	19	1.5	4.00347E-001	2.46530E-004	0.00000E+000	4.00072E-001	0.00000E+000	9	...........	1425.78
	20	1.6	4.00368E-001	2.38724E-004	0.00000E+000	4.00072E-001	0.00000E+000	9	...........	1425.78
	21	1.7	4.00359E-001	2.31455E-004	0.00000E+000	4.00072E-001	0.00000E+000	9	...........	1425.78
	22	1.8	4.00349E-001	2.24748E-004	0.00000E+000	4.00072E-001	0.00000E+000	9	...........	1425.78
	23	1.9	4.00361E-001	2.18444E-004	0.00000E+000	4.00072E-001	0.00000E+000	9	...........	1425.78
	24	2	4.00354E-001	2.12569E-004	0.00000E+000	4.00072E-001	0.00000E+000	9	...........	1425.78
	25	2.1	4.00340E-001	2.07039E-004	0.00000E+000	4.00072E-001	0.00000E+000	9	...........	1425.78
	26	2.2	4.00356E-001	2.01840E-004	0.00000E+000	4.00072E-001	0.00000E+000	9	...........	1425.78
	27	2.3	4.00365E-001	1.96947E-004	0.00000E+000	4.00072E-001	0.00000E+000	9	...........	1425.87
	28	2.4	4.00351E-001	1.92358E-004	0.00000E+000	4.00072E-001	0.00000E+000	9	...........	1425.87
	29	2.5	4.00336E-001	1.87969E-004	0.00000E+000	4.00072E-001	0.00000E+000	9	...........	1425.87
	30	2.6	4.00349E-001	1.83727E-004	0.00000E+000	4.00072E-001	0.00000E+000	9	...........	1425.87
	31	2.7	4.00354E-001	1.79760E-004	0.00000E+000	4.00072E-001	0.00000E+000	9	...........	1425.87
	32	2.8	4.00358E-001	1.75892E-004	0.00000E+000	4.00072E-001	0.00000E+000	9	...........	1425.87
	33	2.9	4.00353E-001	1.72189E-004	0.00000E+000	4.00072E-001	0.00000E+000	9	...........	1425.87
	34	3	4.00352E-001	1.68654E-004	0.00000E+000	4.00072E-001	0.00000E+000	9	...........	1425.87
	35	3.1	4.00360E-001	1.65258E-004	0.00000E+000	4.00072E-001	0.00000E+000	9	...........	1425.87
	36	3.2	4.00348E-001	1.62021E-004	0.00000E+000	4.00072E-001	0.00000E+000	9	...........	1425.87
	37	3.3	4.00349E-001	1.58873E-004	0.00000E+000	4.00072E-001	0.00000E+000	9	...........	1426.13
	38	3.4	4.00348E-001	1.55850E-004	0.00000E+000	4.00072E-001	0.00000E+000	9	...........	1426.13
	39	3.5	4.00346E-001	1.52906E-004	0.00000E+000	4.00072E-001	0.00000E+000	9	...........	1426.13
	40	3.6	4.00351E-001	1.50069E-004	0.00000E+000	4.00072E-001	0.00000E+000	9	...........	1426.13
	41	3.7	4.00364E-001	1.47344E-004	0.00000E+000	4.00072E-001	0.00000E+000	9	...........	1426.13
	42	3.8	4.00347E-001	1.44785E-004	0.00000E+000	4.00072E-001	0.00000E+000	9	...........	1426.13
	43	3.9	4.00349E-001	1.42281E-004	0.00000E+000	4.00072E-001	0.00000E+000	9	...........	1426.13
	44	4	4.00349E-001	1.39821E-004	0.00000E+000	4.00072E-001	0.00000E+000	9	...........	1426.13
	45	4.1	4.00342E-001	1.37542E-004	0.00000E+000	4.00072E-001	0.00000E+000	9	...........	1426.13
	46	4.2	4.00349E-001	1.35283E-004	0.00000E+000	4.00072E-001	0.00000E+000	9	...........	1426.13
	47	4.3	4.00347E-001	1.33115E-004	0.00000E+000	4.00072E-001	0.00000E+000	9	...........	1426.22
	48	4.4	4.00340E-001	1.30963E-004	0.00000E+000	4.00072E-001	0.00000E+000	9	...........	1426.22
	49	4.5	4.00353E-001	1.28909E-004	0.00000E+000	4.00072E-001	0.00000E+000	9	...........	1426.22
	50	4.6	4.00340E-001	1.26956E-004	0.00000E+000	4.00072E-001	0.00000E+000	9	...........	1426.22
	51	4.7	4.00348E-001	1.25083E-004	0.00000E+000	4.00072E-001	0.00000E+000	9	...........	1426.22
	52	4.8	4.00347E-001	1.23258E-004	0.00000E+000	4.00072E-001	0.00000E+000	9	...........	1426.22
	53	4.9	4.00349E-001	1.21494E-004	0.00000E+000	4.00072E-001	0.00000E+000	9	...........	1426.22
	54	5	4.00351E-001	1.19737E-004	0.00000E+000	4.00072E-001	0.00000E+000	9	...........	1426.22
	55	5.1	4.00355E-001	1.18040E-004	0.00000E+000	4.00072E-001	0.00000E+000	9	...........	1426.22
	56	5.2	4.00354E-001	1.16403E-004	0.00000E+000	4.00072E-001	0.00000E+000	9	...........	1426.22
	57	5.3	4.00354E-001	1.14768E-004	0.00000E+000	4.00072E-001	0.00000E+000	9	...........	1425.95
	58	5.4	4.00349E-001	1.13259E-004	0.00000E+000	4.00072E-001	0.00000E+000	9	...........	1425.95
	59	5.5	4.00343E-001	1.11703E-004	0.00000E+000	4.00072E-001	0.00000E+000	9	...........	1425.95
	60	5.6	4.00351E-001	1.10331E-004	0.00000E+000	4.00072E-001	0.00000E+000	9	...........	1425.95
	61	5.7	4.00359E-001	1.08939E-004	0.00000E+000	4.00072E-001	0.00000E+000	9	...........	1425.95
	62	5.8	4.00355E-001	1.07556E-004	0.00000E+000	4.00072E-001	0.00000E+000	9	...........	1425.95
	63	5.9	4.00354E-001	1.06194E-004	0.00000E+000	4.00072E-001	0.00000E+000	9	...........	1425.95
	64	6	4.00347E-001	1.04861E-004	0.00000E+000	4.00072E-001	0.00000E+000	9	...........	1425.95
	65	6.1	4.00348E-001	1.03534E-004	0.00000E+000	4.00072E-001	0.00000E+000	9	...........	1425.95
	66	7.1	4.00360E-001	9.28385E-005	0.00000E+000	4.00072E-001	0.00000E+000	9	...........	1426.13
	67	8.1	4.00357E-001	8.42155E-005	0.00000E+000	4.00072E-001	0.00000E+000	9	...........	1426.13
	68	9.1	4.00347E-001	7.76024E-005	0.00000E+000	4.00072E-001	0.00000E+000	9	...........	1426.22
	69	10.1	4.00351E-001	7.23452E-005	0.00000E+000	4.00072E-001	0.00000E+000	9	...........	1426.22
	70	11.1	4.00353E-001	6.80291E-005	0.00000E+000	4.00072E-001	0.00000E+000	9	...........	1426.22
	71	12.1	4.00358E-001	6.45032E-005	0.00000E+000	4.00072E-001	0.00000E+000	9	...........	1426.22
	72	13.1	4.00341E-001	6.12117E-005	0.00000E+000	4.00072E-001	0.00000E+000	9	...........	1426.22
	73	14.1	4.00357E-001	5.85065E-005	0.00000E+000	4.00072E-001	0.00000E+000	9	...........	1426.22
	74	15.1	4.00351E-001	5.57469E-005	0.00000E+000	4.00072E-001	0.00000E+000	9	...........	1426.22
	75	16.1	4.00347E-001	5.34033E-005	0.00000E+000	4.00072E-001	0.00000E+000	9	...........	1426.22
	76	26.1	4.00354E-001	4.05030E-005	0.00000E+000	4.00072E-001	0.00000E+000	9	...........	1426.22
	77	36.1	4.00350E-001	3.40154E-005	0.00000E+000	4.00072E-001	0.00000E+000	9	...........	1426.22
	78	46.1	4.00352E-001	3.02981E-005	0.00000E+000	4.00072E-001	0.00000E+000	9	...........	1426.22
	79	56.1	4.00368E-001	2.77412E-005	0.00000E+000	4.00072E-001	0.00000E+000	9	...........	1426.22
	80	66.1	4.00351E-001	2.65149E-005	0.00000E+000	4.00072E-001	0.00000E+000	9	...........	1426.22
	81	76.1	4.00359E-001	2.51225E-005	0.00000E+000	4.00072E-001	0.00000E+000	9	...........	1426.22
	82	86.1	4.00355E-001	2.40665E-005	0.00000E+000	4.00072E-001	0.00000E+000	9	...........	1426.22
	83	96.1	4.00362E-001	2.37933E-005	0.00000E+000	4.00072E-001	0.00000E+000	9	...........	1426.22
	84	106.1	4.00349E-001	2.31872E-005	0.00000E+000	4.00072E-001	0.00000E+000	9	...........	1426.22
	85	116.1	4.00362E-001	2.25243E-005	0.00000E+000	4.00072E-001	0.00000E+000	9	...........	1426.22
	86	216.1	4.00342E-001	2.07712E-005	0.00000E+000	4.00072E-001	0.00000E+000	9	...........	1426.22
	87	300	4.00359E-001	2.04313E-005	0.00000E+000	4.00072E-001	0.00000E+000	9	...........	1426.22
	88	300.1	3.00324E-001	-4.03393E-004	0.00000E+000	3.00072E-001	0.00000E+000	9	...........	1426.22
	89	300.2	3.00323E-001	-3.13526E-004	0.00000E+000	3.00072E-001	0.00000E+000	9	...........	1426.22
	90	300.3	3.00312E-001	-2.60004E-004	0.00000E+000	3.00072E-001	0.00000E+000	9	...........	1426.22
	91	300.4	3.00308E-001	-2.23423E-004	0.00000E+000	3.00072E-001	0.00000E+000	9	...........	1426.22
	92	300.5	3.00304E-001	-1.96652E-004	0.00000E+000	3.00072E-001	0.00000E+000	9	...........	1426.22
	93	300.6	3.00304E-001	-1.76200E-004	0.00000E+000	3.00072E-001	0.00000E+000	9	...........	1426.22
	94	300.7	3.00303E-001	-1.60012E-004	0.00000E+000	3.00072E-001	0.00000E+000	9	...........	1426.22
	95	300.8	3.00302E-001	-1.46895E-004	0.00000E+000	3.00072E-001	0.00000E+000	9	...........	1426.22
	96	300.9	3.00311E-001	-1.36040E-004	0.00000E+000	3.00072E-001	0.00000E+000	9	...........	1426.22
	97	301	3.00331E-001	-1.26898E-004	0.00000E+000	3.00072E-001	0.00000E+000	9	...........	1426.22
