EXPLAIN
TAG	CHRONOA
TITLE	LABEL	Chronoamperometry Scan	Test Identifier
DATE	LABEL	7/2/2022	Date
TIME	LABEL	13:52:30	Time
NOTES	NOTES	1	Notes...
	
PSTAT	PSTAT	IFC1010-21051	Potentiostat
VPRESTEP	POTEN	3.00000E-001	F	Pre-step Voltage (V)
TPRESTEP	QUANT	5.00000E-001	Pre-step Delay Time (s)
VSTEP1	POTEN	4.00000E-001	F	Step 1 Voltage (V)
TSTEP1	QUANT	3.00000E+002	Step 1 Time (s)
VSTEP2	POTEN	3.00000E-001	F	Step 2 Voltage (V)
TSTEP2	QUANT	1.00000E+000	Step 2 Time (s)
SAMPLETIME	QUANT	1.00000E-001	Sample Period (s)
DECIMATE	TOGGLE	T	Decimate
ILIMIT	QUANT	1.00000E+000	Limit I (mA/cm^2)
IMODE	SELECTOR	1	I/E Range Mode
IRANGE	QUANT	3.00000E-001	Max Current (mA)
EQDELAY	QUANT	5.00000E+000	Equil. Time (s)
SAMPLINGMODE	SELECTOR	1	Sampling Mode
AREA	QUANT	1.00000E+000	Sample Area (cm^2)
IRCOMP	SELECTOR	0	IRComp
PFCOR	QUANT	5.00000E+001	PF Corr. (ohm)
SEQUENCER	TOGGLE	TRUE	Run as Sequence
PSTATMODEL	IQUANT	64	Pstat Model
PSTATSECTION	LABEL	IFC1010-21051	Pstat Section
PSTATSERIALNO	LABEL	21051	Pstat Serial Number
CTRLMODE	IQUANT	1	Control Mode
ELECTROMETER	IQUANT	0	RE=0 or CS=1
IESTAB	IQUANT	0	I/E Stability
CASPEED	IQUANT	4	Control Amp Speed
CONVENTION	IQUANT	1	Current Convention
ICHRANGE	IQUANT	2	Ich Range
ICHRANGEMODE	TOGGLE	T	Ich Auto Range
ICHOFFSETENABLE	TOGGLE	F	Ich Offset Enable
ICHOFFSET	QUANT	0	Ich Offset (V)
ICHFILTER	IQUANT	3	Ich Filter
VCHRANGE	IQUANT	3	Vch Range
VCHRANGEMODE	TOGGLE	T	Vch Auto Range
VCHOFFSETENABLE	TOGGLE	F	Vch Offset Enable
VCHOFFSET	QUANT	0	Vch Offset (V)
VCHFILTER	IQUANT	3	Vch Filter
IERANGELOWERLIMIT	IQUANT	4	I/E Range Lower Limit
IERANGEMODE	TOGGLE	F	I/E AutoRange
IERANGE	IQUANT	9	I/E Range
ACHSELECT	IQUANT	0	Ach Select
ACHRANGE	IQUANT	2	Ach Range
ACHOFFSETENABLE	TOGGLE	F	Ach Offset Enable
ACHOFFSET	QUANT	0	Ach Offset (V)
ACHFILTER	IQUANT	1	Ach Filter
SENSECABLEID	IQUANT	14	Sense Cable ID
PWRCABLEID	IQUANT	14	Power Cable ID
DCCALDATE	LABEL	1/24/2022	DC Calibration Date
ACCALDATE	LABEL	4/2/2018	AC Calibration Date
FRAMEWORKVERSION	QUANT	7.06	Framework Version
INSTRUMENTVERSION	LABEL	4.30	Instrument Version
CURVE	TABLE	98
	Pt	T	Vf	Im	Vu	Sig	Ach	IERange	Over	Temp
	#	s	V vs. Ref.	A	V	V	V	#	bits	deg C
	0	-0.4	2.99556E-001	1.26318E-005	0.00000E+000	3.00072E-001	0.00000E+000	9	...........	1426.04
	1	-0.3	3.00300E-001	1.25250E-005	0.00000E+000	3.00072E-001	0.00000E+000	9	...........	1426.04
	2	-0.2	3.00294E-001	1.24115E-005	0.00000E+000	3.00072E-001	0.00000E+000	9	...........	1426.04
	3	-0.1	3.00295E-001	1.23070E-005	0.00000E+000	3.00072E-001	0.00000E+000	9	...........	1426.04
	4	0	3.00303E-001	1.21824E-005	0.00000E+000	3.00072E-001	0.00000E+000	9	...........	1426.04
	5	0.1	4.00352E-001	5.12042E-004	0.00000E+000	4.00072E-001	0.00000E+000	9	...........	1426.04
	6	0.2	4.00351E-001	4.30130E-004	0.00000E+000	4.00072E-001	0.00000E+000	9	...........	1426.04
	7	0.3	4.00343E-001	3.81137E-004	0.00000E+000	4.00072E-001	0.00000E+000	9	...........	1426.04
	8	0.4	4.00337E-001	3.46236E-004	0.00000E+000	4.00072E-001	0.00000E+000	9	...........	1426.04
	9	0.5	4.00343E-001	3.19360E-004	0.00000E+000	4.00072E-001	0.00000E+000	9	...........	1426.04
	10	0.6	4.00347E-001	2.97663E-004	0.00000E+000	4.00072E-001	0.00000E+000	9	...........	1426.04
	11	0.7	4.00344E-001	2.79733E-004	0.00000E+000	4.00072E-001	0.00000E+000	9	...........	1426.04
	12	0.8	4.00344E-001	2.64549E-004	0.00000E+000	4.00072E-001	0.00000E+000	9	...........	1426.04
	13	0.9	4.00350E-001	2.51493E-004	0.00000E+000	4.00072E-001	0.00000E+000	9	...........	1426.04
	14	1	4.00345E-001	2.40199E-004	0.00000E+000	4.00072E-001	0.00000E+000	9	...........	1426.04
	15	1.1	4.00333E-001	2.30143E-004	0.00000E+000	4.00072E-001	0.00000E+000	9	...........	1426.04
	16	1.2	4.00348E-001	2.21191E-004	0.00000E+000	4.00072E-001	0.00000E+000	9	...........	1426.04
	17	1.3	4.00346E-001	2.13111E-004	0.00000E+000	4.00072E-001	0.00000E+000	9	...........	1426.04
	18	1.4	4.00345E-001	2.05721E-004	0.00000E+000	4.00072E-001	0.00000E+000	9	...........	1426.04
	19	1.5	4.00345E-001	1.99066E-004	0.00000E+000	4.00072E-001	0.00000E+000	9	...........	1426.04
	20	1.6	4.00352E-001	1.92922E-004	0.00000E+000	4.00072E-001	0.00000E+000	9	...........	1426.04
	21	1.7	4.00345E-001	1.87200E-004	0.00000E+000	4.00072E-001	0.00000E+000	9	...........	1426.04
	22	1.8	4.00350E-001	1.81938E-004	0.00000E+000	4.00072E-001	0.00000E+000	9	...........	1426.04
	23	1.9	4.00349E-001	1.76986E-004	0.00000E+000	4.00072E-001	0.00000E+000	9	...........	1426.04
	24	2	4.00347E-001	1.72426E-004	0.00000E+000	4.00072E-001	0.00000E+000	9	...........	1426.04
	25	2.1	4.00346E-001	1.68097E-004	0.00000E+000	4.00072E-001	0.00000E+000	9	...........	1426.04
	26	2.2	4.00355E-001	1.64044E-004	0.00000E+000	4.00072E-001	0.00000E+000	9	...........	1426.04
	27	2.3	4.00351E-001	1.60256E-004	0.00000E+000	4.00072E-001	0.00000E+000	9	...........	1426.04
	28	2.4	4.00341E-001	1.56627E-004	0.00000E+000	4.00072E-001	0.00000E+000	9	...........	1426.04
	29	2.5	4.00351E-001	1.53248E-004	0.00000E+000	4.00072E-001	0.00000E+000	9	...........	1426.04
	30	2.6	4.00348E-001	1.50030E-004	0.00000E+000	4.00072E-001	0.00000E+000	9	...........	1426.04
	31	2.7	4.00341E-001	1.46960E-004	0.00000E+000	4.00072E-001	0.00000E+000	9	...........	1426.04
	32	2.8	4.00338E-001	1.44046E-004	0.00000E+000	4.00072E-001	0.00000E+000	9	...........	1426.04
	33	2.9	4.00338E-001	1.41268E-004	0.00000E+000	4.00072E-001	0.00000E+000	9	...........	1425.69
	34	3	4.00342E-001	1.38601E-004	0.00000E+000	4.00072E-001	0.00000E+000	9	...........	1425.69
	35	3.1	4.00346E-001	1.36110E-004	0.00000E+000	4.00072E-001	0.00000E+000	9	...........	1425.69
	36	3.2	4.00349E-001	1.33705E-004	0.00000E+000	4.00072E-001	0.00000E+000	9	...........	1425.69
	37	3.3	4.00351E-001	1.31366E-004	0.00000E+000	4.00072E-001	0.00000E+000	9	...........	1425.69
	38	3.4	4.00351E-001	1.29128E-004	0.00000E+000	4.00072E-001	0.00000E+000	9	...........	1425.69
	39	3.5	4.00350E-001	1.27002E-004	0.00000E+000	4.00072E-001	0.00000E+000	9	...........	1425.69
	40	3.6	4.00353E-001	1.24928E-004	0.00000E+000	4.00072E-001	0.00000E+000	9	...........	1425.69
	41	3.7	4.00353E-001	1.22949E-004	0.00000E+000	4.00072E-001	0.00000E+000	9	...........	1425.69
	42	3.8	4.00363E-001	1.21016E-004	0.00000E+000	4.00072E-001	0.00000E+000	9	...........	1425.69
	43	3.9	4.00347E-001	1.19175E-004	0.00000E+000	4.00072E-001	0.00000E+000	9	...........	1425.51
	44	4	4.00348E-001	1.17421E-004	0.00000E+000	4.00072E-001	0.00000E+000	9	...........	1425.51
	45	4.1	4.00350E-001	1.15698E-004	0.00000E+000	4.00072E-001	0.00000E+000	9	...........	1425.51
	46	4.2	4.00356E-001	1.14032E-004	0.00000E+000	4.00072E-001	0.00000E+000	9	...........	1425.51
	47	4.3	4.00344E-001	1.12441E-004	0.00000E+000	4.00072E-001	0.00000E+000	9	...........	1425.51
	48	4.4	4.00347E-001	1.10877E-004	0.00000E+000	4.00072E-001	0.00000E+000	9	...........	1425.51
	49	4.5	4.00348E-001	1.09395E-004	0.00000E+000	4.00072E-001	0.00000E+000	9	...........	1425.51
	50	4.6	4.00353E-001	1.07914E-004	0.00000E+000	4.00072E-001	0.00000E+000	9	...........	1425.51
	51	4.7	4.00348E-001	1.06518E-004	0.00000E+000	4.00072E-001	0.00000E+000	9	...........	1425.51
	52	4.8	4.00348E-001	1.05141E-004	0.00000E+000	4.00072E-001	0.00000E+000	9	...........	1425.51
	53	4.9	4.00361E-001	1.03753E-004	0.00000E+000	4.00072E-001	0.00000E+000	9	...........	1425.51
	54	5	4.00354E-001	1.02483E-004	0.00000E+000	4.00072E-001	0.00000E+000	9	...........	1425.51
	55	5.1	4.00350E-001	1.01208E-004	0.00000E+000	4.00072E-001	0.00000E+000	9	...........	1425.51
	56	5.2	4.00345E-001	9.99488E-005	0.00000E+000	4.00072E-001	0.00000E+000	9	...........	1425.51
	57	5.3	4.00348E-001	9.87702E-005	0.00000E+000	4.00072E-001	0.00000E+000	9	...........	1425.51
	58	5.4	4.00359E-001	9.75853E-005	0.00000E+000	4.00072E-001	0.00000E+000	9	...........	1425.51
	59	5.5	4.00346E-001	9.64496E-005	0.00000E+000	4.00072E-001	0.00000E+000	9	...........	1425.51
	60	5.6	4.00351E-001	9.53474E-005	0.00000E+000	4.00072E-001	0.00000E+000	9	...........	1425.51
	61	5.7	4.00350E-001	9.42607E-005	0.00000E+000	4.00072E-001	0.00000E+000	9	...........	1425.51
	62	5.8	4.00349E-001	9.32144E-005	0.00000E+000	4.00072E-001	0.00000E+000	9	...........	1425.51
	63	5.9	4.00362E-001	9.21665E-005	0.00000E+000	4.00072E-001	0.00000E+000	9	...........	1425.69
	64	6	4.00351E-001	9.11593E-005	0.00000E+000	4.00072E-001	0.00000E+000	9	...........	1425.69
	65	6.1	4.00349E-001	9.01983E-005	0.00000E+000	4.00072E-001	0.00000E+000	9	...........	1425.69
	66	7.1	4.00368E-001	8.15135E-005	0.00000E+000	4.00072E-001	0.00000E+000	9	...........	1425.95
	67	8.1	4.00338E-001	7.43236E-005	0.00000E+000	4.00072E-001	0.00000E+000	9	...........	1425.95
	68	9.1	4.00356E-001	6.82483E-005	0.00000E+000	4.00072E-001	0.00000E+000	9	...........	1426.04
	69	10.1	4.00345E-001	6.30879E-005	0.00000E+000	4.00072E-001	0.00000E+000	9	...........	1426.04
	70	11.1	4.00359E-001	5.86528E-005	0.00000E+000	4.00072E-001	0.00000E+000	9	...........	1426.04
	71	12.1	4.00346E-001	5.45698E-005	0.00000E+000	4.00072E-001	0.00000E+000	9	...........	1426.04
	72	13.1	4.00352E-001	5.10857E-005	0.00000E+000	4.00072E-001	0.00000E+000	9	...........	1426.04
	73	14.1	4.00351E-001	4.78788E-005	0.00000E+000	4.00072E-001	0.00000E+000	9	...........	1426.04
	74	15.1	4.00354E-001	4.51765E-005	0.00000E+000	4.00072E-001	0.00000E+000	9	...........	1426.04
	75	16.1	4.00356E-001	4.27616E-005	0.00000E+000	4.00072E-001	0.00000E+000	9	...........	1426.04
	76	26.1	4.00354E-001	2.97664E-005	0.00000E+000	4.00072E-001	0.00000E+000	9	...........	1426.04
	77	36.1	4.00349E-001	2.40970E-005	0.00000E+000	4.00072E-001	0.00000E+000	9	...........	1426.04
	78	46.1	4.00350E-001	2.13143E-005	0.00000E+000	4.00072E-001	0.00000E+000	9	...........	1426.04
	79	56.1	4.00346E-001	1.95884E-005	0.00000E+000	4.00072E-001	0.00000E+000	9	...........	1426.04
	80	66.1	4.00347E-001	1.82919E-005	0.00000E+000	4.00072E-001	0.00000E+000	9	...........	1426.04
	81	76.1	4.00349E-001	1.73302E-005	0.00000E+000	4.00072E-001	0.00000E+000	9	...........	1426.04
	82	86.1	4.00359E-001	1.68170E-005	0.00000E+000	4.00072E-001	0.00000E+000	9	...........	1426.04
	83	96.1	4.00356E-001	1.63723E-005	0.00000E+000	4.00072E-001	0.00000E+000	9	...........	1426.04
	84	106.1	4.00343E-001	1.58713E-005	0.00000E+000	4.00072E-001	0.00000E+000	9	...........	1426.04
	85	116.1	4.00362E-001	1.54148E-005	0.00000E+000	4.00072E-001	0.00000E+000	9	...........	1426.04
	86	216.1	4.00369E-001	1.42197E-005	0.00000E+000	4.00072E-001	0.00000E+000	9	...........	1426.04
	87	300	4.00350E-001	1.35583E-005	0.00000E+000	4.00072E-001	0.00000E+000	9	...........	1426.04
	88	300.1	3.00302E-001	-3.95219E-004	0.00000E+000	3.00072E-001	0.00000E+000	9	...........	1426.04
	89	300.2	3.00308E-001	-3.13785E-004	0.00000E+000	3.00072E-001	0.00000E+000	9	...........	1426.04
	90	300.3	3.00308E-001	-2.59104E-004	0.00000E+000	3.00072E-001	0.00000E+000	9	...........	1426.04
	91	300.4	3.00307E-001	-2.19227E-004	0.00000E+000	3.00072E-001	0.00000E+000	9	...........	1426.04
	92	300.5	3.00313E-001	-1.89211E-004	0.00000E+000	3.00072E-001	0.00000E+000	9	...........	1426.04
	93	300.6	3.00313E-001	-1.66382E-004	0.00000E+000	3.00072E-001	0.00000E+000	9	...........	1426.04
	94	300.7	3.00301E-001	-1.48835E-004	0.00000E+000	3.00072E-001	0.00000E+000	9	...........	1426.04
	95	300.8	3.00299E-001	-1.34879E-004	0.00000E+000	3.00072E-001	0.00000E+000	9	...........	1426.04
	96	300.9	3.00305E-001	-1.23363E-004	0.00000E+000	3.00072E-001	0.00000E+000	9	...........	1426.04
	97	301	3.00307E-001	-1.13637E-004	0.00000E+000	3.00072E-001	0.00000E+000	9	...........	1426.04
