EXPLAIN
TAG	CHRONOA
TITLE	LABEL	Chronoamperometry Scan	Test Identifier
DATE	LABEL	7/2/2022	Date
TIME	LABEL	14:03:49	Time
NOTES	NOTES	1	Notes...
	
PSTAT	PSTAT	IFC1010-21051	Potentiostat
VPRESTEP	POTEN	-3.00000E-001	F	Pre-step Voltage (V)
TPRESTEP	QUANT	5.00000E-001	Pre-step Delay Time (s)
VSTEP1	POTEN	-4.00000E-001	F	Step 1 Voltage (V)
TSTEP1	QUANT	3.00000E+002	Step 1 Time (s)
VSTEP2	POTEN	-5.00000E-001	F	Step 2 Voltage (V)
TSTEP2	QUANT	1.00000E+000	Step 2 Time (s)
SAMPLETIME	QUANT	1.00000E-001	Sample Period (s)
DECIMATE	TOGGLE	T	Decimate
ILIMIT	QUANT	1.00000E+000	Limit I (mA/cm^2)
IMODE	SELECTOR	1	I/E Range Mode
IRANGE	QUANT	3.00000E-001	Max Current (mA)
EQDELAY	QUANT	5.00000E+000	Equil. Time (s)
SAMPLINGMODE	SELECTOR	1	Sampling Mode
AREA	QUANT	1.00000E+000	Sample Area (cm^2)
IRCOMP	SELECTOR	0	IRComp
PFCOR	QUANT	5.00000E+001	PF Corr. (ohm)
SEQUENCER	TOGGLE	TRUE	Run as Sequence
PSTATMODEL	IQUANT	64	Pstat Model
PSTATSECTION	LABEL	IFC1010-21051	Pstat Section
PSTATSERIALNO	LABEL	21051	Pstat Serial Number
CTRLMODE	IQUANT	1	Control Mode
ELECTROMETER	IQUANT	0	RE=0 or CS=1
IESTAB	IQUANT	0	I/E Stability
CASPEED	IQUANT	4	Control Amp Speed
CONVENTION	IQUANT	1	Current Convention
ICHRANGE	IQUANT	2	Ich Range
ICHRANGEMODE	TOGGLE	T	Ich Auto Range
ICHOFFSETENABLE	TOGGLE	F	Ich Offset Enable
ICHOFFSET	QUANT	0	Ich Offset (V)
ICHFILTER	IQUANT	3	Ich Filter
VCHRANGE	IQUANT	3	Vch Range
VCHRANGEMODE	TOGGLE	T	Vch Auto Range
VCHOFFSETENABLE	TOGGLE	F	Vch Offset Enable
VCHOFFSET	QUANT	0	Vch Offset (V)
VCHFILTER	IQUANT	3	Vch Filter
IERANGELOWERLIMIT	IQUANT	4	I/E Range Lower Limit
IERANGEMODE	TOGGLE	F	I/E AutoRange
IERANGE	IQUANT	9	I/E Range
ACHSELECT	IQUANT	0	Ach Select
ACHRANGE	IQUANT	2	Ach Range
ACHOFFSETENABLE	TOGGLE	F	Ach Offset Enable
ACHOFFSET	QUANT	0	Ach Offset (V)
ACHFILTER	IQUANT	1	Ach Filter
SENSECABLEID	IQUANT	14	Sense Cable ID
PWRCABLEID	IQUANT	14	Power Cable ID
DCCALDATE	LABEL	1/24/2022	DC Calibration Date
ACCALDATE	LABEL	4/2/2018	AC Calibration Date
FRAMEWORKVERSION	QUANT	7.06	Framework Version
INSTRUMENTVERSION	LABEL	4.30	Instrument Version
CURVE	TABLE	98
	Pt	T	Vf	Im	Vu	Sig	Ach	IERange	Over	Temp
	#	s	V vs. Ref.	A	V	V	V	#	bits	deg C
	0	-0.4	-3.01279E-001	-8.37229E-005	0.00000E+000	-3.00011E-001	0.00000E+000	9	...........	1426.13
	1	-0.3	-3.00690E-001	-8.35868E-005	0.00000E+000	-3.00011E-001	0.00000E+000	9	...........	1426.13
	2	-0.2	-3.00677E-001	-8.34406E-005	0.00000E+000	-3.00011E-001	0.00000E+000	9	...........	1426.13
	3	-0.1	-3.00685E-001	-8.32657E-005	0.00000E+000	-3.00011E-001	0.00000E+000	9	...........	1426.13
	4	0	-3.00690E-001	-8.31540E-005	0.00000E+000	-3.00011E-001	0.00000E+000	9	...........	1426.13
	5	0.1	-4.00730E-001	-4.76759E-004	0.00000E+000	-4.00011E-001	0.00000E+000	9	...........	1426.13
	6	0.2	-4.00729E-001	-3.85892E-004	0.00000E+000	-4.00011E-001	0.00000E+000	9	...........	1426.13
	7	0.3	-4.00728E-001	-3.43835E-004	0.00000E+000	-4.00011E-001	0.00000E+000	9	...........	1426.13
	8	0.4	-4.00722E-001	-3.20772E-004	0.00000E+000	-4.00011E-001	0.00000E+000	9	...........	1426.13
	9	0.5	-4.00734E-001	-3.06229E-004	0.00000E+000	-4.00011E-001	0.00000E+000	9	...........	1426.13
	10	0.6	-4.00731E-001	-2.96006E-004	0.00000E+000	-4.00011E-001	0.00000E+000	9	...........	1426.13
	11	0.7	-4.00740E-001	-2.88217E-004	0.00000E+000	-4.00011E-001	0.00000E+000	9	...........	1426.13
	12	0.8	-4.00726E-001	-2.81887E-004	0.00000E+000	-4.00011E-001	0.00000E+000	9	...........	1426.13
	13	0.9	-4.00735E-001	-2.76510E-004	0.00000E+000	-4.00011E-001	0.00000E+000	9	...........	1426.13
	14	1	-4.00722E-001	-2.71842E-004	0.00000E+000	-4.00011E-001	0.00000E+000	9	...........	1426.13
	15	1.1	-4.00726E-001	-2.67648E-004	0.00000E+000	-4.00011E-001	0.00000E+000	9	...........	1426.13
	16	1.2	-4.00722E-001	-2.63826E-004	0.00000E+000	-4.00011E-001	0.00000E+000	9	...........	1426.13
	17	1.3	-4.00736E-001	-2.60385E-004	0.00000E+000	-4.00011E-001	0.00000E+000	9	...........	1426.13
	18	1.4	-4.00745E-001	-2.57132E-004	0.00000E+000	-4.00011E-001	0.00000E+000	9	...........	1426.13
	19	1.5	-4.00726E-001	-2.54059E-004	0.00000E+000	-4.00011E-001	0.00000E+000	9	...........	1426.13
	20	1.6	-4.00728E-001	-2.51267E-004	0.00000E+000	-4.00011E-001	0.00000E+000	9	...........	1426.13
	21	1.7	-4.00707E-001	-2.48550E-004	0.00000E+000	-4.00011E-001	0.00000E+000	9	...........	1426.13
	22	1.8	-4.00730E-001	-2.46021E-004	0.00000E+000	-4.00011E-001	0.00000E+000	9	...........	1426.13
	23	1.9	-4.00723E-001	-2.43613E-004	0.00000E+000	-4.00011E-001	0.00000E+000	9	...........	1426.13
	24	2	-4.00723E-001	-2.41280E-004	0.00000E+000	-4.00011E-001	0.00000E+000	9	...........	1426.13
	25	2.1	-4.00729E-001	-2.39095E-004	0.00000E+000	-4.00011E-001	0.00000E+000	9	...........	1426.13
	26	2.2	-4.00726E-001	-2.36977E-004	0.00000E+000	-4.00011E-001	0.00000E+000	9	...........	1426.13
	27	2.3	-4.00734E-001	-2.34933E-004	0.00000E+000	-4.00011E-001	0.00000E+000	9	...........	1426.13
	28	2.4	-4.00729E-001	-2.32983E-004	0.00000E+000	-4.00011E-001	0.00000E+000	9	...........	1426.13
	29	2.5	-4.00722E-001	-2.31097E-004	0.00000E+000	-4.00011E-001	0.00000E+000	9	...........	1426.13
	30	2.6	-4.00730E-001	-2.29271E-004	0.00000E+000	-4.00011E-001	0.00000E+000	9	...........	1426.13
	31	2.7	-4.00739E-001	-2.27523E-004	0.00000E+000	-4.00011E-001	0.00000E+000	9	...........	1426.13
	32	2.8	-4.00743E-001	-2.25822E-004	0.00000E+000	-4.00011E-001	0.00000E+000	9	...........	1426.13
	33	2.9	-4.00732E-001	-2.24181E-004	0.00000E+000	-4.00011E-001	0.00000E+000	9	...........	1426.13
	34	3	-4.00706E-001	-2.22587E-004	0.00000E+000	-4.00011E-001	0.00000E+000	9	...........	1426.04
	35	3.1	-4.00730E-001	-2.21119E-004	0.00000E+000	-4.00011E-001	0.00000E+000	9	...........	1426.04
	36	3.2	-4.00730E-001	-2.19641E-004	0.00000E+000	-4.00011E-001	0.00000E+000	9	...........	1426.04
	37	3.3	-4.00723E-001	-2.18217E-004	0.00000E+000	-4.00011E-001	0.00000E+000	9	...........	1426.04
	38	3.4	-4.00720E-001	-2.16819E-004	0.00000E+000	-4.00011E-001	0.00000E+000	9	...........	1426.04
	39	3.5	-4.00735E-001	-2.15514E-004	0.00000E+000	-4.00011E-001	0.00000E+000	9	...........	1426.04
	40	3.6	-4.00733E-001	-2.14159E-004	0.00000E+000	-4.00011E-001	0.00000E+000	9	...........	1426.04
	41	3.7	-4.00737E-001	-2.12879E-004	0.00000E+000	-4.00011E-001	0.00000E+000	9	...........	1426.04
	42	3.8	-4.00739E-001	-2.11555E-004	0.00000E+000	-4.00011E-001	0.00000E+000	9	...........	1426.04
	43	3.9	-4.00738E-001	-2.10371E-004	0.00000E+000	-4.00011E-001	0.00000E+000	9	...........	1426.04
	44	4	-4.00738E-001	-2.09189E-004	0.00000E+000	-4.00011E-001	0.00000E+000	9	...........	1425.87
	45	4.1	-4.00735E-001	-2.07983E-004	0.00000E+000	-4.00011E-001	0.00000E+000	9	...........	1425.87
	46	4.2	-4.00717E-001	-2.06884E-004	0.00000E+000	-4.00011E-001	0.00000E+000	9	...........	1425.87
	47	4.3	-4.00721E-001	-2.05786E-004	0.00000E+000	-4.00011E-001	0.00000E+000	9	...........	1425.87
	48	4.4	-4.00728E-001	-2.04740E-004	0.00000E+000	-4.00011E-001	0.00000E+000	9	...........	1425.87
	49	4.5	-4.00731E-001	-2.03642E-004	0.00000E+000	-4.00011E-001	0.00000E+000	9	...........	1425.87
	50	4.6	-4.00739E-001	-2.02623E-004	0.00000E+000	-4.00011E-001	0.00000E+000	9	...........	1425.87
	51	4.7	-4.00719E-001	-2.01582E-004	0.00000E+000	-4.00011E-001	0.00000E+000	9	...........	1425.87
	52	4.8	-4.00728E-001	-2.00651E-004	0.00000E+000	-4.00011E-001	0.00000E+000	9	...........	1425.87
	53	4.9	-4.00726E-001	-1.99698E-004	0.00000E+000	-4.00011E-001	0.00000E+000	9	...........	1425.87
	54	5	-4.00724E-001	-1.98770E-004	0.00000E+000	-4.00011E-001	0.00000E+000	9	...........	1426.04
	55	5.1	-4.00722E-001	-1.97827E-004	0.00000E+000	-4.00011E-001	0.00000E+000	9	...........	1426.04
	56	5.2	-4.00724E-001	-1.96854E-004	0.00000E+000	-4.00011E-001	0.00000E+000	9	...........	1426.04
	57	5.3	-4.00738E-001	-1.96002E-004	0.00000E+000	-4.00011E-001	0.00000E+000	9	...........	1426.04
	58	5.4	-4.00736E-001	-1.95103E-004	0.00000E+000	-4.00011E-001	0.00000E+000	9	...........	1426.04
	59	5.5	-4.00732E-001	-1.94228E-004	0.00000E+000	-4.00011E-001	0.00000E+000	9	...........	1426.04
	60	5.6	-4.00736E-001	-1.93357E-004	0.00000E+000	-4.00011E-001	0.00000E+000	9	...........	1426.04
	61	5.7	-4.00725E-001	-1.92498E-004	0.00000E+000	-4.00011E-001	0.00000E+000	9	...........	1426.04
	62	5.8	-4.00730E-001	-1.91688E-004	0.00000E+000	-4.00011E-001	0.00000E+000	9	...........	1426.04
	63	5.9	-4.00731E-001	-1.90850E-004	0.00000E+000	-4.00011E-001	0.00000E+000	9	...........	1426.04
	64	6	-4.00727E-001	-1.89993E-004	0.00000E+000	-4.00011E-001	0.00000E+000	9	...........	1425.69
	65	6.1	-4.00728E-001	-1.89252E-004	0.00000E+000	-4.00011E-001	0.00000E+000	9	...........	1425.69
	66	7.1	-4.00726E-001	-1.82061E-004	0.00000E+000	-4.00011E-001	0.00000E+000	9	...........	1426.04
	67	8.1	-4.00739E-001	-1.75968E-004	0.00000E+000	-4.00011E-001	0.00000E+000	9	...........	1426.13
	68	9.1	-4.00715E-001	-1.70543E-004	0.00000E+000	-4.00011E-001	0.00000E+000	9	...........	1426.13
	69	10.1	-4.00734E-001	-1.65660E-004	0.00000E+000	-4.00011E-001	0.00000E+000	9	...........	1426.13
	70	11.1	-4.00745E-001	-1.61199E-004	0.00000E+000	-4.00011E-001	0.00000E+000	9	...........	1426.13
	71	12.1	-4.00740E-001	-1.57220E-004	0.00000E+000	-4.00011E-001	0.00000E+000	9	...........	1426.13
	72	13.1	-4.00727E-001	-1.53677E-004	0.00000E+000	-4.00011E-001	0.00000E+000	9	...........	1426.13
	73	14.1	-4.00729E-001	-1.50495E-004	0.00000E+000	-4.00011E-001	0.00000E+000	9	...........	1426.13
	74	15.1	-4.00737E-001	-1.47513E-004	0.00000E+000	-4.00011E-001	0.00000E+000	9	...........	1426.13
	75	16.1	-4.00730E-001	-1.44735E-004	0.00000E+000	-4.00011E-001	0.00000E+000	9	...........	1426.04
	76	26.1	-4.00715E-001	-1.25484E-004	0.00000E+000	-4.00011E-001	0.00000E+000	9	...........	1426.13
	77	36.1	-4.00713E-001	-1.14393E-004	0.00000E+000	-4.00011E-001	0.00000E+000	9	...........	1426.22
	78	46.1	-4.00726E-001	-1.06156E-004	0.00000E+000	-4.00011E-001	0.00000E+000	9	...........	1426.22
	79	56.1	-4.00731E-001	-1.00228E-004	0.00000E+000	-4.00011E-001	0.00000E+000	9	...........	1426.22
	80	66.1	-4.00729E-001	-9.61147E-005	0.00000E+000	-4.00011E-001	0.00000E+000	9	...........	1426.22
	81	76.1	-4.00726E-001	-9.26778E-005	0.00000E+000	-4.00011E-001	0.00000E+000	9	...........	1426.13
	82	86.1	-4.00725E-001	-8.98335E-005	0.00000E+000	-4.00011E-001	0.00000E+000	9	...........	1426.22
	83	96.1	-4.00731E-001	-8.73360E-005	0.00000E+000	-4.00011E-001	0.00000E+000	9	...........	1426.22
	84	106.1	-4.00732E-001	-8.55900E-005	0.00000E+000	-4.00011E-001	0.00000E+000	9	...........	1426.22
	85	116.1	-4.00724E-001	-8.39882E-005	0.00000E+000	-4.00011E-001	0.00000E+000	9	...........	1426.22
	86	216.1	-4.00725E-001	-7.64316E-005	0.00000E+000	-4.00011E-001	0.00000E+000	9	...........	1426.22
	87	300	-4.00721E-001	-7.37630E-005	0.00000E+000	-4.00011E-001	0.00000E+000	9	...........	1426.22
	88	300.1	-5.00743E-001	-4.40096E-004	0.00000E+000	-5.00010E-001	0.00000E+000	9	...........	1426.22
	89	300.2	-5.00736E-001	-3.28081E-004	0.00000E+000	-5.00010E-001	0.00000E+000	9	...........	1426.22
	90	300.3	-5.00737E-001	-2.77378E-004	0.00000E+000	-5.00010E-001	0.00000E+000	9	...........	1426.22
	91	300.4	-5.00736E-001	-2.49188E-004	0.00000E+000	-5.00010E-001	0.00000E+000	9	...........	1426.22
	92	300.5	-5.00738E-001	-2.31393E-004	0.00000E+000	-5.00010E-001	0.00000E+000	9	...........	1426.22
	93	300.6	-5.00739E-001	-2.18930E-004	0.00000E+000	-5.00010E-001	0.00000E+000	9	...........	1426.22
	94	300.7	-5.00747E-001	-2.09593E-004	0.00000E+000	-5.00010E-001	0.00000E+000	9	...........	1426.22
	95	300.8	-5.00721E-001	-2.02277E-004	0.00000E+000	-5.00010E-001	0.00000E+000	9	...........	1426.22
	96	300.9	-5.00736E-001	-1.96402E-004	0.00000E+000	-5.00010E-001	0.00000E+000	9	...........	1426.22
	97	301	-5.00736E-001	-1.91436E-004	0.00000E+000	-5.00010E-001	0.00000E+000	9	...........	1426.22
