EXPLAIN
TAG	CHRONOA
TITLE	LABEL	Chronoamperometry Scan	Test Identifier
DATE	LABEL	7/2/2022	Date
TIME	LABEL	11:44:31	Time
NOTES	NOTES	1	Notes...
	
PSTAT	PSTAT	IFC1010-21051	Potentiostat
VPRESTEP	POTEN	1.00000E-002	F	Pre-step Voltage (V)
TPRESTEP	QUANT	5.00000E-001	Pre-step Delay Time (s)
VSTEP1	POTEN	0.00000E+000	F	Step 1 Voltage (V)
TSTEP1	QUANT	3.00000E+002	Step 1 Time (s)
VSTEP2	POTEN	-1.00000E-001	F	Step 2 Voltage (V)
TSTEP2	QUANT	1.00000E+000	Step 2 Time (s)
SAMPLETIME	QUANT	1.00000E-001	Sample Period (s)
DECIMATE	TOGGLE	T	Decimate
ILIMIT	QUANT	1.00000E+000	Limit I (mA/cm^2)
IMODE	SELECTOR	1	I/E Range Mode
IRANGE	QUANT	3.00000E-001	Max Current (mA)
EQDELAY	QUANT	5.00000E+000	Equil. Time (s)
SAMPLINGMODE	SELECTOR	1	Sampling Mode
AREA	QUANT	1.00000E+000	Sample Area (cm^2)
IRCOMP	SELECTOR	0	IRComp
PFCOR	QUANT	5.00000E+001	PF Corr. (ohm)
SEQUENCER	TOGGLE	TRUE	Run as Sequence
PSTATMODEL	IQUANT	64	Pstat Model
PSTATSECTION	LABEL	IFC1010-21051	Pstat Section
PSTATSERIALNO	LABEL	21051	Pstat Serial Number
CTRLMODE	IQUANT	1	Control Mode
ELECTROMETER	IQUANT	0	RE=0 or CS=1
IESTAB	IQUANT	0	I/E Stability
CASPEED	IQUANT	4	Control Amp Speed
CONVENTION	IQUANT	1	Current Convention
ICHRANGE	IQUANT	2	Ich Range
ICHRANGEMODE	TOGGLE	T	Ich Auto Range
ICHOFFSETENABLE	TOGGLE	F	Ich Offset Enable
ICHOFFSET	QUANT	0	Ich Offset (V)
ICHFILTER	IQUANT	3	Ich Filter
VCHRANGE	IQUANT	3	Vch Range
VCHRANGEMODE	TOGGLE	T	Vch Auto Range
VCHOFFSETENABLE	TOGGLE	F	Vch Offset Enable
VCHOFFSET	QUANT	0	Vch Offset (V)
VCHFILTER	IQUANT	3	Vch Filter
IERANGELOWERLIMIT	IQUANT	4	I/E Range Lower Limit
IERANGEMODE	TOGGLE	F	I/E AutoRange
IERANGE	IQUANT	9	I/E Range
ACHSELECT	IQUANT	0	Ach Select
ACHRANGE	IQUANT	2	Ach Range
ACHOFFSETENABLE	TOGGLE	F	Ach Offset Enable
ACHOFFSET	QUANT	0	Ach Offset (V)
ACHFILTER	IQUANT	1	Ach Filter
SENSECABLEID	IQUANT	14	Sense Cable ID
PWRCABLEID	IQUANT	14	Power Cable ID
DCCALDATE	LABEL	1/24/2022	DC Calibration Date
ACCALDATE	LABEL	4/2/2018	AC Calibration Date
FRAMEWORKVERSION	QUANT	7.06	Framework Version
INSTRUMENTVERSION	LABEL	4.30	Instrument Version
CURVE	TABLE	98
	Pt	T	Vf	Im	Vu	Sig	Ach	IERange	Over	Temp
	#	s	V vs. Ref.	A	V	V	V	#	bits	deg C
	0	-0.4	9.20349E-003	-6.19640E-005	0.00000E+000	1.00559E-002	0.00000E+000	9	...........	1425.78
	1	-0.3	9.88821E-003	-6.11436E-005	0.00000E+000	1.00559E-002	0.00000E+000	9	...........	1425.78
	2	-0.2	1.00452E-002	-6.03349E-005	0.00000E+000	1.00559E-002	0.00000E+000	9	...........	1425.78
	3	-0.1	1.00577E-002	-5.95857E-005	0.00000E+000	1.00559E-002	0.00000E+000	9	...........	1425.78
	4	0	1.00577E-002	-5.88310E-005	0.00000E+000	1.00559E-002	0.00000E+000	9	...........	1425.78
	5	0.1	4.99404E-005	-1.01050E-004	0.00000E+000	5.34840E-005	0.00000E+000	9	...........	1425.78
	6	0.2	5.00535E-005	-9.19714E-005	0.00000E+000	5.34840E-005	0.00000E+000	9	...........	1425.78
	7	0.3	5.12390E-005	-8.56531E-005	0.00000E+000	5.34840E-005	0.00000E+000	9	...........	1425.78
	8	0.4	5.01286E-005	-8.09391E-005	0.00000E+000	5.34840E-005	0.00000E+000	9	...........	1425.78
	9	0.5	5.02367E-005	-7.72579E-005	0.00000E+000	5.34840E-005	0.00000E+000	9	...........	1425.78
	10	0.6	4.94107E-005	-7.42904E-005	0.00000E+000	5.34840E-005	0.00000E+000	9	...........	1425.78
	11	0.7	4.89541E-005	-7.18214E-005	0.00000E+000	5.34840E-005	0.00000E+000	9	...........	1425.78
	12	0.8	4.94538E-005	-6.97348E-005	0.00000E+000	5.34840E-005	0.00000E+000	9	...........	1425.78
	13	0.9	4.87158E-005	-6.79237E-005	0.00000E+000	5.34840E-005	0.00000E+000	9	...........	1425.78
	14	1	4.86758E-005	-6.63246E-005	0.00000E+000	5.34840E-005	0.00000E+000	9	...........	1426.13
	15	1.1	4.83825E-005	-6.49070E-005	0.00000E+000	5.34840E-005	0.00000E+000	9	...........	1426.13
	16	1.2	4.77757E-005	-6.36136E-005	0.00000E+000	5.34840E-005	0.00000E+000	9	...........	1426.13
	17	1.3	4.77447E-005	-6.24330E-005	0.00000E+000	5.34840E-005	0.00000E+000	9	...........	1426.13
	18	1.4	4.83314E-005	-6.13562E-005	0.00000E+000	5.34840E-005	0.00000E+000	9	...........	1426.13
	19	1.5	4.84886E-005	-6.03457E-005	0.00000E+000	5.34840E-005	0.00000E+000	9	...........	1426.13
	20	1.6	5.00925E-005	-5.94029E-005	0.00000E+000	5.34840E-005	0.00000E+000	9	...........	1426.13
	21	1.7	4.86268E-005	-5.85274E-005	0.00000E+000	5.34840E-005	0.00000E+000	9	...........	1426.13
	22	1.8	4.81411E-005	-5.76900E-005	0.00000E+000	5.34840E-005	0.00000E+000	9	...........	1426.13
	23	1.9	4.82032E-005	-5.69081E-005	0.00000E+000	5.34840E-005	0.00000E+000	9	...........	1426.13
	24	2	4.88530E-005	-5.61559E-005	0.00000E+000	5.34840E-005	0.00000E+000	9	...........	1426.13
	25	2.1	4.86728E-005	-5.54430E-005	0.00000E+000	5.34840E-005	0.00000E+000	9	...........	1426.13
	26	2.2	4.85677E-005	-5.47684E-005	0.00000E+000	5.34840E-005	0.00000E+000	9	...........	1426.13
	27	2.3	4.72971E-005	-5.41115E-005	0.00000E+000	5.34840E-005	0.00000E+000	9	...........	1426.13
	28	2.4	4.82253E-005	-5.34749E-005	0.00000E+000	5.34840E-005	0.00000E+000	9	...........	1426.13
	29	2.5	4.90373E-005	-5.28726E-005	0.00000E+000	5.34840E-005	0.00000E+000	9	...........	1426.13
	30	2.6	4.80160E-005	-5.22908E-005	0.00000E+000	5.34840E-005	0.00000E+000	9	...........	1426.13
	31	2.7	4.78348E-005	-5.17206E-005	0.00000E+000	5.34840E-005	0.00000E+000	9	...........	1426.13
	32	2.8	4.82493E-005	-5.11708E-005	0.00000E+000	5.34840E-005	0.00000E+000	9	...........	1426.13
	33	2.9	4.71179E-005	-5.06521E-005	0.00000E+000	5.34840E-005	0.00000E+000	9	...........	1426.13
	34	3	4.77557E-005	-5.01390E-005	0.00000E+000	5.34840E-005	0.00000E+000	9	...........	1426.13
	35	3.1	4.71289E-005	-4.96409E-005	0.00000E+000	5.34840E-005	0.00000E+000	9	...........	1426.13
	36	3.2	4.71980E-005	-4.91565E-005	0.00000E+000	5.34840E-005	0.00000E+000	9	...........	1426.13
	37	3.3	4.79860E-005	-4.86868E-005	0.00000E+000	5.34840E-005	0.00000E+000	9	...........	1426.13
	38	3.4	4.88550E-005	-4.82230E-005	0.00000E+000	5.34840E-005	0.00000E+000	9	...........	1426.13
	39	3.5	4.76656E-005	-4.77806E-005	0.00000E+000	5.34840E-005	0.00000E+000	9	...........	1426.13
	40	3.6	4.84946E-005	-4.73400E-005	0.00000E+000	5.34840E-005	0.00000E+000	9	...........	1426.13
	41	3.7	4.85977E-005	-4.69198E-005	0.00000E+000	5.34840E-005	0.00000E+000	9	...........	1426.13
	42	3.8	4.83394E-005	-4.65067E-005	0.00000E+000	5.34840E-005	0.00000E+000	9	...........	1426.13
	43	3.9	4.72521E-005	-4.61112E-005	0.00000E+000	5.34840E-005	0.00000E+000	9	...........	1426.13
	44	4	4.77777E-005	-4.57151E-005	0.00000E+000	5.34840E-005	0.00000E+000	9	...........	1426.13
	45	4.1	4.84976E-005	-4.53317E-005	0.00000E+000	5.34840E-005	0.00000E+000	9	...........	1426.13
	46	4.2	4.85547E-005	-4.49488E-005	0.00000E+000	5.34840E-005	0.00000E+000	9	...........	1426.13
	47	4.3	4.90753E-005	-4.45914E-005	0.00000E+000	5.34840E-005	0.00000E+000	9	...........	1426.13
	48	4.4	4.82132E-005	-4.42417E-005	0.00000E+000	5.34840E-005	0.00000E+000	9	...........	1426.13
	49	4.5	4.77747E-005	-4.38936E-005	0.00000E+000	5.34840E-005	0.00000E+000	9	...........	1426.13
	50	4.6	4.87249E-005	-4.35501E-005	0.00000E+000	5.34840E-005	0.00000E+000	9	...........	1426.13
	51	4.7	4.89752E-005	-4.32103E-005	0.00000E+000	5.34840E-005	0.00000E+000	9	...........	1426.13
	52	4.8	4.90583E-005	-4.28953E-005	0.00000E+000	5.34840E-005	0.00000E+000	9	...........	1426.13
	53	4.9	4.84866E-005	-4.25656E-005	0.00000E+000	5.34840E-005	0.00000E+000	9	...........	1426.13
	54	5	4.83614E-005	-4.22555E-005	0.00000E+000	5.34840E-005	0.00000E+000	9	...........	1426.13
	55	5.1	4.86908E-005	-4.19420E-005	0.00000E+000	5.34840E-005	0.00000E+000	9	...........	1426.13
	56	5.2	4.84095E-005	-4.16451E-005	0.00000E+000	5.34840E-005	0.00000E+000	9	...........	1426.13
	57	5.3	4.87119E-005	-4.13517E-005	0.00000E+000	5.34840E-005	0.00000E+000	9	...........	1426.13
	58	5.4	4.79990E-005	-4.10650E-005	0.00000E+000	5.34840E-005	0.00000E+000	9	...........	1426.13
	59	5.5	4.88070E-005	-4.07837E-005	0.00000E+000	5.34840E-005	0.00000E+000	9	...........	1426.13
	60	5.6	4.82453E-005	-4.05020E-005	0.00000E+000	5.34840E-005	0.00000E+000	9	...........	1426.13
	61	5.7	4.79239E-005	-4.02319E-005	0.00000E+000	5.34840E-005	0.00000E+000	9	...........	1426.13
	62	5.8	4.87279E-005	-3.99556E-005	0.00000E+000	5.34840E-005	0.00000E+000	9	...........	1426.13
	63	5.9	4.83464E-005	-3.96978E-005	0.00000E+000	5.34840E-005	0.00000E+000	9	...........	1426.13
	64	6	4.91654E-005	-3.94374E-005	0.00000E+000	5.34840E-005	0.00000E+000	9	...........	1426.04
	65	6.1	4.81442E-005	-3.91890E-005	0.00000E+000	5.34840E-005	0.00000E+000	9	...........	1426.04
	66	7.1	4.81512E-005	-3.68311E-005	0.00000E+000	5.34840E-005	0.00000E+000	9	...........	1426.13
	67	8.1	4.96470E-005	-3.48027E-005	0.00000E+000	5.34840E-005	0.00000E+000	9	...........	1426.13
	68	9.1	4.84435E-005	-3.30844E-005	0.00000E+000	5.34840E-005	0.00000E+000	9	...........	1426.13
	69	10.1	4.90192E-005	-3.15973E-005	0.00000E+000	5.34840E-005	0.00000E+000	9	...........	1426.13
	70	11.1	4.87980E-005	-3.02550E-005	0.00000E+000	5.34840E-005	0.00000E+000	9	...........	1426.13
	71	12.1	4.90483E-005	-2.90722E-005	0.00000E+000	5.34840E-005	0.00000E+000	9	...........	1426.13
	72	13.1	4.92435E-005	-2.80057E-005	0.00000E+000	5.34840E-005	0.00000E+000	9	...........	1426.13
	73	14.1	5.01096E-005	-2.70865E-005	0.00000E+000	5.34840E-005	0.00000E+000	9	...........	1426.13
	74	15.1	4.94147E-005	-2.62794E-005	0.00000E+000	5.34840E-005	0.00000E+000	9	...........	1426.13
	75	16.1	4.94127E-005	-2.55522E-005	0.00000E+000	5.34840E-005	0.00000E+000	9	...........	1426.13
	76	26.1	4.87860E-005	-2.09037E-005	0.00000E+000	5.34840E-005	0.00000E+000	9	...........	1426.13
	77	36.1	4.95379E-005	-1.87072E-005	0.00000E+000	5.34840E-005	0.00000E+000	9	...........	1426.13
	78	46.1	4.79920E-005	-1.77112E-005	0.00000E+000	5.34840E-005	0.00000E+000	9	...........	1426.13
	79	56.1	4.98623E-005	-1.69577E-005	0.00000E+000	5.34840E-005	0.00000E+000	9	...........	1426.13
	80	66.1	4.97862E-005	-1.65398E-005	0.00000E+000	5.34840E-005	0.00000E+000	9	...........	1426.04
	81	76.1	5.03849E-005	-1.58858E-005	0.00000E+000	5.34840E-005	0.00000E+000	9	...........	1426.13
	82	86.1	5.12460E-005	-1.59753E-005	0.00000E+000	5.34840E-005	0.00000E+000	9	...........	1426.13
	83	96.1	5.01987E-005	-1.57240E-005	0.00000E+000	5.34840E-005	0.00000E+000	9	...........	1426.13
	84	106.1	4.95399E-005	-1.57030E-005	0.00000E+000	5.34840E-005	0.00000E+000	9	...........	1426.13
	85	116.1	4.94257E-005	-1.53666E-005	0.00000E+000	5.34840E-005	0.00000E+000	9	...........	1426.13
	86	216.1	4.99013E-005	-1.51100E-005	0.00000E+000	5.34840E-005	0.00000E+000	9	...........	1426.22
	87	300	4.80440E-005	-1.51687E-005	0.00000E+000	5.34840E-005	0.00000E+000	9	...........	1426.13
	88	300.1	-3.29270E-002	-4.21493E-004	0.00000E+000	-9.99460E-002	0.00000E+000	9	.........v.	1426.13
	89	300.2	-9.99743E-002	-3.28040E-004	0.00000E+000	-9.99460E-002	0.00000E+000	9	...........	1426.13
	90	300.3	-9.99751E-002	-2.68154E-004	0.00000E+000	-9.99460E-002	0.00000E+000	9	...........	1426.13
	91	300.4	-9.99758E-002	-2.26088E-004	0.00000E+000	-9.99460E-002	0.00000E+000	9	...........	1426.13
	92	300.5	-9.99776E-002	-1.94850E-004	0.00000E+000	-9.99460E-002	0.00000E+000	9	...........	1426.13
	93	300.6	-9.99768E-002	-1.70732E-004	0.00000E+000	-9.99460E-002	0.00000E+000	9	...........	1426.13
	94	300.7	-9.99761E-002	-1.51615E-004	0.00000E+000	-9.99460E-002	0.00000E+000	9	...........	1426.13
	95	300.8	-9.99771E-002	-1.36121E-004	0.00000E+000	-9.99460E-002	0.00000E+000	9	...........	1426.13
	96	300.9	-9.99771E-002	-1.23339E-004	0.00000E+000	-9.99460E-002	0.00000E+000	9	...........	1426.13
	97	301	-9.99747E-002	-1.12645E-004	0.00000E+000	-9.99460E-002	0.00000E+000	9	...........	1426.22
