EXPLAIN
TAG	CHRONOA
TITLE	LABEL	Chronoamperometry Scan	Test Identifier
DATE	LABEL	7/2/2022	Date
TIME	LABEL	12:34:02	Time
NOTES	NOTES	1	Notes...
	
PSTAT	PSTAT	IFC1010-21051	Potentiostat
VPRESTEP	POTEN	3.00000E-001	F	Pre-step Voltage (V)
TPRESTEP	QUANT	5.00000E-001	Pre-step Delay Time (s)
VSTEP1	POTEN	4.00000E-001	F	Step 1 Voltage (V)
TSTEP1	QUANT	3.00000E+002	Step 1 Time (s)
VSTEP2	POTEN	3.00000E-001	F	Step 2 Voltage (V)
TSTEP2	QUANT	1.00000E+000	Step 2 Time (s)
SAMPLETIME	QUANT	1.00000E-001	Sample Period (s)
DECIMATE	TOGGLE	T	Decimate
ILIMIT	QUANT	1.00000E+000	Limit I (mA/cm^2)
IMODE	SELECTOR	1	I/E Range Mode
IRANGE	QUANT	3.00000E-001	Max Current (mA)
EQDELAY	QUANT	5.00000E+000	Equil. Time (s)
SAMPLINGMODE	SELECTOR	1	Sampling Mode
AREA	QUANT	1.00000E+000	Sample Area (cm^2)
IRCOMP	SELECTOR	0	IRComp
PFCOR	QUANT	5.00000E+001	PF Corr. (ohm)
SEQUENCER	TOGGLE	TRUE	Run as Sequence
PSTATMODEL	IQUANT	64	Pstat Model
PSTATSECTION	LABEL	IFC1010-21051	Pstat Section
PSTATSERIALNO	LABEL	21051	Pstat Serial Number
CTRLMODE	IQUANT	1	Control Mode
ELECTROMETER	IQUANT	0	RE=0 or CS=1
IESTAB	IQUANT	0	I/E Stability
CASPEED	IQUANT	4	Control Amp Speed
CONVENTION	IQUANT	1	Current Convention
ICHRANGE	IQUANT	2	Ich Range
ICHRANGEMODE	TOGGLE	T	Ich Auto Range
ICHOFFSETENABLE	TOGGLE	F	Ich Offset Enable
ICHOFFSET	QUANT	0	Ich Offset (V)
ICHFILTER	IQUANT	3	Ich Filter
VCHRANGE	IQUANT	3	Vch Range
VCHRANGEMODE	TOGGLE	T	Vch Auto Range
VCHOFFSETENABLE	TOGGLE	F	Vch Offset Enable
VCHOFFSET	QUANT	0	Vch Offset (V)
VCHFILTER	IQUANT	3	Vch Filter
IERANGELOWERLIMIT	IQUANT	4	I/E Range Lower Limit
IERANGEMODE	TOGGLE	F	I/E AutoRange
IERANGE	IQUANT	9	I/E Range
ACHSELECT	IQUANT	0	Ach Select
ACHRANGE	IQUANT	2	Ach Range
ACHOFFSETENABLE	TOGGLE	F	Ach Offset Enable
ACHOFFSET	QUANT	0	Ach Offset (V)
ACHFILTER	IQUANT	1	Ach Filter
SENSECABLEID	IQUANT	14	Sense Cable ID
PWRCABLEID	IQUANT	14	Power Cable ID
DCCALDATE	LABEL	1/24/2022	DC Calibration Date
ACCALDATE	LABEL	4/2/2018	AC Calibration Date
FRAMEWORKVERSION	QUANT	7.06	Framework Version
INSTRUMENTVERSION	LABEL	4.30	Instrument Version
CURVE	TABLE	98
	Pt	T	Vf	Im	Vu	Sig	Ach	IERange	Over	Temp
	#	s	V vs. Ref.	A	V	V	V	#	bits	deg C
	0	-0.4	2.99557E-001	1.14584E-005	0.00000E+000	3.00072E-001	0.00000E+000	9	...........	1425.87
	1	-0.3	3.00315E-001	1.13190E-005	0.00000E+000	3.00072E-001	0.00000E+000	9	...........	1425.87
	2	-0.2	3.00310E-001	1.12131E-005	0.00000E+000	3.00072E-001	0.00000E+000	9	...........	1425.87
	3	-0.1	3.00283E-001	1.10967E-005	0.00000E+000	3.00072E-001	0.00000E+000	9	...........	1425.87
	4	0	3.00297E-001	1.10049E-005	0.00000E+000	3.00072E-001	0.00000E+000	9	...........	1425.87
	5	0.1	4.00344E-001	5.31006E-004	0.00000E+000	4.00072E-001	0.00000E+000	9	...........	1425.87
	6	0.2	4.00341E-001	4.45249E-004	0.00000E+000	4.00072E-001	0.00000E+000	9	...........	1425.87
	7	0.3	4.00339E-001	3.90393E-004	0.00000E+000	4.00072E-001	0.00000E+000	9	...........	1425.87
	8	0.4	4.00357E-001	3.51291E-004	0.00000E+000	4.00072E-001	0.00000E+000	9	...........	1425.87
	9	0.5	4.00349E-001	3.21738E-004	0.00000E+000	4.00072E-001	0.00000E+000	9	...........	1425.87
	10	0.6	4.00346E-001	2.98321E-004	0.00000E+000	4.00072E-001	0.00000E+000	9	...........	1425.87
	11	0.7	4.00354E-001	2.79344E-004	0.00000E+000	4.00072E-001	0.00000E+000	9	...........	1425.87
	12	0.8	4.00351E-001	2.63435E-004	0.00000E+000	4.00072E-001	0.00000E+000	9	...........	1425.87
	13	0.9	4.00356E-001	2.49826E-004	0.00000E+000	4.00072E-001	0.00000E+000	9	...........	1425.87
	14	1	4.00360E-001	2.37996E-004	0.00000E+000	4.00072E-001	0.00000E+000	9	...........	1425.78
	15	1.1	4.00353E-001	2.27555E-004	0.00000E+000	4.00072E-001	0.00000E+000	9	...........	1425.78
	16	1.2	4.00352E-001	2.18342E-004	0.00000E+000	4.00072E-001	0.00000E+000	9	...........	1425.78
	17	1.3	4.00363E-001	2.09976E-004	0.00000E+000	4.00072E-001	0.00000E+000	9	...........	1425.78
	18	1.4	4.00363E-001	2.02491E-004	0.00000E+000	4.00072E-001	0.00000E+000	9	...........	1425.78
	19	1.5	4.00349E-001	1.95645E-004	0.00000E+000	4.00072E-001	0.00000E+000	9	...........	1425.78
	20	1.6	4.00361E-001	1.89443E-004	0.00000E+000	4.00072E-001	0.00000E+000	9	...........	1425.78
	21	1.7	4.00358E-001	1.83685E-004	0.00000E+000	4.00072E-001	0.00000E+000	9	...........	1425.78
	22	1.8	4.00357E-001	1.78374E-004	0.00000E+000	4.00072E-001	0.00000E+000	9	...........	1425.78
	23	1.9	4.00367E-001	1.73426E-004	0.00000E+000	4.00072E-001	0.00000E+000	9	...........	1425.78
	24	2	4.00352E-001	1.68911E-004	0.00000E+000	4.00072E-001	0.00000E+000	9	...........	1425.78
	25	2.1	4.00360E-001	1.64650E-004	0.00000E+000	4.00072E-001	0.00000E+000	9	...........	1425.78
	26	2.2	4.00360E-001	1.60654E-004	0.00000E+000	4.00072E-001	0.00000E+000	9	...........	1425.78
	27	2.3	4.00342E-001	1.56864E-004	0.00000E+000	4.00072E-001	0.00000E+000	9	...........	1425.78
	28	2.4	4.00359E-001	1.53338E-004	0.00000E+000	4.00072E-001	0.00000E+000	9	...........	1425.78
	29	2.5	4.00341E-001	1.49969E-004	0.00000E+000	4.00072E-001	0.00000E+000	9	...........	1425.78
	30	2.6	4.00359E-001	1.46801E-004	0.00000E+000	4.00072E-001	0.00000E+000	9	...........	1425.78
	31	2.7	4.00347E-001	1.43822E-004	0.00000E+000	4.00072E-001	0.00000E+000	9	...........	1425.78
	32	2.8	4.00338E-001	1.40910E-004	0.00000E+000	4.00072E-001	0.00000E+000	9	...........	1425.78
	33	2.9	4.00362E-001	1.38220E-004	0.00000E+000	4.00072E-001	0.00000E+000	9	...........	1425.78
	34	3	4.00364E-001	1.35596E-004	0.00000E+000	4.00072E-001	0.00000E+000	9	...........	1425.78
	35	3.1	4.00356E-001	1.33126E-004	0.00000E+000	4.00072E-001	0.00000E+000	9	...........	1425.78
	36	3.2	4.00354E-001	1.30728E-004	0.00000E+000	4.00072E-001	0.00000E+000	9	...........	1425.78
	37	3.3	4.00350E-001	1.28426E-004	0.00000E+000	4.00072E-001	0.00000E+000	9	...........	1425.78
	38	3.4	4.00351E-001	1.26236E-004	0.00000E+000	4.00072E-001	0.00000E+000	9	...........	1425.78
	39	3.5	4.00343E-001	1.24136E-004	0.00000E+000	4.00072E-001	0.00000E+000	9	...........	1425.78
	40	3.6	4.00354E-001	1.22080E-004	0.00000E+000	4.00072E-001	0.00000E+000	9	...........	1425.78
	41	3.7	4.00354E-001	1.20125E-004	0.00000E+000	4.00072E-001	0.00000E+000	9	...........	1425.78
	42	3.8	4.00356E-001	1.18241E-004	0.00000E+000	4.00072E-001	0.00000E+000	9	...........	1425.78
	43	3.9	4.00354E-001	1.16403E-004	0.00000E+000	4.00072E-001	0.00000E+000	9	...........	1425.78
	44	4	4.00356E-001	1.14629E-004	0.00000E+000	4.00072E-001	0.00000E+000	9	...........	1425.78
	45	4.1	4.00349E-001	1.12938E-004	0.00000E+000	4.00072E-001	0.00000E+000	9	...........	1425.78
	46	4.2	4.00350E-001	1.11282E-004	0.00000E+000	4.00072E-001	0.00000E+000	9	...........	1425.78
	47	4.3	4.00351E-001	1.09694E-004	0.00000E+000	4.00072E-001	0.00000E+000	9	...........	1425.78
	48	4.4	4.00343E-001	1.08137E-004	0.00000E+000	4.00072E-001	0.00000E+000	9	...........	1425.78
	49	4.5	4.00353E-001	1.06582E-004	0.00000E+000	4.00072E-001	0.00000E+000	9	...........	1425.78
	50	4.6	4.00365E-001	1.05108E-004	0.00000E+000	4.00072E-001	0.00000E+000	9	...........	1425.78
	51	4.7	4.00355E-001	1.03730E-004	0.00000E+000	4.00072E-001	0.00000E+000	9	...........	1425.78
	52	4.8	4.00352E-001	1.02331E-004	0.00000E+000	4.00072E-001	0.00000E+000	9	...........	1425.78
	53	4.9	4.00350E-001	1.01021E-004	0.00000E+000	4.00072E-001	0.00000E+000	9	...........	1425.78
	54	5	4.00357E-001	9.97180E-005	0.00000E+000	4.00072E-001	0.00000E+000	9	...........	1425.69
	55	5.1	4.00362E-001	9.84569E-005	0.00000E+000	4.00072E-001	0.00000E+000	9	...........	1425.69
	56	5.2	4.00357E-001	9.72370E-005	0.00000E+000	4.00072E-001	0.00000E+000	9	...........	1425.69
	57	5.3	4.00355E-001	9.60346E-005	0.00000E+000	4.00072E-001	0.00000E+000	9	...........	1425.69
	58	5.4	4.00360E-001	9.48860E-005	0.00000E+000	4.00072E-001	0.00000E+000	9	...........	1425.69
	59	5.5	4.00359E-001	9.37620E-005	0.00000E+000	4.00072E-001	0.00000E+000	9	...........	1425.69
	60	5.6	4.00355E-001	9.26483E-005	0.00000E+000	4.00072E-001	0.00000E+000	9	...........	1425.69
	61	5.7	4.00348E-001	9.15624E-005	0.00000E+000	4.00072E-001	0.00000E+000	9	...........	1425.69
	62	5.8	4.00347E-001	9.04975E-005	0.00000E+000	4.00072E-001	0.00000E+000	9	...........	1425.69
	63	5.9	4.00356E-001	8.95187E-005	0.00000E+000	4.00072E-001	0.00000E+000	9	...........	1425.69
	64	6	4.00359E-001	8.85124E-005	0.00000E+000	4.00072E-001	0.00000E+000	9	...........	1425.78
	65	6.1	4.00386E-001	8.74950E-005	0.00000E+000	4.00072E-001	0.00000E+000	9	...........	1425.78
	66	7.1	4.00358E-001	7.89164E-005	0.00000E+000	4.00072E-001	0.00000E+000	9	...........	1425.78
	67	8.1	4.00356E-001	7.19385E-005	0.00000E+000	4.00072E-001	0.00000E+000	9	...........	1425.78
	68	9.1	4.00361E-001	6.60761E-005	0.00000E+000	4.00072E-001	0.00000E+000	9	...........	1425.78
	69	10.1	4.00357E-001	6.10872E-005	0.00000E+000	4.00072E-001	0.00000E+000	9	...........	1425.78
	70	11.1	4.00359E-001	5.67785E-005	0.00000E+000	4.00072E-001	0.00000E+000	9	...........	1425.87
	71	12.1	4.00359E-001	5.31259E-005	0.00000E+000	4.00072E-001	0.00000E+000	9	...........	1425.87
	72	13.1	4.00350E-001	4.99732E-005	0.00000E+000	4.00072E-001	0.00000E+000	9	...........	1425.87
	73	14.1	4.00352E-001	4.70731E-005	0.00000E+000	4.00072E-001	0.00000E+000	9	...........	1425.87
	74	15.1	4.00362E-001	4.45728E-005	0.00000E+000	4.00072E-001	0.00000E+000	9	...........	1425.87
	75	16.1	4.00353E-001	4.22775E-005	0.00000E+000	4.00072E-001	0.00000E+000	9	...........	1425.87
	76	26.1	4.00347E-001	3.03189E-005	0.00000E+000	4.00072E-001	0.00000E+000	9	...........	1425.87
	77	36.1	4.00351E-001	2.48052E-005	0.00000E+000	4.00072E-001	0.00000E+000	9	...........	1425.87
	78	46.1	4.00358E-001	2.22488E-005	0.00000E+000	4.00072E-001	0.00000E+000	9	...........	1425.87
	79	56.1	4.00363E-001	2.02317E-005	0.00000E+000	4.00072E-001	0.00000E+000	9	...........	1425.87
	80	66.1	4.00364E-001	1.90734E-005	0.00000E+000	4.00072E-001	0.00000E+000	9	...........	1425.87
	81	76.1	4.00368E-001	1.84367E-005	0.00000E+000	4.00072E-001	0.00000E+000	9	...........	1425.87
	82	86.1	4.00357E-001	1.79991E-005	0.00000E+000	4.00072E-001	0.00000E+000	9	...........	1425.95
	83	96.1	4.00360E-001	1.74795E-005	0.00000E+000	4.00072E-001	0.00000E+000	9	...........	1425.87
	84	106.1	4.00354E-001	1.70018E-005	0.00000E+000	4.00072E-001	0.00000E+000	9	...........	1425.87
	85	116.1	4.00360E-001	1.67064E-005	0.00000E+000	4.00072E-001	0.00000E+000	9	...........	1425.87
	86	216.1	4.00361E-001	1.58221E-005	0.00000E+000	4.00072E-001	0.00000E+000	9	...........	1425.87
	87	300	4.00360E-001	1.55047E-005	0.00000E+000	4.00072E-001	0.00000E+000	9	...........	1425.87
	88	300.1	3.00316E-001	-4.38333E-004	0.00000E+000	3.00072E-001	0.00000E+000	9	...........	1425.87
	89	300.2	3.00325E-001	-3.73969E-004	0.00000E+000	3.00072E-001	0.00000E+000	9	...........	1425.87
	90	300.3	3.00315E-001	-3.24893E-004	0.00000E+000	3.00072E-001	0.00000E+000	9	...........	1425.87
	91	300.4	3.00321E-001	-2.85189E-004	0.00000E+000	3.00072E-001	0.00000E+000	9	...........	1425.87
	92	300.5	3.00316E-001	-2.52426E-004	0.00000E+000	3.00072E-001	0.00000E+000	9	...........	1425.87
	93	300.6	3.00313E-001	-2.25204E-004	0.00000E+000	3.00072E-001	0.00000E+000	9	...........	1425.87
	94	300.7	3.00308E-001	-2.02692E-004	0.00000E+000	3.00072E-001	0.00000E+000	9	...........	1425.87
	95	300.8	3.00302E-001	-1.84212E-004	0.00000E+000	3.00072E-001	0.00000E+000	9	...........	1425.87
	96	300.9	3.00306E-001	-1.69132E-004	0.00000E+000	3.00072E-001	0.00000E+000	9	...........	1425.87
	97	301	3.00303E-001	-1.56573E-004	0.00000E+000	3.00072E-001	0.00000E+000	9	...........	1425.87
