EXPLAIN
TAG	CHRONOA
TITLE	LABEL	Chronoamperometry Scan	Test Identifier
DATE	LABEL	7/2/2022	Date
TIME	LABEL	10:28:18	Time
NOTES	NOTES	1	Notes...
	
PSTAT	PSTAT	IFC1010-21051	Potentiostat
VPRESTEP	POTEN	3.00000E-001	F	Pre-step Voltage (V)
TPRESTEP	QUANT	5.00000E-001	Pre-step Delay Time (s)
VSTEP1	POTEN	4.00000E-001	F	Step 1 Voltage (V)
TSTEP1	QUANT	3.00000E+002	Step 1 Time (s)
VSTEP2	POTEN	3.00000E-001	F	Step 2 Voltage (V)
TSTEP2	QUANT	1.00000E+000	Step 2 Time (s)
SAMPLETIME	QUANT	1.00000E-001	Sample Period (s)
DECIMATE	TOGGLE	T	Decimate
ILIMIT	QUANT	1.00000E+000	Limit I (mA/cm^2)
IMODE	SELECTOR	1	I/E Range Mode
IRANGE	QUANT	3.00000E-001	Max Current (mA)
EQDELAY	QUANT	5.00000E+000	Equil. Time (s)
SAMPLINGMODE	SELECTOR	1	Sampling Mode
AREA	QUANT	1.00000E+000	Sample Area (cm^2)
IRCOMP	SELECTOR	0	IRComp
PFCOR	QUANT	5.00000E+001	PF Corr. (ohm)
SEQUENCER	TOGGLE	TRUE	Run as Sequence
PSTATMODEL	IQUANT	64	Pstat Model
PSTATSECTION	LABEL	IFC1010-21051	Pstat Section
PSTATSERIALNO	LABEL	21051	Pstat Serial Number
CTRLMODE	IQUANT	1	Control Mode
ELECTROMETER	IQUANT	0	RE=0 or CS=1
IESTAB	IQUANT	0	I/E Stability
CASPEED	IQUANT	4	Control Amp Speed
CONVENTION	IQUANT	1	Current Convention
ICHRANGE	IQUANT	2	Ich Range
ICHRANGEMODE	TOGGLE	T	Ich Auto Range
ICHOFFSETENABLE	TOGGLE	F	Ich Offset Enable
ICHOFFSET	QUANT	0	Ich Offset (V)
ICHFILTER	IQUANT	3	Ich Filter
VCHRANGE	IQUANT	3	Vch Range
VCHRANGEMODE	TOGGLE	T	Vch Auto Range
VCHOFFSETENABLE	TOGGLE	F	Vch Offset Enable
VCHOFFSET	QUANT	0	Vch Offset (V)
VCHFILTER	IQUANT	3	Vch Filter
IERANGELOWERLIMIT	IQUANT	4	I/E Range Lower Limit
IERANGEMODE	TOGGLE	F	I/E AutoRange
IERANGE	IQUANT	9	I/E Range
ACHSELECT	IQUANT	0	Ach Select
ACHRANGE	IQUANT	2	Ach Range
ACHOFFSETENABLE	TOGGLE	F	Ach Offset Enable
ACHOFFSET	QUANT	0	Ach Offset (V)
ACHFILTER	IQUANT	1	Ach Filter
SENSECABLEID	IQUANT	14	Sense Cable ID
PWRCABLEID	IQUANT	14	Power Cable ID
DCCALDATE	LABEL	1/24/2022	DC Calibration Date
ACCALDATE	LABEL	4/2/2018	AC Calibration Date
FRAMEWORKVERSION	QUANT	7.06	Framework Version
INSTRUMENTVERSION	LABEL	4.30	Instrument Version
CURVE	TABLE	98
	Pt	T	Vf	Im	Vu	Sig	Ach	IERange	Over	Temp
	#	s	V vs. Ref.	A	V	V	V	#	bits	deg C
	0	-0.4	2.99712E-001	8.95786E-006	0.00000E+000	3.00072E-001	0.00000E+000	9	...........	1425.34
	1	-0.3	3.00334E-001	8.85145E-006	0.00000E+000	3.00072E-001	0.00000E+000	9	...........	1425.34
	2	-0.2	3.00330E-001	8.74484E-006	0.00000E+000	3.00072E-001	0.00000E+000	9	...........	1425.34
	3	-0.1	3.00325E-001	8.65635E-006	0.00000E+000	3.00072E-001	0.00000E+000	9	...........	1425.34
	4	0	3.00315E-001	8.55758E-006	0.00000E+000	3.00072E-001	0.00000E+000	9	...........	1425.34
	5	0.1	4.00372E-001	4.81730E-004	0.00000E+000	4.00072E-001	0.00000E+000	9	...........	1425.34
	6	0.2	4.00367E-001	3.99891E-004	0.00000E+000	4.00072E-001	0.00000E+000	9	...........	1425.34
	7	0.3	4.00371E-001	3.43176E-004	0.00000E+000	4.00072E-001	0.00000E+000	9	...........	1425.34
	8	0.4	4.00375E-001	3.00875E-004	0.00000E+000	4.00072E-001	0.00000E+000	9	...........	1425.34
	9	0.5	4.00378E-001	2.68026E-004	0.00000E+000	4.00072E-001	0.00000E+000	9	...........	1425.34
	10	0.6	4.00381E-001	2.41792E-004	0.00000E+000	4.00072E-001	0.00000E+000	9	...........	1425.34
	11	0.7	4.00374E-001	2.20505E-004	0.00000E+000	4.00072E-001	0.00000E+000	9	...........	1425.34
	12	0.8	4.00375E-001	2.02861E-004	0.00000E+000	4.00072E-001	0.00000E+000	9	...........	1425.34
	13	0.9	4.00380E-001	1.88086E-004	0.00000E+000	4.00072E-001	0.00000E+000	9	...........	1424.80
	14	1	4.00376E-001	1.75535E-004	0.00000E+000	4.00072E-001	0.00000E+000	9	...........	1424.80
	15	1.1	4.00384E-001	1.64724E-004	0.00000E+000	4.00072E-001	0.00000E+000	9	...........	1424.80
	16	1.2	4.00379E-001	1.55327E-004	0.00000E+000	4.00072E-001	0.00000E+000	9	...........	1424.80
	17	1.3	4.00378E-001	1.47088E-004	0.00000E+000	4.00072E-001	0.00000E+000	9	...........	1424.80
	18	1.4	4.00377E-001	1.39811E-004	0.00000E+000	4.00072E-001	0.00000E+000	9	...........	1424.80
	19	1.5	4.00380E-001	1.33296E-004	0.00000E+000	4.00072E-001	0.00000E+000	9	...........	1424.80
	20	1.6	4.00377E-001	1.27473E-004	0.00000E+000	4.00072E-001	0.00000E+000	9	...........	1424.80
	21	1.7	4.00359E-001	1.22215E-004	0.00000E+000	4.00072E-001	0.00000E+000	9	...........	1424.80
	22	1.8	4.00376E-001	1.17420E-004	0.00000E+000	4.00072E-001	0.00000E+000	9	...........	1424.80
	23	1.9	4.00371E-001	1.13156E-004	0.00000E+000	4.00072E-001	0.00000E+000	9	...........	1424.80
	24	2	4.00375E-001	1.09179E-004	0.00000E+000	4.00072E-001	0.00000E+000	9	...........	1424.80
	25	2.1	4.00377E-001	1.05518E-004	0.00000E+000	4.00072E-001	0.00000E+000	9	...........	1424.80
	26	2.2	4.00381E-001	1.02145E-004	0.00000E+000	4.00072E-001	0.00000E+000	9	...........	1424.80
	27	2.3	4.00381E-001	9.90057E-005	0.00000E+000	4.00072E-001	0.00000E+000	9	...........	1424.80
	28	2.4	4.00383E-001	9.60651E-005	0.00000E+000	4.00072E-001	0.00000E+000	9	...........	1424.80
	29	2.5	4.00378E-001	9.33398E-005	0.00000E+000	4.00072E-001	0.00000E+000	9	...........	1424.80
	30	2.6	4.00376E-001	9.07830E-005	0.00000E+000	4.00072E-001	0.00000E+000	9	...........	1424.80
	31	2.7	4.00369E-001	8.83255E-005	0.00000E+000	4.00072E-001	0.00000E+000	9	...........	1424.80
	32	2.8	4.00380E-001	8.61076E-005	0.00000E+000	4.00072E-001	0.00000E+000	9	...........	1424.80
	33	2.9	4.00379E-001	8.39948E-005	0.00000E+000	4.00072E-001	0.00000E+000	9	...........	1424.98
	34	3	4.00371E-001	8.19846E-005	0.00000E+000	4.00072E-001	0.00000E+000	9	...........	1424.98
	35	3.1	4.00375E-001	8.01226E-005	0.00000E+000	4.00072E-001	0.00000E+000	9	...........	1424.98
	36	3.2	4.00373E-001	7.83063E-005	0.00000E+000	4.00072E-001	0.00000E+000	9	...........	1424.98
	37	3.3	4.00374E-001	7.66264E-005	0.00000E+000	4.00072E-001	0.00000E+000	9	...........	1424.98
	38	3.4	4.00379E-001	7.50103E-005	0.00000E+000	4.00072E-001	0.00000E+000	9	...........	1424.98
	39	3.5	4.00383E-001	7.34810E-005	0.00000E+000	4.00072E-001	0.00000E+000	9	...........	1424.98
	40	3.6	4.00379E-001	7.19839E-005	0.00000E+000	4.00072E-001	0.00000E+000	9	...........	1424.98
	41	3.7	4.00378E-001	7.05611E-005	0.00000E+000	4.00072E-001	0.00000E+000	9	...........	1424.98
	42	3.8	4.00382E-001	6.91795E-005	0.00000E+000	4.00072E-001	0.00000E+000	9	...........	1424.98
	43	3.9	4.00366E-001	6.79153E-005	0.00000E+000	4.00072E-001	0.00000E+000	9	...........	1425.07
	44	4	4.00372E-001	6.66775E-005	0.00000E+000	4.00072E-001	0.00000E+000	9	...........	1425.07
	45	4.1	4.00379E-001	6.54823E-005	0.00000E+000	4.00072E-001	0.00000E+000	9	...........	1425.07
	46	4.2	4.00371E-001	6.43384E-005	0.00000E+000	4.00072E-001	0.00000E+000	9	...........	1425.07
	47	4.3	4.00378E-001	6.32804E-005	0.00000E+000	4.00072E-001	0.00000E+000	9	...........	1425.07
	48	4.4	4.00371E-001	6.22476E-005	0.00000E+000	4.00072E-001	0.00000E+000	9	...........	1425.07
	49	4.5	4.00373E-001	6.12366E-005	0.00000E+000	4.00072E-001	0.00000E+000	9	...........	1425.07
	50	4.6	4.00387E-001	6.02796E-005	0.00000E+000	4.00072E-001	0.00000E+000	9	...........	1425.07
	51	4.7	4.00376E-001	5.93313E-005	0.00000E+000	4.00072E-001	0.00000E+000	9	...........	1425.07
	52	4.8	4.00389E-001	5.84260E-005	0.00000E+000	4.00072E-001	0.00000E+000	9	...........	1425.07
	53	4.9	4.00362E-001	5.75673E-005	0.00000E+000	4.00072E-001	0.00000E+000	9	...........	1425.25
	54	5	4.00373E-001	5.67340E-005	0.00000E+000	4.00072E-001	0.00000E+000	9	...........	1425.25
	55	5.1	4.00374E-001	5.59314E-005	0.00000E+000	4.00072E-001	0.00000E+000	9	...........	1425.25
	56	5.2	4.00379E-001	5.51633E-005	0.00000E+000	4.00072E-001	0.00000E+000	9	...........	1425.25
	57	5.3	4.00378E-001	5.44093E-005	0.00000E+000	4.00072E-001	0.00000E+000	9	...........	1425.25
	58	5.4	4.00376E-001	5.37312E-005	0.00000E+000	4.00072E-001	0.00000E+000	9	...........	1425.25
	59	5.5	4.00374E-001	5.30292E-005	0.00000E+000	4.00072E-001	0.00000E+000	9	...........	1425.25
	60	5.6	4.00377E-001	5.23580E-005	0.00000E+000	4.00072E-001	0.00000E+000	9	...........	1425.25
	61	5.7	4.00367E-001	5.16979E-005	0.00000E+000	4.00072E-001	0.00000E+000	9	...........	1425.25
	62	5.8	4.00374E-001	5.11188E-005	0.00000E+000	4.00072E-001	0.00000E+000	9	...........	1425.25
	63	5.9	4.00381E-001	5.05118E-005	0.00000E+000	4.00072E-001	0.00000E+000	9	...........	1425.25
	64	6	4.00373E-001	4.99173E-005	0.00000E+000	4.00072E-001	0.00000E+000	9	...........	1425.25
	65	6.1	4.00371E-001	4.93342E-005	0.00000E+000	4.00072E-001	0.00000E+000	9	...........	1425.25
	66	7.1	4.00382E-001	4.45398E-005	0.00000E+000	4.00072E-001	0.00000E+000	9	...........	1425.25
	67	8.1	4.00381E-001	4.07222E-005	0.00000E+000	4.00072E-001	0.00000E+000	9	...........	1425.25
	68	9.1	4.00372E-001	3.75677E-005	0.00000E+000	4.00072E-001	0.00000E+000	9	...........	1425.34
	69	10.1	4.00368E-001	3.51062E-005	0.00000E+000	4.00072E-001	0.00000E+000	9	...........	1425.34
	70	11.1	4.00384E-001	3.30186E-005	0.00000E+000	4.00072E-001	0.00000E+000	9	...........	1425.34
	71	12.1	4.00376E-001	3.11249E-005	0.00000E+000	4.00072E-001	0.00000E+000	9	...........	1425.34
	72	13.1	4.00377E-001	2.95483E-005	0.00000E+000	4.00072E-001	0.00000E+000	9	...........	1425.34
	73	14.1	4.00375E-001	2.83098E-005	0.00000E+000	4.00072E-001	0.00000E+000	9	...........	1425.34
	74	15.1	4.00372E-001	2.71918E-005	0.00000E+000	4.00072E-001	0.00000E+000	9	...........	1425.34
	75	16.1	4.00370E-001	2.62251E-005	0.00000E+000	4.00072E-001	0.00000E+000	9	...........	1425.34
	76	26.1	4.00380E-001	2.03419E-005	0.00000E+000	4.00072E-001	0.00000E+000	9	...........	1425.34
	77	36.1	4.00371E-001	1.76199E-005	0.00000E+000	4.00072E-001	0.00000E+000	9	...........	1425.34
	78	46.1	4.00374E-001	1.63870E-005	0.00000E+000	4.00072E-001	0.00000E+000	9	...........	1425.34
	79	56.1	4.00382E-001	1.50746E-005	0.00000E+000	4.00072E-001	0.00000E+000	9	...........	1425.34
	80	66.1	4.00377E-001	1.44529E-005	0.00000E+000	4.00072E-001	0.00000E+000	9	...........	1425.34
	81	76.1	4.00378E-001	1.41316E-005	0.00000E+000	4.00072E-001	0.00000E+000	9	...........	1425.34
	82	86.1	4.00384E-001	1.39143E-005	0.00000E+000	4.00072E-001	0.00000E+000	9	...........	1425.34
	83	96.1	4.00385E-001	1.36354E-005	0.00000E+000	4.00072E-001	0.00000E+000	9	...........	1425.34
	84	106.1	4.00386E-001	1.31803E-005	0.00000E+000	4.00072E-001	0.00000E+000	9	...........	1425.34
	85	116.1	4.00381E-001	1.30926E-005	0.00000E+000	4.00072E-001	0.00000E+000	9	...........	1425.34
	86	216.1	4.00370E-001	1.27805E-005	0.00000E+000	4.00072E-001	0.00000E+000	9	...........	1425.34
	87	300	4.00371E-001	1.24460E-005	0.00000E+000	4.00072E-001	0.00000E+000	9	...........	1425.34
	88	300.1	3.00341E-001	-4.44039E-004	0.00000E+000	3.00072E-001	0.00000E+000	9	...........	1425.34
	89	300.2	3.00332E-001	-3.87058E-004	0.00000E+000	3.00072E-001	0.00000E+000	9	...........	1425.34
	90	300.3	3.00339E-001	-3.40419E-004	0.00000E+000	3.00072E-001	0.00000E+000	9	...........	1425.34
	91	300.4	3.00342E-001	-3.00910E-004	0.00000E+000	3.00072E-001	0.00000E+000	9	...........	1425.34
	92	300.5	3.00336E-001	-2.67087E-004	0.00000E+000	3.00072E-001	0.00000E+000	9	...........	1425.34
	93	300.6	3.00331E-001	-2.37999E-004	0.00000E+000	3.00072E-001	0.00000E+000	9	...........	1425.34
	94	300.7	3.00331E-001	-2.12996E-004	0.00000E+000	3.00072E-001	0.00000E+000	9	...........	1425.34
	95	300.8	3.00313E-001	-1.91521E-004	0.00000E+000	3.00072E-001	0.00000E+000	9	...........	1425.34
	96	300.9	3.00326E-001	-1.73058E-004	0.00000E+000	3.00072E-001	0.00000E+000	9	...........	1425.34
	97	301	3.00328E-001	-1.57188E-004	0.00000E+000	3.00072E-001	0.00000E+000	9	...........	1425.34
