EXPLAIN
TAG	CHRONOA
TITLE	LABEL	Chronoamperometry Scan	Test Identifier
DATE	LABEL	7/2/2022	Date
TIME	LABEL	12:06:04	Time
NOTES	NOTES	1	Notes...
	
PSTAT	PSTAT	IFC1010-21051	Potentiostat
VPRESTEP	POTEN	-3.00000E-001	F	Pre-step Voltage (V)
TPRESTEP	QUANT	5.00000E-001	Pre-step Delay Time (s)
VSTEP1	POTEN	-4.00000E-001	F	Step 1 Voltage (V)
TSTEP1	QUANT	3.00000E+002	Step 1 Time (s)
VSTEP2	POTEN	-5.00000E-001	F	Step 2 Voltage (V)
TSTEP2	QUANT	1.00000E+000	Step 2 Time (s)
SAMPLETIME	QUANT	1.00000E-001	Sample Period (s)
DECIMATE	TOGGLE	T	Decimate
ILIMIT	QUANT	1.00000E+000	Limit I (mA/cm^2)
IMODE	SELECTOR	1	I/E Range Mode
IRANGE	QUANT	3.00000E-001	Max Current (mA)
EQDELAY	QUANT	5.00000E+000	Equil. Time (s)
SAMPLINGMODE	SELECTOR	1	Sampling Mode
AREA	QUANT	1.00000E+000	Sample Area (cm^2)
IRCOMP	SELECTOR	0	IRComp
PFCOR	QUANT	5.00000E+001	PF Corr. (ohm)
SEQUENCER	TOGGLE	TRUE	Run as Sequence
PSTATMODEL	IQUANT	64	Pstat Model
PSTATSECTION	LABEL	IFC1010-21051	Pstat Section
PSTATSERIALNO	LABEL	21051	Pstat Serial Number
CTRLMODE	IQUANT	1	Control Mode
ELECTROMETER	IQUANT	0	RE=0 or CS=1
IESTAB	IQUANT	0	I/E Stability
CASPEED	IQUANT	4	Control Amp Speed
CONVENTION	IQUANT	1	Current Convention
ICHRANGE	IQUANT	2	Ich Range
ICHRANGEMODE	TOGGLE	T	Ich Auto Range
ICHOFFSETENABLE	TOGGLE	F	Ich Offset Enable
ICHOFFSET	QUANT	0	Ich Offset (V)
ICHFILTER	IQUANT	3	Ich Filter
VCHRANGE	IQUANT	3	Vch Range
VCHRANGEMODE	TOGGLE	T	Vch Auto Range
VCHOFFSETENABLE	TOGGLE	F	Vch Offset Enable
VCHOFFSET	QUANT	0	Vch Offset (V)
VCHFILTER	IQUANT	3	Vch Filter
IERANGELOWERLIMIT	IQUANT	4	I/E Range Lower Limit
IERANGEMODE	TOGGLE	F	I/E AutoRange
IERANGE	IQUANT	9	I/E Range
ACHSELECT	IQUANT	0	Ach Select
ACHRANGE	IQUANT	2	Ach Range
ACHOFFSETENABLE	TOGGLE	F	Ach Offset Enable
ACHOFFSET	QUANT	0	Ach Offset (V)
ACHFILTER	IQUANT	1	Ach Filter
SENSECABLEID	IQUANT	14	Sense Cable ID
PWRCABLEID	IQUANT	14	Power Cable ID
DCCALDATE	LABEL	1/24/2022	DC Calibration Date
ACCALDATE	LABEL	4/2/2018	AC Calibration Date
FRAMEWORKVERSION	QUANT	7.06	Framework Version
INSTRUMENTVERSION	LABEL	4.30	Instrument Version
CURVE	TABLE	98
	Pt	T	Vf	Im	Vu	Sig	Ach	IERange	Over	Temp
	#	s	V vs. Ref.	A	V	V	V	#	bits	deg C
	0	-0.4	-3.01226E-001	-8.25240E-005	0.00000E+000	-3.00011E-001	0.00000E+000	9	...........	1425.95
	1	-0.3	-3.00675E-001	-8.23616E-005	0.00000E+000	-3.00011E-001	0.00000E+000	9	...........	1425.95
	2	-0.2	-3.00676E-001	-8.22029E-005	0.00000E+000	-3.00011E-001	0.00000E+000	9	...........	1425.95
	3	-0.1	-3.00674E-001	-8.20505E-005	0.00000E+000	-3.00011E-001	0.00000E+000	9	...........	1425.95
	4	0	-3.00672E-001	-8.18968E-005	0.00000E+000	-3.00011E-001	0.00000E+000	9	...........	1425.95
	5	0.1	-4.00721E-001	-5.44455E-004	0.00000E+000	-4.00011E-001	0.00000E+000	9	...........	1425.95
	6	0.2	-4.00714E-001	-4.60402E-004	0.00000E+000	-4.00011E-001	0.00000E+000	9	...........	1425.95
	7	0.3	-4.00719E-001	-4.02209E-004	0.00000E+000	-4.00011E-001	0.00000E+000	9	...........	1425.95
	8	0.4	-4.00716E-001	-3.62293E-004	0.00000E+000	-4.00011E-001	0.00000E+000	9	...........	1425.95
	9	0.5	-4.00726E-001	-3.34206E-004	0.00000E+000	-4.00011E-001	0.00000E+000	9	...........	1425.95
	10	0.6	-4.00717E-001	-3.13693E-004	0.00000E+000	-4.00011E-001	0.00000E+000	9	...........	1425.95
	11	0.7	-4.00704E-001	-2.98121E-004	0.00000E+000	-4.00011E-001	0.00000E+000	9	...........	1425.95
	12	0.8	-4.00718E-001	-2.86140E-004	0.00000E+000	-4.00011E-001	0.00000E+000	9	...........	1425.87
	13	0.9	-4.00723E-001	-2.76539E-004	0.00000E+000	-4.00011E-001	0.00000E+000	9	...........	1425.87
	14	1	-4.00725E-001	-2.68644E-004	0.00000E+000	-4.00011E-001	0.00000E+000	9	...........	1425.87
	15	1.1	-4.00719E-001	-2.62020E-004	0.00000E+000	-4.00011E-001	0.00000E+000	9	...........	1425.87
	16	1.2	-4.00723E-001	-2.56358E-004	0.00000E+000	-4.00011E-001	0.00000E+000	9	...........	1425.87
	17	1.3	-4.00711E-001	-2.51478E-004	0.00000E+000	-4.00011E-001	0.00000E+000	9	...........	1425.87
	18	1.4	-4.00719E-001	-2.47183E-004	0.00000E+000	-4.00011E-001	0.00000E+000	9	...........	1425.87
	19	1.5	-4.00719E-001	-2.43299E-004	0.00000E+000	-4.00011E-001	0.00000E+000	9	...........	1425.87
	20	1.6	-4.00715E-001	-2.39825E-004	0.00000E+000	-4.00011E-001	0.00000E+000	9	...........	1425.87
	21	1.7	-4.00717E-001	-2.36621E-004	0.00000E+000	-4.00011E-001	0.00000E+000	9	...........	1425.87
	22	1.8	-4.00717E-001	-2.33756E-004	0.00000E+000	-4.00011E-001	0.00000E+000	9	...........	1425.87
	23	1.9	-4.00712E-001	-2.31047E-004	0.00000E+000	-4.00011E-001	0.00000E+000	9	...........	1425.87
	24	2	-4.00718E-001	-2.28530E-004	0.00000E+000	-4.00011E-001	0.00000E+000	9	...........	1425.87
	25	2.1	-4.00726E-001	-2.26173E-004	0.00000E+000	-4.00011E-001	0.00000E+000	9	...........	1425.87
	26	2.2	-4.00717E-001	-2.23953E-004	0.00000E+000	-4.00011E-001	0.00000E+000	9	...........	1425.87
	27	2.3	-4.00710E-001	-2.21881E-004	0.00000E+000	-4.00011E-001	0.00000E+000	9	...........	1425.87
	28	2.4	-4.00712E-001	-2.19886E-004	0.00000E+000	-4.00011E-001	0.00000E+000	9	...........	1425.87
	29	2.5	-4.00720E-001	-2.17992E-004	0.00000E+000	-4.00011E-001	0.00000E+000	9	...........	1425.87
	30	2.6	-4.00716E-001	-2.16202E-004	0.00000E+000	-4.00011E-001	0.00000E+000	9	...........	1425.87
	31	2.7	-4.00716E-001	-2.14509E-004	0.00000E+000	-4.00011E-001	0.00000E+000	9	...........	1425.87
	32	2.8	-4.00719E-001	-2.12829E-004	0.00000E+000	-4.00011E-001	0.00000E+000	9	...........	1425.51
	33	2.9	-4.00713E-001	-2.11290E-004	0.00000E+000	-4.00011E-001	0.00000E+000	9	...........	1425.51
	34	3	-4.00717E-001	-2.09747E-004	0.00000E+000	-4.00011E-001	0.00000E+000	9	...........	1425.51
	35	3.1	-4.00723E-001	-2.08300E-004	0.00000E+000	-4.00011E-001	0.00000E+000	9	...........	1425.51
	36	3.2	-4.00722E-001	-2.06911E-004	0.00000E+000	-4.00011E-001	0.00000E+000	9	...........	1425.51
	37	3.3	-4.00723E-001	-2.05547E-004	0.00000E+000	-4.00011E-001	0.00000E+000	9	...........	1425.51
	38	3.4	-4.00715E-001	-2.04228E-004	0.00000E+000	-4.00011E-001	0.00000E+000	9	...........	1425.51
	39	3.5	-4.00725E-001	-2.02983E-004	0.00000E+000	-4.00011E-001	0.00000E+000	9	...........	1425.51
	40	3.6	-4.00717E-001	-2.01726E-004	0.00000E+000	-4.00011E-001	0.00000E+000	9	...........	1425.51
	41	3.7	-4.00715E-001	-2.00536E-004	0.00000E+000	-4.00011E-001	0.00000E+000	9	...........	1425.51
	42	3.8	-4.00698E-001	-1.99368E-004	0.00000E+000	-4.00011E-001	0.00000E+000	9	...........	1425.87
	43	3.9	-4.00714E-001	-1.98263E-004	0.00000E+000	-4.00011E-001	0.00000E+000	9	...........	1425.87
	44	4	-4.00711E-001	-1.97204E-004	0.00000E+000	-4.00011E-001	0.00000E+000	9	...........	1425.87
	45	4.1	-4.00707E-001	-1.96123E-004	0.00000E+000	-4.00011E-001	0.00000E+000	9	...........	1425.87
	46	4.2	-4.00702E-001	-1.95069E-004	0.00000E+000	-4.00011E-001	0.00000E+000	9	...........	1425.87
	47	4.3	-4.00710E-001	-1.94067E-004	0.00000E+000	-4.00011E-001	0.00000E+000	9	...........	1425.87
	48	4.4	-4.00703E-001	-1.93062E-004	0.00000E+000	-4.00011E-001	0.00000E+000	9	...........	1425.87
	49	4.5	-4.00709E-001	-1.92120E-004	0.00000E+000	-4.00011E-001	0.00000E+000	9	...........	1425.87
	50	4.6	-4.00718E-001	-1.91183E-004	0.00000E+000	-4.00011E-001	0.00000E+000	9	...........	1425.87
	51	4.7	-4.00728E-001	-1.90279E-004	0.00000E+000	-4.00011E-001	0.00000E+000	9	...........	1425.87
	52	4.8	-4.00736E-001	-1.89382E-004	0.00000E+000	-4.00011E-001	0.00000E+000	9	...........	1425.69
	53	4.9	-4.00720E-001	-1.88485E-004	0.00000E+000	-4.00011E-001	0.00000E+000	9	...........	1425.69
	54	5	-4.00720E-001	-1.87689E-004	0.00000E+000	-4.00011E-001	0.00000E+000	9	...........	1425.69
	55	5.1	-4.00719E-001	-1.86828E-004	0.00000E+000	-4.00011E-001	0.00000E+000	9	...........	1425.69
	56	5.2	-4.00721E-001	-1.86080E-004	0.00000E+000	-4.00011E-001	0.00000E+000	9	...........	1425.69
	57	5.3	-4.00728E-001	-1.85277E-004	0.00000E+000	-4.00011E-001	0.00000E+000	9	...........	1425.69
	58	5.4	-4.00720E-001	-1.84499E-004	0.00000E+000	-4.00011E-001	0.00000E+000	9	...........	1425.69
	59	5.5	-4.00719E-001	-1.83727E-004	0.00000E+000	-4.00011E-001	0.00000E+000	9	...........	1425.69
	60	5.6	-4.00718E-001	-1.83002E-004	0.00000E+000	-4.00011E-001	0.00000E+000	9	...........	1425.69
	61	5.7	-4.00715E-001	-1.82267E-004	0.00000E+000	-4.00011E-001	0.00000E+000	9	...........	1425.69
	62	5.8	-4.00716E-001	-1.81540E-004	0.00000E+000	-4.00011E-001	0.00000E+000	9	...........	1425.87
	63	5.9	-4.00721E-001	-1.80838E-004	0.00000E+000	-4.00011E-001	0.00000E+000	9	...........	1425.87
	64	6	-4.00722E-001	-1.80159E-004	0.00000E+000	-4.00011E-001	0.00000E+000	9	...........	1425.87
	65	6.1	-4.00725E-001	-1.79498E-004	0.00000E+000	-4.00011E-001	0.00000E+000	9	...........	1425.87
	66	7.1	-4.00717E-001	-1.73322E-004	0.00000E+000	-4.00011E-001	0.00000E+000	9	...........	1425.87
	67	8.1	-4.00698E-001	-1.68055E-004	0.00000E+000	-4.00011E-001	0.00000E+000	9	...........	1425.87
	68	9.1	-4.00709E-001	-1.63449E-004	0.00000E+000	-4.00011E-001	0.00000E+000	9	...........	1425.87
	69	10.1	-4.00718E-001	-1.59365E-004	0.00000E+000	-4.00011E-001	0.00000E+000	9	...........	1425.87
	70	11.1	-4.00713E-001	-1.55607E-004	0.00000E+000	-4.00011E-001	0.00000E+000	9	...........	1425.87
	71	12.1	-4.00729E-001	-1.52457E-004	0.00000E+000	-4.00011E-001	0.00000E+000	9	...........	1425.95
	72	13.1	-4.00717E-001	-1.49488E-004	0.00000E+000	-4.00011E-001	0.00000E+000	9	...........	1425.95
	73	14.1	-4.00737E-001	-1.46711E-004	0.00000E+000	-4.00011E-001	0.00000E+000	9	...........	1425.95
	74	15.1	-4.00715E-001	-1.44013E-004	0.00000E+000	-4.00011E-001	0.00000E+000	9	...........	1425.95
	75	16.1	-4.00718E-001	-1.41543E-004	0.00000E+000	-4.00011E-001	0.00000E+000	9	...........	1425.95
	76	26.1	-4.00716E-001	-1.25165E-004	0.00000E+000	-4.00011E-001	0.00000E+000	9	...........	1425.95
	77	36.1	-4.00727E-001	-1.14940E-004	0.00000E+000	-4.00011E-001	0.00000E+000	9	...........	1425.87
	78	46.1	-4.00715E-001	-1.07440E-004	0.00000E+000	-4.00011E-001	0.00000E+000	9	...........	1425.95
	79	56.1	-4.00720E-001	-1.02331E-004	0.00000E+000	-4.00011E-001	0.00000E+000	9	...........	1426.04
	80	66.1	-4.00728E-001	-9.83041E-005	0.00000E+000	-4.00011E-001	0.00000E+000	9	...........	1425.95
	81	76.1	-4.00720E-001	-9.50607E-005	0.00000E+000	-4.00011E-001	0.00000E+000	9	...........	1425.95
	82	86.1	-4.00703E-001	-9.19613E-005	0.00000E+000	-4.00011E-001	0.00000E+000	9	...........	1426.04
	83	96.1	-4.00714E-001	-8.97265E-005	0.00000E+000	-4.00011E-001	0.00000E+000	9	...........	1426.04
	84	106.1	-4.00723E-001	-8.82259E-005	0.00000E+000	-4.00011E-001	0.00000E+000	9	...........	1426.04
	85	116.1	-4.00725E-001	-8.65084E-005	0.00000E+000	-4.00011E-001	0.00000E+000	9	...........	1426.04
	86	216.1	-4.00718E-001	-7.79314E-005	0.00000E+000	-4.00011E-001	0.00000E+000	9	...........	1426.04
	87	300	-4.00725E-001	-7.47047E-005	0.00000E+000	-4.00011E-001	0.00000E+000	9	...........	1425.95
	88	300.1	-5.00725E-001	-5.21610E-004	0.00000E+000	-5.00010E-001	0.00000E+000	9	...........	1425.95
	89	300.2	-5.00731E-001	-4.19242E-004	0.00000E+000	-5.00010E-001	0.00000E+000	9	...........	1425.95
	90	300.3	-5.00727E-001	-3.55283E-004	0.00000E+000	-5.00010E-001	0.00000E+000	9	...........	1425.95
	91	300.4	-5.00730E-001	-3.12390E-004	0.00000E+000	-5.00010E-001	0.00000E+000	9	...........	1425.95
	92	300.5	-5.00728E-001	-2.82424E-004	0.00000E+000	-5.00010E-001	0.00000E+000	9	...........	1425.95
	93	300.6	-5.00724E-001	-2.60776E-004	0.00000E+000	-5.00010E-001	0.00000E+000	9	...........	1425.95
	94	300.7	-5.00733E-001	-2.44539E-004	0.00000E+000	-5.00010E-001	0.00000E+000	9	...........	1425.95
	95	300.8	-5.00726E-001	-2.32053E-004	0.00000E+000	-5.00010E-001	0.00000E+000	9	...........	1426.04
	96	300.9	-5.00727E-001	-2.22324E-004	0.00000E+000	-5.00010E-001	0.00000E+000	9	...........	1426.04
	97	301	-5.00729E-001	-2.14439E-004	0.00000E+000	-5.00010E-001	0.00000E+000	9	...........	1426.04
