EXPLAIN
TAG	CHRONOA
TITLE	LABEL	Chronoamperometry Scan	Test Identifier
DATE	LABEL	7/2/2022	Date
TIME	LABEL	10:18:04	Time
NOTES	NOTES	1	Notes...
	
PSTAT	PSTAT	IFC1010-21051	Potentiostat
VPRESTEP	POTEN	1.00000E-002	F	Pre-step Voltage (V)
TPRESTEP	QUANT	5.00000E-001	Pre-step Delay Time (s)
VSTEP1	POTEN	0.00000E+000	F	Step 1 Voltage (V)
TSTEP1	QUANT	3.00000E+002	Step 1 Time (s)
VSTEP2	POTEN	-1.00000E-001	F	Step 2 Voltage (V)
TSTEP2	QUANT	1.00000E+000	Step 2 Time (s)
SAMPLETIME	QUANT	1.00000E-001	Sample Period (s)
DECIMATE	TOGGLE	T	Decimate
ILIMIT	QUANT	1.00000E+000	Limit I (mA/cm^2)
IMODE	SELECTOR	1	I/E Range Mode
IRANGE	QUANT	3.00000E-001	Max Current (mA)
EQDELAY	QUANT	5.00000E+000	Equil. Time (s)
SAMPLINGMODE	SELECTOR	1	Sampling Mode
AREA	QUANT	1.00000E+000	Sample Area (cm^2)
IRCOMP	SELECTOR	0	IRComp
PFCOR	QUANT	5.00000E+001	PF Corr. (ohm)
SEQUENCER	TOGGLE	TRUE	Run as Sequence
PSTATMODEL	IQUANT	64	Pstat Model
PSTATSECTION	LABEL	IFC1010-21051	Pstat Section
PSTATSERIALNO	LABEL	21051	Pstat Serial Number
CTRLMODE	IQUANT	1	Control Mode
ELECTROMETER	IQUANT	0	RE=0 or CS=1
IESTAB	IQUANT	0	I/E Stability
CASPEED	IQUANT	4	Control Amp Speed
CONVENTION	IQUANT	1	Current Convention
ICHRANGE	IQUANT	2	Ich Range
ICHRANGEMODE	TOGGLE	T	Ich Auto Range
ICHOFFSETENABLE	TOGGLE	F	Ich Offset Enable
ICHOFFSET	QUANT	0	Ich Offset (V)
ICHFILTER	IQUANT	3	Ich Filter
VCHRANGE	IQUANT	3	Vch Range
VCHRANGEMODE	TOGGLE	T	Vch Auto Range
VCHOFFSETENABLE	TOGGLE	F	Vch Offset Enable
VCHOFFSET	QUANT	0	Vch Offset (V)
VCHFILTER	IQUANT	3	Vch Filter
IERANGELOWERLIMIT	IQUANT	4	I/E Range Lower Limit
IERANGEMODE	TOGGLE	F	I/E AutoRange
IERANGE	IQUANT	9	I/E Range
ACHSELECT	IQUANT	0	Ach Select
ACHRANGE	IQUANT	2	Ach Range
ACHOFFSETENABLE	TOGGLE	F	Ach Offset Enable
ACHOFFSET	QUANT	0	Ach Offset (V)
ACHFILTER	IQUANT	1	Ach Filter
SENSECABLEID	IQUANT	14	Sense Cable ID
PWRCABLEID	IQUANT	14	Power Cable ID
DCCALDATE	LABEL	1/24/2022	DC Calibration Date
ACCALDATE	LABEL	4/2/2018	AC Calibration Date
FRAMEWORKVERSION	QUANT	7.06	Framework Version
INSTRUMENTVERSION	LABEL	4.30	Instrument Version
CURVE	TABLE	98
	Pt	T	Vf	Im	Vu	Sig	Ach	IERange	Over	Temp
	#	s	V vs. Ref.	A	V	V	V	#	bits	deg C
	0	-0.4	9.33201E-003	-6.08957E-006	0.00000E+000	1.00559E-002	0.00000E+000	9	...........	1425.16
	1	-0.3	9.90823E-003	-6.07996E-006	0.00000E+000	1.00559E-002	0.00000E+000	9	...........	1425.16
	2	-0.2	1.00532E-002	-6.06194E-006	0.00000E+000	1.00559E-002	0.00000E+000	9	...........	1425.16
	3	-0.1	1.00677E-002	-6.04309E-006	0.00000E+000	1.00559E-002	0.00000E+000	9	...........	1425.16
	4	0	1.00690E-002	-6.02637E-006	0.00000E+000	1.00559E-002	0.00000E+000	9	...........	1425.16
	5	0.1	5.97454E-005	-4.76321E-005	0.00000E+000	5.34840E-005	0.00000E+000	9	...........	1425.16
	6	0.2	5.99187E-005	-3.89360E-005	0.00000E+000	5.34840E-005	0.00000E+000	9	...........	1425.16
	7	0.3	5.91337E-005	-3.24303E-005	0.00000E+000	5.34840E-005	0.00000E+000	9	...........	1425.16
	8	0.4	6.01529E-005	-2.74410E-005	0.00000E+000	5.34840E-005	0.00000E+000	9	...........	1425.16
	9	0.5	6.02521E-005	-2.35803E-005	0.00000E+000	5.34840E-005	0.00000E+000	9	...........	1425.16
	10	0.6	6.00048E-005	-2.05591E-005	0.00000E+000	5.34840E-005	0.00000E+000	9	...........	1425.16
	11	0.7	5.93439E-005	-1.81766E-005	0.00000E+000	5.34840E-005	0.00000E+000	9	...........	1425.16
	12	0.8	5.99136E-005	-1.62717E-005	0.00000E+000	5.34840E-005	0.00000E+000	9	...........	1425.16
	13	0.9	6.08138E-005	-1.47512E-005	0.00000E+000	5.34840E-005	0.00000E+000	9	...........	1425.16
	14	1	5.97815E-005	-1.35360E-005	0.00000E+000	5.34840E-005	0.00000E+000	9	...........	1425.16
	15	1.1	5.98055E-005	-1.25467E-005	0.00000E+000	5.34840E-005	0.00000E+000	9	...........	1425.16
	16	1.2	5.91968E-005	-1.17363E-005	0.00000E+000	5.34840E-005	0.00000E+000	9	...........	1425.51
	17	1.3	5.93079E-005	-1.10685E-005	0.00000E+000	5.34840E-005	0.00000E+000	9	...........	1425.51
	18	1.4	6.00969E-005	-1.05181E-005	0.00000E+000	5.34840E-005	0.00000E+000	9	...........	1425.51
	19	1.5	5.82486E-005	-1.00634E-005	0.00000E+000	5.34840E-005	0.00000E+000	9	...........	1425.51
	20	1.6	6.00628E-005	-9.67163E-006	0.00000E+000	5.34840E-005	0.00000E+000	9	...........	1425.51
	21	1.7	5.90716E-005	-9.35314E-006	0.00000E+000	5.34840E-005	0.00000E+000	9	...........	1425.51
	22	1.8	5.87452E-005	-9.06931E-006	0.00000E+000	5.34840E-005	0.00000E+000	9	...........	1425.51
	23	1.9	5.99737E-005	-8.82839E-006	0.00000E+000	5.34840E-005	0.00000E+000	9	...........	1425.51
	24	2	5.94070E-005	-8.62518E-006	0.00000E+000	5.34840E-005	0.00000E+000	9	...........	1425.51
	25	2.1	6.02951E-005	-8.43796E-006	0.00000E+000	5.34840E-005	0.00000E+000	9	...........	1425.51
	26	2.2	6.00048E-005	-8.28397E-006	0.00000E+000	5.34840E-005	0.00000E+000	9	...........	1425.42
	27	2.3	5.89935E-005	-8.15790E-006	0.00000E+000	5.34840E-005	0.00000E+000	9	...........	1425.42
	28	2.4	6.00698E-005	-8.02733E-006	0.00000E+000	5.34840E-005	0.00000E+000	9	...........	1425.42
	29	2.5	5.79222E-005	-7.92379E-006	0.00000E+000	5.34840E-005	0.00000E+000	9	...........	1425.42
	30	2.6	5.95512E-005	-7.83033E-006	0.00000E+000	5.34840E-005	0.00000E+000	9	...........	1425.42
	31	2.7	5.92438E-005	-7.73950E-006	0.00000E+000	5.34840E-005	0.00000E+000	9	...........	1425.42
	32	2.8	5.89875E-005	-7.66272E-006	0.00000E+000	5.34840E-005	0.00000E+000	9	...........	1425.42
	33	2.9	5.97574E-005	-7.58324E-006	0.00000E+000	5.34840E-005	0.00000E+000	9	...........	1425.42
	34	3	5.83737E-005	-7.52215E-006	0.00000E+000	5.34840E-005	0.00000E+000	9	...........	1425.42
	35	3.1	5.86361E-005	-7.46736E-006	0.00000E+000	5.34840E-005	0.00000E+000	9	...........	1425.42
	36	3.2	5.89945E-005	-7.41340E-006	0.00000E+000	5.34840E-005	0.00000E+000	9	...........	1425.42
	37	3.3	5.83968E-005	-7.37076E-006	0.00000E+000	5.34840E-005	0.00000E+000	9	...........	1425.42
	38	3.4	5.84448E-005	-7.31570E-006	0.00000E+000	5.34840E-005	0.00000E+000	9	...........	1425.42
	39	3.5	5.74536E-005	-7.27736E-006	0.00000E+000	5.34840E-005	0.00000E+000	9	...........	1425.42
	40	3.6	5.77810E-005	-7.23412E-006	0.00000E+000	5.34840E-005	0.00000E+000	9	...........	1425.42
	41	3.7	5.83848E-005	-7.19384E-006	0.00000E+000	5.34840E-005	0.00000E+000	9	...........	1425.42
	42	3.8	5.70952E-005	-7.16394E-006	0.00000E+000	5.34840E-005	0.00000E+000	9	...........	1425.42
	43	3.9	5.75187E-005	-7.12610E-006	0.00000E+000	5.34840E-005	0.00000E+000	9	...........	1425.42
	44	4	5.71352E-005	-7.08947E-006	0.00000E+000	5.34840E-005	0.00000E+000	9	...........	1425.42
	45	4.1	5.79282E-005	-7.06110E-006	0.00000E+000	5.34840E-005	0.00000E+000	9	...........	1425.42
	46	4.2	5.81455E-005	-7.03317E-006	0.00000E+000	5.34840E-005	0.00000E+000	9	...........	1425.51
	47	4.3	5.75027E-005	-7.00281E-006	0.00000E+000	5.34840E-005	0.00000E+000	9	...........	1425.51
	48	4.4	5.80373E-005	-6.98222E-006	0.00000E+000	5.34840E-005	0.00000E+000	9	...........	1425.51
	49	4.5	5.91327E-005	-6.95740E-006	0.00000E+000	5.34840E-005	0.00000E+000	9	...........	1425.51
	50	4.6	5.91947E-005	-6.93951E-006	0.00000E+000	5.34840E-005	0.00000E+000	9	...........	1425.51
	51	4.7	5.89505E-005	-6.91335E-006	0.00000E+000	5.34840E-005	0.00000E+000	9	...........	1425.51
	52	4.8	5.94781E-005	-6.89240E-006	0.00000E+000	5.34840E-005	0.00000E+000	9	...........	1425.51
	53	4.9	5.95262E-005	-6.87828E-006	0.00000E+000	5.34840E-005	0.00000E+000	9	...........	1425.51
	54	5	5.98135E-005	-6.85773E-006	0.00000E+000	5.34840E-005	0.00000E+000	9	...........	1425.51
	55	5.1	5.98075E-005	-6.83317E-006	0.00000E+000	5.34840E-005	0.00000E+000	9	...........	1425.51
	56	5.2	5.96103E-005	-6.81895E-006	0.00000E+000	5.34840E-005	0.00000E+000	9	...........	1424.98
	57	5.3	5.87362E-005	-6.80380E-006	0.00000E+000	5.34840E-005	0.00000E+000	9	...........	1424.98
	58	5.4	5.96793E-005	-6.78305E-006	0.00000E+000	5.34840E-005	0.00000E+000	9	...........	1424.98
	59	5.5	5.99817E-005	-6.77554E-006	0.00000E+000	5.34840E-005	0.00000E+000	9	...........	1424.98
	60	5.6	5.99927E-005	-6.76103E-006	0.00000E+000	5.34840E-005	0.00000E+000	9	...........	1424.98
	61	5.7	6.06225E-005	-6.74735E-006	0.00000E+000	5.34840E-005	0.00000E+000	9	...........	1424.98
	62	5.8	6.00057E-005	-6.73597E-006	0.00000E+000	5.34840E-005	0.00000E+000	9	...........	1424.98
	63	5.9	6.00828E-005	-6.72032E-006	0.00000E+000	5.34840E-005	0.00000E+000	9	...........	1424.98
	64	6	5.96703E-005	-6.71341E-006	0.00000E+000	5.34840E-005	0.00000E+000	9	...........	1424.98
	65	6.1	5.93319E-005	-6.71081E-006	0.00000E+000	5.34840E-005	0.00000E+000	9	...........	1424.98
	66	7.1	5.68879E-005	-6.62315E-006	0.00000E+000	5.34840E-005	0.00000E+000	9	...........	1425.34
	67	8.1	5.80303E-005	-6.57003E-006	0.00000E+000	5.34840E-005	0.00000E+000	9	...........	1425.42
	68	9.1	5.98706E-005	-6.53783E-006	0.00000E+000	5.34840E-005	0.00000E+000	9	...........	1425.42
	69	10.1	5.98275E-005	-6.51834E-006	0.00000E+000	5.34840E-005	0.00000E+000	9	...........	1425.51
	70	11.1	6.05244E-005	-6.50099E-006	0.00000E+000	5.34840E-005	0.00000E+000	9	...........	1425.51
	71	12.1	6.01049E-005	-6.51180E-006	0.00000E+000	5.34840E-005	0.00000E+000	9	...........	1425.07
	72	13.1	5.80113E-005	-6.52198E-006	0.00000E+000	5.34840E-005	0.00000E+000	9	...........	1425.51
	73	14.1	5.86681E-005	-6.53670E-006	0.00000E+000	5.34840E-005	0.00000E+000	9	...........	1425.07
	74	15.1	5.99707E-005	-6.54714E-006	0.00000E+000	5.34840E-005	0.00000E+000	9	...........	1425.51
	75	16.1	6.04803E-005	-6.56479E-006	0.00000E+000	5.34840E-005	0.00000E+000	9	...........	1425.16
	76	26.1	6.03191E-005	-6.86197E-006	0.00000E+000	5.34840E-005	0.00000E+000	9	...........	1425.51
	77	36.1	5.94551E-005	-7.09320E-006	0.00000E+000	5.34840E-005	0.00000E+000	9	...........	1425.42
	78	46.1	5.90916E-005	-7.95876E-006	0.00000E+000	5.34840E-005	0.00000E+000	9	...........	1425.51
	79	56.1	5.98375E-005	-8.63943E-006	0.00000E+000	5.34840E-005	0.00000E+000	9	...........	1425.51
	80	66.1	5.82546E-005	-9.03871E-006	0.00000E+000	5.34840E-005	0.00000E+000	9	...........	1425.51
	81	76.1	5.87162E-005	-9.66683E-006	0.00000E+000	5.34840E-005	0.00000E+000	9	...........	1425.51
	82	86.1	5.88914E-005	-1.05068E-005	0.00000E+000	5.34840E-005	0.00000E+000	9	...........	1425.51
	83	96.1	5.91908E-005	-1.07629E-005	0.00000E+000	5.34840E-005	0.00000E+000	9	...........	1425.51
	84	106.1	5.98576E-005	-1.13313E-005	0.00000E+000	5.34840E-005	0.00000E+000	9	...........	1425.51
	85	116.1	5.87232E-005	-1.19432E-005	0.00000E+000	5.34840E-005	0.00000E+000	9	...........	1425.51
	86	216.1	6.05334E-005	-1.41992E-005	0.00000E+000	5.34840E-005	0.00000E+000	9	...........	1425.60
	87	300	5.81675E-005	-1.48294E-005	0.00000E+000	5.34840E-005	0.00000E+000	9	...........	1425.60
	88	300.1	-3.29270E-002	-4.30604E-004	0.00000E+000	-9.99460E-002	0.00000E+000	9	.........v.	1425.60
	89	300.2	-9.99603E-002	-3.52275E-004	0.00000E+000	-9.99460E-002	0.00000E+000	9	...........	1425.60
	90	300.3	-9.99601E-002	-2.98292E-004	0.00000E+000	-9.99460E-002	0.00000E+000	9	...........	1425.60
	91	300.4	-9.99614E-002	-2.58535E-004	0.00000E+000	-9.99460E-002	0.00000E+000	9	...........	1425.60
	92	300.5	-9.99605E-002	-2.27841E-004	0.00000E+000	-9.99460E-002	0.00000E+000	9	...........	1425.60
	93	300.6	-9.99611E-002	-2.03329E-004	0.00000E+000	-9.99460E-002	0.00000E+000	9	...........	1425.60
	94	300.7	-9.99624E-002	-1.83233E-004	0.00000E+000	-9.99460E-002	0.00000E+000	9	...........	1425.60
	95	300.8	-9.99632E-002	-1.66426E-004	0.00000E+000	-9.99460E-002	0.00000E+000	9	...........	1425.60
	96	300.9	-9.99625E-002	-1.52179E-004	0.00000E+000	-9.99460E-002	0.00000E+000	9	...........	1425.60
	97	301	-9.99600E-002	-1.39924E-004	0.00000E+000	-9.99460E-002	0.00000E+000	9	...........	1425.60
