EXPLAIN
TAG	CHRONOA
TITLE	LABEL	Chronoamperometry Scan	Test Identifier
DATE	LABEL	7/2/2022	Date
TIME	LABEL	14:46:42	Time
NOTES	NOTES	1	Notes...
	
PSTAT	PSTAT	IFC1010-21051	Potentiostat
VPRESTEP	POTEN	3.00000E-001	F	Pre-step Voltage (V)
TPRESTEP	QUANT	5.00000E-001	Pre-step Delay Time (s)
VSTEP1	POTEN	4.00000E-001	F	Step 1 Voltage (V)
TSTEP1	QUANT	3.00000E+002	Step 1 Time (s)
VSTEP2	POTEN	3.00000E-001	F	Step 2 Voltage (V)
TSTEP2	QUANT	1.00000E+000	Step 2 Time (s)
SAMPLETIME	QUANT	1.00000E-001	Sample Period (s)
DECIMATE	TOGGLE	T	Decimate
ILIMIT	QUANT	1.00000E+000	Limit I (mA/cm^2)
IMODE	SELECTOR	1	I/E Range Mode
IRANGE	QUANT	3.00000E-001	Max Current (mA)
EQDELAY	QUANT	5.00000E+000	Equil. Time (s)
SAMPLINGMODE	SELECTOR	1	Sampling Mode
AREA	QUANT	1.00000E+000	Sample Area (cm^2)
IRCOMP	SELECTOR	0	IRComp
PFCOR	QUANT	5.00000E+001	PF Corr. (ohm)
SEQUENCER	TOGGLE	TRUE	Run as Sequence
PSTATMODEL	IQUANT	64	Pstat Model
PSTATSECTION	LABEL	IFC1010-21051	Pstat Section
PSTATSERIALNO	LABEL	21051	Pstat Serial Number
CTRLMODE	IQUANT	1	Control Mode
ELECTROMETER	IQUANT	0	RE=0 or CS=1
IESTAB	IQUANT	0	I/E Stability
CASPEED	IQUANT	4	Control Amp Speed
CONVENTION	IQUANT	1	Current Convention
ICHRANGE	IQUANT	2	Ich Range
ICHRANGEMODE	TOGGLE	T	Ich Auto Range
ICHOFFSETENABLE	TOGGLE	F	Ich Offset Enable
ICHOFFSET	QUANT	0	Ich Offset (V)
ICHFILTER	IQUANT	3	Ich Filter
VCHRANGE	IQUANT	3	Vch Range
VCHRANGEMODE	TOGGLE	T	Vch Auto Range
VCHOFFSETENABLE	TOGGLE	F	Vch Offset Enable
VCHOFFSET	QUANT	0	Vch Offset (V)
VCHFILTER	IQUANT	3	Vch Filter
IERANGELOWERLIMIT	IQUANT	4	I/E Range Lower Limit
IERANGEMODE	TOGGLE	F	I/E AutoRange
IERANGE	IQUANT	9	I/E Range
ACHSELECT	IQUANT	0	Ach Select
ACHRANGE	IQUANT	2	Ach Range
ACHOFFSETENABLE	TOGGLE	F	Ach Offset Enable
ACHOFFSET	QUANT	0	Ach Offset (V)
ACHFILTER	IQUANT	1	Ach Filter
SENSECABLEID	IQUANT	14	Sense Cable ID
PWRCABLEID	IQUANT	14	Power Cable ID
DCCALDATE	LABEL	1/24/2022	DC Calibration Date
ACCALDATE	LABEL	4/2/2018	AC Calibration Date
FRAMEWORKVERSION	QUANT	7.06	Framework Version
INSTRUMENTVERSION	LABEL	4.30	Instrument Version
CURVE	TABLE	98
	Pt	T	Vf	Im	Vu	Sig	Ach	IERange	Over	Temp
	#	s	V vs. Ref.	A	V	V	V	#	bits	deg C
	0	-0.4	2.99567E-001	1.20462E-005	0.00000E+000	3.00072E-001	0.00000E+000	9	...........	1426.13
	1	-0.3	3.00287E-001	1.19254E-005	0.00000E+000	3.00072E-001	0.00000E+000	9	...........	1426.13
	2	-0.2	3.00296E-001	1.18475E-005	0.00000E+000	3.00072E-001	0.00000E+000	9	...........	1426.13
	3	-0.1	3.00298E-001	1.17232E-005	0.00000E+000	3.00072E-001	0.00000E+000	9	...........	1426.13
	4	0	3.00296E-001	1.15845E-005	0.00000E+000	3.00072E-001	0.00000E+000	9	...........	1426.13
	5	0.1	4.00355E-001	5.21614E-004	0.00000E+000	4.00072E-001	0.00000E+000	9	...........	1426.13
	6	0.2	4.00338E-001	4.45094E-004	0.00000E+000	4.00072E-001	0.00000E+000	9	...........	1426.13
	7	0.3	4.00344E-001	3.98666E-004	0.00000E+000	4.00072E-001	0.00000E+000	9	...........	1426.13
	8	0.4	4.00342E-001	3.65481E-004	0.00000E+000	4.00072E-001	0.00000E+000	9	...........	1426.13
	9	0.5	4.00346E-001	3.39802E-004	0.00000E+000	4.00072E-001	0.00000E+000	9	...........	1426.13
	10	0.6	4.00352E-001	3.18899E-004	0.00000E+000	4.00072E-001	0.00000E+000	9	...........	1426.13
	11	0.7	4.00348E-001	3.01267E-004	0.00000E+000	4.00072E-001	0.00000E+000	9	...........	1426.13
	12	0.8	4.00356E-001	2.86069E-004	0.00000E+000	4.00072E-001	0.00000E+000	9	...........	1426.13
	13	0.9	4.00350E-001	2.72754E-004	0.00000E+000	4.00072E-001	0.00000E+000	9	...........	1426.13
	14	1	4.00349E-001	2.60864E-004	0.00000E+000	4.00072E-001	0.00000E+000	9	...........	1426.13
	15	1.1	4.00348E-001	2.50248E-004	0.00000E+000	4.00072E-001	0.00000E+000	9	...........	1426.13
	16	1.2	4.00340E-001	2.40641E-004	0.00000E+000	4.00072E-001	0.00000E+000	9	...........	1426.04
	17	1.3	4.00352E-001	2.31925E-004	0.00000E+000	4.00072E-001	0.00000E+000	9	...........	1426.04
	18	1.4	4.00346E-001	2.23976E-004	0.00000E+000	4.00072E-001	0.00000E+000	9	...........	1426.04
	19	1.5	4.00342E-001	2.16661E-004	0.00000E+000	4.00072E-001	0.00000E+000	9	...........	1426.04
	20	1.6	4.00344E-001	2.09907E-004	0.00000E+000	4.00072E-001	0.00000E+000	9	...........	1426.04
	21	1.7	4.00346E-001	2.03685E-004	0.00000E+000	4.00072E-001	0.00000E+000	9	...........	1426.04
	22	1.8	4.00353E-001	1.97851E-004	0.00000E+000	4.00072E-001	0.00000E+000	9	...........	1426.04
	23	1.9	4.00345E-001	1.92415E-004	0.00000E+000	4.00072E-001	0.00000E+000	9	...........	1426.04
	24	2	4.00346E-001	1.87376E-004	0.00000E+000	4.00072E-001	0.00000E+000	9	...........	1426.04
	25	2.1	4.00354E-001	1.82630E-004	0.00000E+000	4.00072E-001	0.00000E+000	9	...........	1426.04
	26	2.2	4.00347E-001	1.78125E-004	0.00000E+000	4.00072E-001	0.00000E+000	9	...........	1426.04
	27	2.3	4.00349E-001	1.73971E-004	0.00000E+000	4.00072E-001	0.00000E+000	9	...........	1426.04
	28	2.4	4.00345E-001	1.69961E-004	0.00000E+000	4.00072E-001	0.00000E+000	9	...........	1426.04
	29	2.5	4.00342E-001	1.66228E-004	0.00000E+000	4.00072E-001	0.00000E+000	9	...........	1426.04
	30	2.6	4.00347E-001	1.62727E-004	0.00000E+000	4.00072E-001	0.00000E+000	9	...........	1426.04
	31	2.7	4.00353E-001	1.59351E-004	0.00000E+000	4.00072E-001	0.00000E+000	9	...........	1426.04
	32	2.8	4.00345E-001	1.56134E-004	0.00000E+000	4.00072E-001	0.00000E+000	9	...........	1426.04
	33	2.9	4.00339E-001	1.53093E-004	0.00000E+000	4.00072E-001	0.00000E+000	9	...........	1426.04
	34	3	4.00349E-001	1.50139E-004	0.00000E+000	4.00072E-001	0.00000E+000	9	...........	1426.04
	35	3.1	4.00357E-001	1.47392E-004	0.00000E+000	4.00072E-001	0.00000E+000	9	...........	1426.04
	36	3.2	4.00349E-001	1.44739E-004	0.00000E+000	4.00072E-001	0.00000E+000	9	...........	1426.04
	37	3.3	4.00354E-001	1.42164E-004	0.00000E+000	4.00072E-001	0.00000E+000	9	...........	1426.04
	38	3.4	4.00340E-001	1.39716E-004	0.00000E+000	4.00072E-001	0.00000E+000	9	...........	1426.04
	39	3.5	4.00343E-001	1.37319E-004	0.00000E+000	4.00072E-001	0.00000E+000	9	...........	1426.04
	40	3.6	4.00353E-001	1.35096E-004	0.00000E+000	4.00072E-001	0.00000E+000	9	...........	1426.04
	41	3.7	4.00344E-001	1.32919E-004	0.00000E+000	4.00072E-001	0.00000E+000	9	...........	1426.04
	42	3.8	4.00351E-001	1.30808E-004	0.00000E+000	4.00072E-001	0.00000E+000	9	...........	1426.04
	43	3.9	4.00344E-001	1.28766E-004	0.00000E+000	4.00072E-001	0.00000E+000	9	...........	1426.04
	44	4	4.00350E-001	1.26803E-004	0.00000E+000	4.00072E-001	0.00000E+000	9	...........	1426.04
	45	4.1	4.00345E-001	1.24915E-004	0.00000E+000	4.00072E-001	0.00000E+000	9	...........	1426.04
	46	4.2	4.00348E-001	1.23037E-004	0.00000E+000	4.00072E-001	0.00000E+000	9	...........	1426.04
	47	4.3	4.00345E-001	1.21288E-004	0.00000E+000	4.00072E-001	0.00000E+000	9	...........	1426.04
	48	4.4	4.00343E-001	1.19502E-004	0.00000E+000	4.00072E-001	0.00000E+000	9	...........	1426.04
	49	4.5	4.00333E-001	1.17850E-004	0.00000E+000	4.00072E-001	0.00000E+000	9	...........	1426.04
	50	4.6	4.00341E-001	1.16276E-004	0.00000E+000	4.00072E-001	0.00000E+000	9	...........	1426.04
	51	4.7	4.00354E-001	1.14674E-004	0.00000E+000	4.00072E-001	0.00000E+000	9	...........	1426.04
	52	4.8	4.00347E-001	1.13112E-004	0.00000E+000	4.00072E-001	0.00000E+000	9	...........	1426.04
	53	4.9	4.00346E-001	1.11643E-004	0.00000E+000	4.00072E-001	0.00000E+000	9	...........	1426.04
	54	5	4.00361E-001	1.10177E-004	0.00000E+000	4.00072E-001	0.00000E+000	9	...........	1426.04
	55	5.1	4.00352E-001	1.08798E-004	0.00000E+000	4.00072E-001	0.00000E+000	9	...........	1426.04
	56	5.2	4.00350E-001	1.07368E-004	0.00000E+000	4.00072E-001	0.00000E+000	9	...........	1426.04
	57	5.3	4.00342E-001	1.06070E-004	0.00000E+000	4.00072E-001	0.00000E+000	9	...........	1426.04
	58	5.4	4.00349E-001	1.04761E-004	0.00000E+000	4.00072E-001	0.00000E+000	9	...........	1426.04
	59	5.5	4.00352E-001	1.03459E-004	0.00000E+000	4.00072E-001	0.00000E+000	9	...........	1426.04
	60	5.6	4.00339E-001	1.02236E-004	0.00000E+000	4.00072E-001	0.00000E+000	9	...........	1426.04
	61	5.7	4.00357E-001	1.01009E-004	0.00000E+000	4.00072E-001	0.00000E+000	9	...........	1426.04
	62	5.8	4.00360E-001	9.98234E-005	0.00000E+000	4.00072E-001	0.00000E+000	9	...........	1426.04
	63	5.9	4.00361E-001	9.86615E-005	0.00000E+000	4.00072E-001	0.00000E+000	9	...........	1426.04
	64	6	4.00351E-001	9.75828E-005	0.00000E+000	4.00072E-001	0.00000E+000	9	...........	1426.04
	65	6.1	4.00338E-001	9.64786E-005	0.00000E+000	4.00072E-001	0.00000E+000	9	...........	1426.04
	66	7.1	4.00335E-001	8.66591E-005	0.00000E+000	4.00072E-001	0.00000E+000	9	...........	1426.04
	67	8.1	4.00347E-001	7.86696E-005	0.00000E+000	4.00072E-001	0.00000E+000	9	...........	1426.04
	68	9.1	4.00342E-001	7.20332E-005	0.00000E+000	4.00072E-001	0.00000E+000	9	...........	1426.13
	69	10.1	4.00344E-001	6.63530E-005	0.00000E+000	4.00072E-001	0.00000E+000	9	...........	1426.13
	70	11.1	4.00349E-001	6.15785E-005	0.00000E+000	4.00072E-001	0.00000E+000	9	...........	1426.13
	71	12.1	4.00354E-001	5.74130E-005	0.00000E+000	4.00072E-001	0.00000E+000	9	...........	1426.13
	72	13.1	4.00341E-001	5.38796E-005	0.00000E+000	4.00072E-001	0.00000E+000	9	...........	1425.95
	73	14.1	4.00354E-001	5.07969E-005	0.00000E+000	4.00072E-001	0.00000E+000	9	...........	1426.13
	74	15.1	4.00352E-001	4.80760E-005	0.00000E+000	4.00072E-001	0.00000E+000	9	...........	1426.13
	75	16.1	4.00355E-001	4.56563E-005	0.00000E+000	4.00072E-001	0.00000E+000	9	...........	1426.13
	76	26.1	4.00351E-001	3.14873E-005	0.00000E+000	4.00072E-001	0.00000E+000	9	...........	1426.13
	77	36.1	4.00347E-001	2.53815E-005	0.00000E+000	4.00072E-001	0.00000E+000	9	...........	1426.13
	78	46.1	4.00354E-001	2.19796E-005	0.00000E+000	4.00072E-001	0.00000E+000	9	...........	1426.13
	79	56.1	4.00344E-001	2.02290E-005	0.00000E+000	4.00072E-001	0.00000E+000	9	...........	1426.13
	80	66.1	4.00351E-001	1.88440E-005	0.00000E+000	4.00072E-001	0.00000E+000	9	...........	1426.13
	81	76.1	4.00344E-001	1.75790E-005	0.00000E+000	4.00072E-001	0.00000E+000	9	...........	1426.13
	82	86.1	4.00344E-001	1.68672E-005	0.00000E+000	4.00072E-001	0.00000E+000	9	...........	1426.13
	83	96.1	4.00347E-001	1.65560E-005	0.00000E+000	4.00072E-001	0.00000E+000	9	...........	1426.13
	84	106.1	4.00338E-001	1.61181E-005	0.00000E+000	4.00072E-001	0.00000E+000	9	...........	1426.13
	85	116.1	4.00362E-001	1.54271E-005	0.00000E+000	4.00072E-001	0.00000E+000	9	...........	1426.13
	86	216.1	4.00369E-001	1.43320E-005	0.00000E+000	4.00072E-001	0.00000E+000	9	...........	1426.13
	87	300	4.00366E-001	1.38195E-005	0.00000E+000	4.00072E-001	0.00000E+000	9	...........	1426.04
	88	300.1	3.00306E-001	-3.75399E-004	0.00000E+000	3.00072E-001	0.00000E+000	9	...........	1426.04
	89	300.2	3.00294E-001	-2.87933E-004	0.00000E+000	3.00072E-001	0.00000E+000	9	...........	1426.13
	90	300.3	3.00306E-001	-2.33282E-004	0.00000E+000	3.00072E-001	0.00000E+000	9	...........	1426.13
	91	300.4	3.00299E-001	-1.95516E-004	0.00000E+000	3.00072E-001	0.00000E+000	9	...........	1426.13
	92	300.5	3.00287E-001	-1.68219E-004	0.00000E+000	3.00072E-001	0.00000E+000	9	...........	1426.13
	93	300.6	3.00310E-001	-1.47755E-004	0.00000E+000	3.00072E-001	0.00000E+000	9	...........	1426.13
	94	300.7	3.00312E-001	-1.32001E-004	0.00000E+000	3.00072E-001	0.00000E+000	9	...........	1426.13
	95	300.8	3.00307E-001	-1.19585E-004	0.00000E+000	3.00072E-001	0.00000E+000	9	...........	1426.13
	96	300.9	3.00313E-001	-1.09559E-004	0.00000E+000	3.00072E-001	0.00000E+000	9	...........	1426.13
	97	301	3.00320E-001	-1.01320E-004	0.00000E+000	3.00072E-001	0.00000E+000	9	...........	1426.13
