EXPLAIN
TAG	CHRONOA
TITLE	LABEL	Chronoamperometry Scan	Test Identifier
DATE	LABEL	7/2/2022	Date
TIME	LABEL	12:23:49	Time
NOTES	NOTES	1	Notes...
	
PSTAT	PSTAT	IFC1010-21051	Potentiostat
VPRESTEP	POTEN	1.00000E-002	F	Pre-step Voltage (V)
TPRESTEP	QUANT	5.00000E-001	Pre-step Delay Time (s)
VSTEP1	POTEN	0.00000E+000	F	Step 1 Voltage (V)
TSTEP1	QUANT	3.00000E+002	Step 1 Time (s)
VSTEP2	POTEN	-1.00000E-001	F	Step 2 Voltage (V)
TSTEP2	QUANT	1.00000E+000	Step 2 Time (s)
SAMPLETIME	QUANT	1.00000E-001	Sample Period (s)
DECIMATE	TOGGLE	T	Decimate
ILIMIT	QUANT	1.00000E+000	Limit I (mA/cm^2)
IMODE	SELECTOR	1	I/E Range Mode
IRANGE	QUANT	3.00000E-001	Max Current (mA)
EQDELAY	QUANT	5.00000E+000	Equil. Time (s)
SAMPLINGMODE	SELECTOR	1	Sampling Mode
AREA	QUANT	1.00000E+000	Sample Area (cm^2)
IRCOMP	SELECTOR	0	IRComp
PFCOR	QUANT	5.00000E+001	PF Corr. (ohm)
SEQUENCER	TOGGLE	TRUE	Run as Sequence
PSTATMODEL	IQUANT	64	Pstat Model
PSTATSECTION	LABEL	IFC1010-21051	Pstat Section
PSTATSERIALNO	LABEL	21051	Pstat Serial Number
CTRLMODE	IQUANT	1	Control Mode
ELECTROMETER	IQUANT	0	RE=0 or CS=1
IESTAB	IQUANT	0	I/E Stability
CASPEED	IQUANT	4	Control Amp Speed
CONVENTION	IQUANT	1	Current Convention
ICHRANGE	IQUANT	2	Ich Range
ICHRANGEMODE	TOGGLE	T	Ich Auto Range
ICHOFFSETENABLE	TOGGLE	F	Ich Offset Enable
ICHOFFSET	QUANT	0	Ich Offset (V)
ICHFILTER	IQUANT	3	Ich Filter
VCHRANGE	IQUANT	3	Vch Range
VCHRANGEMODE	TOGGLE	T	Vch Auto Range
VCHOFFSETENABLE	TOGGLE	F	Vch Offset Enable
VCHOFFSET	QUANT	0	Vch Offset (V)
VCHFILTER	IQUANT	3	Vch Filter
IERANGELOWERLIMIT	IQUANT	4	I/E Range Lower Limit
IERANGEMODE	TOGGLE	F	I/E AutoRange
IERANGE	IQUANT	9	I/E Range
ACHSELECT	IQUANT	0	Ach Select
ACHRANGE	IQUANT	2	Ach Range
ACHOFFSETENABLE	TOGGLE	F	Ach Offset Enable
ACHOFFSET	QUANT	0	Ach Offset (V)
ACHFILTER	IQUANT	1	Ach Filter
SENSECABLEID	IQUANT	14	Sense Cable ID
PWRCABLEID	IQUANT	14	Power Cable ID
DCCALDATE	LABEL	1/24/2022	DC Calibration Date
ACCALDATE	LABEL	4/2/2018	AC Calibration Date
FRAMEWORKVERSION	QUANT	7.06	Framework Version
INSTRUMENTVERSION	LABEL	4.30	Instrument Version
CURVE	TABLE	98
	Pt	T	Vf	Im	Vu	Sig	Ach	IERange	Over	Temp
	#	s	V vs. Ref.	A	V	V	V	#	bits	deg C
	0	-0.4	9.22471E-003	-2.17644E-005	0.00000E+000	1.00559E-002	0.00000E+000	9	...........	1425.95
	1	-0.3	9.88391E-003	-2.15583E-005	0.00000E+000	1.00559E-002	0.00000E+000	9	...........	1425.95
	2	-0.2	1.00414E-002	-2.13592E-005	0.00000E+000	1.00559E-002	0.00000E+000	9	...........	1425.95
	3	-0.1	1.00541E-002	-2.11828E-005	0.00000E+000	1.00559E-002	0.00000E+000	9	...........	1425.95
	4	0	1.00546E-002	-2.10102E-005	0.00000E+000	1.00559E-002	0.00000E+000	9	...........	1425.95
	5	0.1	4.56671E-005	-6.18046E-005	0.00000E+000	5.34840E-005	0.00000E+000	9	...........	1425.95
	6	0.2	4.57843E-005	-5.20683E-005	0.00000E+000	5.34840E-005	0.00000E+000	9	...........	1425.95
	7	0.3	4.70718E-005	-4.56124E-005	0.00000E+000	5.34840E-005	0.00000E+000	9	...........	1425.87
	8	0.4	4.77467E-005	-4.10420E-005	0.00000E+000	5.34840E-005	0.00000E+000	9	...........	1425.87
	9	0.5	4.78107E-005	-3.76731E-005	0.00000E+000	5.34840E-005	0.00000E+000	9	...........	1425.87
	10	0.6	4.70608E-005	-3.51006E-005	0.00000E+000	5.34840E-005	0.00000E+000	9	...........	1425.87
	11	0.7	4.70068E-005	-3.30782E-005	0.00000E+000	5.34840E-005	0.00000E+000	9	...........	1425.87
	12	0.8	4.62478E-005	-3.14375E-005	0.00000E+000	5.34840E-005	0.00000E+000	9	...........	1425.87
	13	0.9	4.63399E-005	-3.01009E-005	0.00000E+000	5.34840E-005	0.00000E+000	9	...........	1425.87
	14	1	4.74803E-005	-2.89704E-005	0.00000E+000	5.34840E-005	0.00000E+000	9	...........	1425.87
	15	1.1	4.58613E-005	-2.80236E-005	0.00000E+000	5.34840E-005	0.00000E+000	9	...........	1425.87
	16	1.2	4.55169E-005	-2.72130E-005	0.00000E+000	5.34840E-005	0.00000E+000	9	...........	1425.87
	17	1.3	4.53167E-005	-2.64968E-005	0.00000E+000	5.34840E-005	0.00000E+000	9	...........	1426.31
	18	1.4	4.49402E-005	-2.58526E-005	0.00000E+000	5.34840E-005	0.00000E+000	9	...........	1426.31
	19	1.5	4.55309E-005	-2.52797E-005	0.00000E+000	5.34840E-005	0.00000E+000	9	...........	1426.31
	20	1.6	4.50894E-005	-2.47774E-005	0.00000E+000	5.34840E-005	0.00000E+000	9	...........	1426.31
	21	1.7	4.44646E-005	-2.43212E-005	0.00000E+000	5.34840E-005	0.00000E+000	9	...........	1426.31
	22	1.8	4.58543E-005	-2.38995E-005	0.00000E+000	5.34840E-005	0.00000E+000	9	...........	1426.31
	23	1.9	4.42984E-005	-2.35216E-005	0.00000E+000	5.34840E-005	0.00000E+000	9	...........	1426.31
	24	2	4.42484E-005	-2.31819E-005	0.00000E+000	5.34840E-005	0.00000E+000	9	...........	1426.31
	25	2.1	4.44366E-005	-2.28743E-005	0.00000E+000	5.34840E-005	0.00000E+000	9	...........	1426.31
	26	2.2	4.36156E-005	-2.25945E-005	0.00000E+000	5.34840E-005	0.00000E+000	9	...........	1426.31
	27	2.3	4.47690E-005	-2.23306E-005	0.00000E+000	5.34840E-005	0.00000E+000	9	...........	1426.22
	28	2.4	4.41623E-005	-2.20844E-005	0.00000E+000	5.34840E-005	0.00000E+000	9	...........	1426.22
	29	2.5	4.52546E-005	-2.18558E-005	0.00000E+000	5.34840E-005	0.00000E+000	9	...........	1426.22
	30	2.6	4.51154E-005	-2.16351E-005	0.00000E+000	5.34840E-005	0.00000E+000	9	...........	1426.22
	31	2.7	4.58063E-005	-2.14148E-005	0.00000E+000	5.34840E-005	0.00000E+000	9	...........	1426.22
	32	2.8	4.58273E-005	-2.12042E-005	0.00000E+000	5.34840E-005	0.00000E+000	9	...........	1426.22
	33	2.9	4.52155E-005	-2.10153E-005	0.00000E+000	5.34840E-005	0.00000E+000	9	...........	1426.22
	34	3	4.49462E-005	-2.08348E-005	0.00000E+000	5.34840E-005	0.00000E+000	9	...........	1426.22
	35	3.1	4.49612E-005	-2.06601E-005	0.00000E+000	5.34840E-005	0.00000E+000	9	...........	1426.22
	36	3.2	4.44776E-005	-2.04973E-005	0.00000E+000	5.34840E-005	0.00000E+000	9	...........	1426.22
	37	3.3	4.40661E-005	-2.03424E-005	0.00000E+000	5.34840E-005	0.00000E+000	9	...........	1426.22
	38	3.4	4.47340E-005	-2.01812E-005	0.00000E+000	5.34840E-005	0.00000E+000	9	...........	1426.22
	39	3.5	4.48241E-005	-2.00233E-005	0.00000E+000	5.34840E-005	0.00000E+000	9	...........	1426.22
	40	3.6	4.44736E-005	-1.98905E-005	0.00000E+000	5.34840E-005	0.00000E+000	9	...........	1426.22
	41	3.7	4.44776E-005	-1.97667E-005	0.00000E+000	5.34840E-005	0.00000E+000	9	...........	1426.22
	42	3.8	4.48691E-005	-1.96376E-005	0.00000E+000	5.34840E-005	0.00000E+000	9	...........	1426.22
	43	3.9	4.48671E-005	-1.94914E-005	0.00000E+000	5.34840E-005	0.00000E+000	9	...........	1426.22
	44	4	4.46158E-005	-1.93576E-005	0.00000E+000	5.34840E-005	0.00000E+000	9	...........	1426.22
	45	4.1	4.40802E-005	-1.92243E-005	0.00000E+000	5.34840E-005	0.00000E+000	9	...........	1426.22
	46	4.2	4.65081E-005	-1.90791E-005	0.00000E+000	5.34840E-005	0.00000E+000	9	...........	1426.22
	47	4.3	4.55380E-005	-1.89575E-005	0.00000E+000	5.34840E-005	0.00000E+000	9	...........	1426.22
	48	4.4	4.51865E-005	-1.88347E-005	0.00000E+000	5.34840E-005	0.00000E+000	9	...........	1426.22
	49	4.5	4.51445E-005	-1.87253E-005	0.00000E+000	5.34840E-005	0.00000E+000	9	...........	1426.22
	50	4.6	4.56040E-005	-1.86224E-005	0.00000E+000	5.34840E-005	0.00000E+000	9	...........	1426.22
	51	4.7	4.37147E-005	-1.85302E-005	0.00000E+000	5.34840E-005	0.00000E+000	9	...........	1426.22
	52	4.8	4.52876E-005	-1.84179E-005	0.00000E+000	5.34840E-005	0.00000E+000	9	...........	1426.22
	53	4.9	4.46759E-005	-1.83026E-005	0.00000E+000	5.34840E-005	0.00000E+000	9	...........	1426.22
	54	5	4.52146E-005	-1.81960E-005	0.00000E+000	5.34840E-005	0.00000E+000	9	...........	1426.22
	55	5.1	4.49452E-005	-1.81014E-005	0.00000E+000	5.34840E-005	0.00000E+000	9	...........	1426.22
	56	5.2	4.49683E-005	-1.79969E-005	0.00000E+000	5.34840E-005	0.00000E+000	9	...........	1426.22
	57	5.3	4.51715E-005	-1.78974E-005	0.00000E+000	5.34840E-005	0.00000E+000	9	...........	1426.22
	58	5.4	4.52095E-005	-1.78002E-005	0.00000E+000	5.34840E-005	0.00000E+000	9	...........	1426.22
	59	5.5	4.34924E-005	-1.77181E-005	0.00000E+000	5.34840E-005	0.00000E+000	9	...........	1426.22
	60	5.6	4.52546E-005	-1.76338E-005	0.00000E+000	5.34840E-005	0.00000E+000	9	...........	1426.22
	61	5.7	4.40031E-005	-1.75564E-005	0.00000E+000	5.34840E-005	0.00000E+000	9	...........	1426.22
	62	5.8	4.42354E-005	-1.74817E-005	0.00000E+000	5.34840E-005	0.00000E+000	9	...........	1426.22
	63	5.9	4.26113E-005	-1.74359E-005	0.00000E+000	5.34840E-005	0.00000E+000	9	...........	1426.22
	64	6	4.41282E-005	-1.73711E-005	0.00000E+000	5.34840E-005	0.00000E+000	9	...........	1426.22
	65	6.1	4.48631E-005	-1.73087E-005	0.00000E+000	5.34840E-005	0.00000E+000	9	...........	1426.22
	66	7.1	4.47149E-005	-1.68306E-005	0.00000E+000	5.34840E-005	0.00000E+000	9	...........	1426.22
	67	8.1	4.33783E-005	-1.63335E-005	0.00000E+000	5.34840E-005	0.00000E+000	9	...........	1426.22
	68	9.1	4.36416E-005	-1.60185E-005	0.00000E+000	5.34840E-005	0.00000E+000	9	...........	1426.22
	69	10.1	4.43224E-005	-1.59244E-005	0.00000E+000	5.34840E-005	0.00000E+000	9	...........	1426.22
	70	11.1	4.39570E-005	-1.58873E-005	0.00000E+000	5.34840E-005	0.00000E+000	9	...........	1426.22
	71	12.1	4.51234E-005	-1.57034E-005	0.00000E+000	5.34840E-005	0.00000E+000	9	...........	1426.22
	72	13.1	4.37958E-005	-1.55238E-005	0.00000E+000	5.34840E-005	0.00000E+000	9	...........	1426.22
	73	14.1	4.51384E-005	-1.54514E-005	0.00000E+000	5.34840E-005	0.00000E+000	9	...........	1426.22
	74	15.1	4.39961E-005	-1.53443E-005	0.00000E+000	5.34840E-005	0.00000E+000	9	...........	1426.22
	75	16.1	4.20186E-005	-1.50996E-005	0.00000E+000	5.34840E-005	0.00000E+000	9	...........	1426.22
	76	26.1	4.44186E-005	-1.48018E-005	0.00000E+000	5.34840E-005	0.00000E+000	9	...........	1426.22
	77	36.1	4.76435E-005	-1.47519E-005	0.00000E+000	5.34840E-005	0.00000E+000	9	...........	1426.13
	78	46.1	4.65302E-005	-1.44881E-005	0.00000E+000	5.34840E-005	0.00000E+000	9	...........	1426.22
	79	56.1	4.66163E-005	-1.46900E-005	0.00000E+000	5.34840E-005	0.00000E+000	9	...........	1426.22
	80	66.1	4.68866E-005	-1.48147E-005	0.00000E+000	5.34840E-005	0.00000E+000	9	...........	1426.22
	81	76.1	4.45427E-005	-1.45073E-005	0.00000E+000	5.34840E-005	0.00000E+000	9	...........	1426.22
	82	86.1	4.65502E-005	-1.45337E-005	0.00000E+000	5.34840E-005	0.00000E+000	9	...........	1426.22
	83	96.1	4.67354E-005	-1.48324E-005	0.00000E+000	5.34840E-005	0.00000E+000	9	...........	1426.22
	84	106.1	4.79129E-005	-1.45664E-005	0.00000E+000	5.34840E-005	0.00000E+000	9	...........	1426.31
	85	116.1	4.63700E-005	-1.45834E-005	0.00000E+000	5.34840E-005	0.00000E+000	9	...........	1426.31
	86	216.1	4.54268E-005	-1.49846E-005	0.00000E+000	5.34840E-005	0.00000E+000	9	...........	1426.22
	87	300	4.67645E-005	-1.51005E-005	0.00000E+000	5.34840E-005	0.00000E+000	9	...........	1426.31
	88	300.1	-3.29270E-002	-4.18748E-004	0.00000E+000	-9.99460E-002	0.00000E+000	9	.........v.	1426.31
	89	300.2	-9.99774E-002	-3.27219E-004	0.00000E+000	-9.99460E-002	0.00000E+000	9	...........	1426.31
	90	300.3	-9.99781E-002	-2.68604E-004	0.00000E+000	-9.99460E-002	0.00000E+000	9	...........	1426.31
	91	300.4	-9.99770E-002	-2.26945E-004	0.00000E+000	-9.99460E-002	0.00000E+000	9	...........	1426.31
	92	300.5	-9.99792E-002	-1.95556E-004	0.00000E+000	-9.99460E-002	0.00000E+000	9	...........	1426.31
	93	300.6	-9.99791E-002	-1.70977E-004	0.00000E+000	-9.99460E-002	0.00000E+000	9	...........	1426.31
	94	300.7	-9.99793E-002	-1.51252E-004	0.00000E+000	-9.99460E-002	0.00000E+000	9	...........	1426.31
	95	300.8	-9.99794E-002	-1.35136E-004	0.00000E+000	-9.99460E-002	0.00000E+000	9	...........	1426.31
	96	300.9	-9.99795E-002	-1.21784E-004	0.00000E+000	-9.99460E-002	0.00000E+000	9	...........	1426.31
	97	301	-9.99766E-002	-1.10594E-004	0.00000E+000	-9.99460E-002	0.00000E+000	9	...........	1426.31
