Data from AgNPs_UA_20uM_CRN_500uM_AS_RamanShift__3__14-27-01-500.txt Node

Date: Wed Aug 17 14:27:01 BST 2022
User: TCL
Spectrometer: QEP01345
Trigger mode: 4
Integration Time (sec): 7.000000E0
Scans to average: 10
Electric dark correction enabled: true
Nonlinearity correction enabled: false
Boxcar width: 0
XAxis mode: Raman Shifts
Number of Pixels in Spectrum: 1044
>>>>>Begin Spectral Data<<<<<
46.04893	-0.9
50.45542	-0.8
54.85868	-1.2
59.25871	-0.1
63.6555	54.3
68.04907	55.4
72.43941	59
76.82654	62.3
81.21044	64.8
85.59113	68.9
89.96862	69.3
94.34289	78.8
98.71396	78.9
103.08183	80.3
107.4465	80.3
111.80798	81.2
116.16626	83.6
120.52136	82.6
124.87327	83.5
129.222	88
133.56755	92.9
137.90993	94.8
142.24913	99.9
146.58517	111.2
150.91804	117.1
155.24774	130.3
159.57429	152.6
163.89768	194
168.21792	247
172.53501	329.1
176.84895	439.5
181.15975	613.9
185.46741	843.6
189.77193	1167
194.07331	1546.8
198.37157	1987.7
202.6667	2462
206.9587	2926.5
211.24758	3443.2
215.53334	3968.9
219.81599	4592.1
224.09553	5288.7
228.37195	6062.7
232.64527	6869.1
236.91549	7657.9
241.18261	8286.3
245.44663	8730.9
249.70755	8989.5
253.96539	9169.1
258.22014	9249.5
262.4718	9314.1
266.72039	9352.5
270.96589	9216.1
275.20832	9044
279.44768	8716
283.68397	8437.9
287.91719	8265.9
292.14735	8279.9
296.37445	8499
300.59849	8944.8
304.81948	9560.6
309.03742	10072.5
313.25231	10370.9
317.46415	10162.5
321.67296	9587.3
325.87872	9028.7
330.08145	8695.3
334.28114	8661.3
338.47781	8770.7
342.67145	8933.6
346.86207	9295
351.04966	9795.4
355.23424	10322.5
359.4158	10643.5
363.59435	10745.6
367.76989	10609.4
371.94243	10405.6
376.11196	10222.7
380.27849	10123.7
384.44203	10017.4
388.60257	9960.9
392.76012	9960.5
396.91468	10038.2
401.06626	10203.7
405.21485	10238.3
409.36047	9833.5
413.50311	9173
417.64277	8626.7
421.77947	8364.3
425.9132	8256.4
430.04396	8337.9
434.17176	8468.6
438.2966	8769.8
442.41849	9268.5
446.53742	9819.7
450.6534	10301.9
454.76644	10415.7
458.87653	10212
462.98368	9836.1
467.08789	9413.5
471.18916	9022.4
475.2875	8583.8
479.38291	8155.5
483.4754	7892.9
487.56496	7709.5
491.6516	7623.5
495.73531	7600.6
499.81612	7629.7
503.89401	7742.1
507.96899	7860.9
512.04106	7935.2
516.11023	8030.2
520.1765	8154.9
524.23987	8246.9
528.30034	8284.2
532.35792	8259
536.41261	8084.7
540.46441	7802.3
544.51333	7642.2
548.55936	7714.3
552.60252	7997.3
556.64279	8352.3
560.6802	8601.6
564.71473	8726.9
568.7464	8984.8
572.7752	9086.3
576.80114	8837.6
580.82422	8680.6
584.84444	8968.6
588.86181	9822.8
592.87633	11201.3
596.888	12276.4
600.89682	12345.9
604.9028	12862.9
608.90594	15972.3
612.90624	19848.1
616.90371	17523.1
620.89834	11297.4
624.89015	8610
628.87913	8278.2
632.86528	8624.3
636.84862	8818.7
640.82913	8447
644.80683	7815.3
648.78172	7453.9
652.75379	7496.6
656.72306	7940.4
660.68952	8381.4
664.65319	7977.2
668.61405	7296.7
672.57211	7114.9
676.52738	7186.7
680.47986	7120.2
684.42955	6976.7
688.37646	6841.2
692.32058	6876.6
696.26192	7027.3
700.20048	7230.1
704.13626	7316.3
708.06928	7262.4
711.99952	7157.3
715.927	7203.2
719.85171	7341.2
723.77365	7403.1
727.69284	7321.8
731.60928	7278.9
735.52295	7346.6
739.43388	7415
743.34206	7456.3
747.24749	7420.1
751.15017	7441.8
755.05012	7644.5
758.94733	8385.9
762.8418	10170.6
766.73354	12809.8
770.62254	14896.3
774.50882	15367.8
778.39237	14139.2
782.27321	11801.8
786.15132	9524.6
790.02671	8160.6
793.89938	7494.4
797.76935	7168.2
801.6366	7008.4
805.50115	6908
809.36299	6811.4
813.22213	6732.7
817.07857	6685.1
820.93231	6685.1
824.78336	6739
828.63172	6808.8
832.47738	6802.4
836.32036	6767.4
840.16066	6704.9
843.99827	6644
847.8332	6638
851.66546	6643.9
855.49504	6677.4
859.32195	6650.7
863.1462	6644.5
866.96777	6611.7
870.78668	6609.4
874.60293	6620.1
878.41652	6701.1
882.22745	6832.1
886.03573	6885.5
889.84136	6888.6
893.64433	6840.5
897.44466	6830.8
901.24235	6815.2
905.0374	6743.6
908.8298	6639.6
912.61957	6573.4
916.40671	6566.2
920.19121	6672.5
923.97308	6857.7
927.75233	7020.9
931.52895	7081.8
935.30295	6840.3
939.07433	6498.4
942.84309	6230.2
946.60924	6117.8
950.37278	6049.3
954.13371	6041.2
957.89203	6044.7
961.64774	6034.2
965.40086	6022.1
969.15137	6017.5
972.89929	5990.9
976.64461	5940.6
980.38733	5947.5
984.12747	5979
987.86502	6015
991.59999	6136.9
995.33237	6305.2
999.06217	6588.5
1002.78939	6918.5
1006.51404	7233.2
1010.23611	7465.2
1013.95561	7557.3
1017.67255	7536.7
1021.38692	7278.2
1025.09872	6924.2
1028.80796	6683.5
1032.51465	6626.7
1036.21877	6683.1
1039.92035	6758.1
1043.61937	6796.9
1047.31584	6807.4
1051.00976	6760
1054.70114	6751.7
1058.38998	6694.4
1062.07627	6702.1
1065.76003	6718.8
1069.44126	6789.9
1073.11995	6954.6
1076.79611	7224
1080.46974	7539.4
1084.14085	7959.2
1087.80943	8261
1091.47549	8300.2
1095.13903	8001.5
1098.80005	7594
1102.45857	7330.1
1106.11456	7309.7
1109.76805	7462.8
1113.41903	7791.4
1117.06751	8305
1120.71348	8943.8
1124.35696	9716
1127.99793	10135.4
1131.63641	9759.5
1135.2724	9014.2
1138.90589	8456.8
1142.5369	8140.9
1146.16542	7978.3
1149.79145	7918
1153.415	7939.4
1157.03607	8083.7
1160.65467	8362.5
1164.27079	8941.6
1167.88443	9811.9
1171.49561	11272.5
1175.10432	13387.5
1178.71056	16144.5
1182.31434	18423.4
1185.91565	18855.5
1189.51451	17784.3
1193.11091	16264
1196.70485	14832.5
1200.29634	13544.2
1203.88538	12277.1
1207.47197	11081.4
1211.05612	10101.1
1214.63782	9610.5
1218.21708	9565.9
1221.79391	9783.7
1225.36829	10075.6
1228.94024	10075.9
1232.50976	9759.3
1236.07685	9385.4
1239.6415	9207.1
1243.20374	9161.2
1246.76355	9134.6
1250.32093	9237.7
1253.8759	9456.1
1257.42845	9925.4
1260.97859	10537.1
1264.52631	11210
1268.07163	11789.6
1271.61453	12203.7
1275.15503	12479.5
1278.69312	12747.8
1282.22882	13212
1285.76211	14148
1289.29301	15261
1292.82151	16410
1296.34761	17670.6
1299.87133	19384.7
1303.39266	21882.7
1306.9116	25228.1
1310.42815	28327.3
1313.94233	29195.9
1317.45412	27340.9
1320.96354	24127.4
1324.47058	20723.6
1327.97525	18130.2
1331.47754	16417.5
1334.97747	15742.6
1338.47502	15776.9
1341.97022	16388.1
1345.46305	17589.4
1348.95352	19410.2
1352.44163	21907.8
1355.92738	25634
1359.41078	30605.4
1362.89183	34190.8
1366.37053	31957.6
1369.84688	25527.8
1373.32088	19806.3
1376.79254	16838.4
1380.26186	15483.9
1383.72883	14450.7
1387.19347	13420.5
1390.65578	12658.8
1394.11575	12279.2
1397.57339	12204.8
1401.0287	12304.1
1404.48168	12276.1
1407.93234	12140.9
1411.38068	12054.5
1414.82669	12006.8
1418.27039	11922.4
1421.71177	11685.5
1425.15083	11420.8
1428.58758	11484.5
1432.02203	11837.6
1435.45416	12168.7
1438.88399	12239.6
1442.31151	12179
1445.73673	12128
1449.15965	12034.6
1452.58027	11788.8
1455.9986	11475.3
1459.41463	11381.9
1462.82837	11705.3
1466.23982	12233.2
1469.64898	12808.1
1473.05586	13258.1
1476.46045	13642.4
1479.86276	13955.7
1483.26279	14359.1
1486.66054	14943.2
1490.05602	15872.5
1493.44922	17103.5
1496.84016	18730.6
1500.22882	21083.6
1503.61521	24239.1
1506.99934	27319
1510.38121	29051
1513.76081	28123.7
1517.13816	24810.4
1520.51324	20812.9
1523.88607	17690.4
1527.25665	15913.1
1530.62498	15119.3
1533.99105	14560.2
1537.35488	14023.6
1540.71647	13368.6
1544.07581	12770.3
1547.4329	12305.3
1550.78776	11927.5
1554.14038	11694
1557.49077	11631
1560.83892	11949.8
1564.18484	12708.8
1567.52853	13734.3
1570.86999	14523.3
1574.20922	14886.6
1577.54624	14579.5
1580.88103	13429
1584.2136	12239.8
1587.54395	11851.9
1590.87208	12394.6
1594.19801	13840.5
1597.52172	15452.1
1600.84321	16040
1604.16251	15206.4
1607.47959	13553.6
1610.79447	11774.2
1614.10715	10252.3
1617.41763	9196.4
1620.7259	8613.6
1624.03199	8416.7
1627.33587	8560.8
1630.63757	9095.5
1633.93707	10226.8
1637.23439	12218.1
1640.52951	15281.5
1643.82246	19260
1647.11321	22747.1
1650.40179	23579.5
1653.68819	20991.8
1656.97241	16517.2
1660.25446	12485.4
1663.53433	9789.7
1666.81203	8244.8
1670.08756	7360.1
1673.36092	6816.7
1676.63211	6481.1
1679.90115	6266
1683.16801	6087
1686.43272	5975.9
1689.69527	5866.4
1692.95567	5800
1696.2139	5735.9
1699.46999	5726.6
1702.72392	5668.8
1705.97571	5643.3
1709.22535	5620.2
1712.47284	5633.5
1715.71819	5603.6
1718.96139	5557
1722.20246	5515.6
1725.44139	5465.4
1728.67818	5389.4
1731.91284	5311.2
1735.14537	5258.8
1738.37576	5240.1
1741.60403	5172.6
1744.83017	5161.1
1748.05418	5139
1751.27607	5130.9
1754.49584	5124
1757.71349	5112.7
1760.92903	5063.5
1764.14244	5051.5
1767.35375	4998.1
1770.56294	4976.8
1773.77002	4932.5
1776.97499	4902
1780.17785	4871
1783.37861	4854.1
1786.57727	4818.3
1789.77382	4802.2
1792.96828	4788.8
1796.16064	4758.9
1799.3509	4738.4
1802.53907	4737.5
1805.72514	4701
1808.90913	4678.6
1812.09102	4646.2
1815.27083	4639.9
1818.44856	4620.5
1821.6242	4598.9
1824.79776	4595.2
1827.96924	4574.1
1831.13864	4559.1
1834.30597	4569.9
1837.47122	4546.9
1840.6344	4533.7
1843.7955	4524.6
1846.95454	4516.2
1850.11151	4513.3
1853.26642	4477.1
1856.41926	4501.7
1859.57004	4479.7
1862.71876	4466
1865.86542	4476.4
1869.01003	4479.9
1872.15258	4485.1
1875.29308	4481.6
1878.43152	4488.9
1881.56792	4481.4
1884.70227	4482.7
1887.83457	4464
1890.96482	4470.4
1894.09304	4448.4
1897.21921	4445.1
1900.34335	4460.6
1903.46544	4456.7
1906.58551	4465.9
1909.70353	4452.8
1912.81953	4433.1
1915.93349	4432.3
1919.04543	4412.6
1922.15534	4398.5
1925.26322	4389.5
1928.36908	4360.1
1931.47292	4345
1934.57473	4309.9
1937.67453	4304.1
1940.77232	4274.8
1943.86808	4255.5
1946.96184	4227
1950.05358	4207.6
1953.14331	4217.1
1956.23103	4212.4
1959.31675	4217.4
1962.40046	4205.3
1965.48217	4197.6
1968.56188	4184.4
1971.63959	4176
1974.7153	4156.6
1977.78901	4146.2
1980.86073	4127.9
1983.93046	4082.9
1986.99819	4067.3
1990.06394	4054
1993.1277	4041.9
1996.18947	4014.4
1999.24925	4006.5
2002.30706	3971.1
2005.36288	3959.8
2008.41672	3949.2
2011.46859	3932.1
2014.51848	3918.9
2017.56639	3914.3
2020.61233	3898.1
2023.6563	3891.8
2026.6983	3881.6
2029.73833	3866.6
2032.7764	3863.5
2035.8125	3844
2038.84664	3856.4
2041.87881	3847
2044.90903	3824.5
2047.93729	3833.3
2050.96359	3834.3
2053.98794	3822.9
2057.01034	3810.9
2060.03078	3793.6
2063.04927	3807.7
2066.06582	3782.4
2069.08042	3785
2072.09307	3780.1
2075.10378	3777.4
2078.11255	3787.7
2081.11938	3774
2084.12426	3770.2
2087.12722	3762.8
2090.12824	3767.6
2093.12732	3792.2
2096.12447	3788.3
2099.11969	3794.7
2102.11299	3780.1
2105.10435	3768.4
2108.09379	3763.9
2111.08131	3758.9
2114.0669	3767
2117.05057	3780.1
2120.03233	3784.6
2123.01216	3790.7
2125.99008	3786.5
2128.96609	3792.8
2131.94018	3796.7
2134.91236	3782
2137.88263	3777.2
2140.851	3759.6
2143.81746	3759.7
2146.78201	3745.8
2149.74466	3744.5
2152.7054	3736.6
2155.66425	3708.5
2158.6212	3720.5
2161.57625	3702.4
2164.52941	3687.3
2167.48067	3689.9
2170.43004	3675.8
2173.37752	3673.7
2176.32311	3677.1
2179.26681	3680.5
2182.20863	3676.5
2185.14856	3700.9
2188.08661	3696
2191.02278	3690.2
2193.95707	3689.1
2196.88948	3685.8
2199.82001	3685.9
2202.74867	3681.5
2205.67545	3663.9
2208.60037	3646
2211.52341	3654.4
2214.44458	3643.3
2217.36388	3614.6
2220.28132	3608.6
2223.1969	3583.2
2226.11061	3598
2229.02246	3579.2
2231.93245	3592.4
2234.84058	3585.2
2237.74686	3583.3
2240.65128	3594
2243.55385	3596.3
2246.45456	3593.2
2249.35343	3589.8
2252.25044	3586.5
2255.14561	3579.7
2258.03893	3573.2
2260.93041	3583.5
2263.82004	3562.5
2266.70783	3556.8
2269.59378	3545.8
2272.4779	3525.3
2275.36017	3520.2
2278.24061	3506.9
2281.11922	3507.3
2283.996	3492.8
2286.87094	3477
2289.74405	3456.7
2292.61534	3453.5
2295.4848	3456.4
2298.35243	3434.1
2301.21824	3436.3
2304.08223	3436.6
2306.94439	3434.8
2309.80474	3437.5
2312.66327	3439.8
2315.51999	3425.8
2318.37489	3433.3
2321.22797	3404.6
2324.07925	3398.1
2326.92871	3418.4
2329.77637	3409.8
2332.62222	3397.9
2335.46626	3396.8
2338.3085	3380.1
2341.14893	3391.6
2343.98756	3402.4
2346.8244	3409.6
2349.65943	3403.3
2352.49267	3405
2355.32411	3419
2358.15376	3418.6
2360.98161	3441.2
2363.80768	3448.1
2366.63195	3450.6
2369.45444	3450
2372.27514	3457.7
2375.09405	3460.3
2377.91118	3448.6
2380.72652	3437
2383.54009	3418.6
2386.35187	3406.4
2389.16188	3390.3
2391.97011	3366.1
2394.77657	3353
2397.58125	3348
2400.38416	3327.5
2403.18529	3333.9
2405.98466	3314.1
2408.78226	3307.1
2411.57809	3286.6
2414.37216	3301.2
2417.16446	3294.4
2419.955	3281.9
2422.74378	3291.6
2425.5308	3287.3
2428.31606	3297.7
2431.09956	3294.4
2433.88131	3280.1
2436.6613	3290.4
2439.43954	3291.8
2442.21603	3297.9
2444.99077	3287.4
2447.76377	3306.9
2450.53501	3305.9
2453.30451	3307.3
2456.07226	3317.7
2458.83827	3318.4
2461.60254	3313.9
2464.36507	3309.1
2467.12586	3313.1
2469.88492	3319.7
2472.64224	3319.9
2475.39782	3315.2
2478.15167	3335.3
2480.90379	3348.8
2483.65417	3357.8
2486.40283	3377.8
2489.14976	3378.3
2491.89497	3398.7
2494.63845	3416.5
2497.3802	3395.6
2500.12024	3386.3
2502.85855	3392.3
2505.59514	3353.9
2508.33002	3325.5
2511.06318	3317
2513.79462	3301.6
2516.52435	3286.7
2519.25237	3269.6
2521.97867	3256.5
2524.70327	3252.6
2527.42616	3235.2
2530.14734	3246.8
2532.86681	3244.2
2535.58458	3246
2538.30065	3266.4
2541.01501	3275.8
2543.72768	3261.2
2546.43864	3255.8
2549.14791	3262.7
2551.85548	3257.9
2554.56136	3255.9
2557.26554	3248.5
2559.96803	3258.6
2562.66883	3249.6
2565.36794	3249.1
2568.06536	3236.8
2570.7611	3244.1
2573.45514	3224.8
2576.14751	3223.5
2578.83819	3219.1
2581.52719	3218
2584.21451	3206.7
2586.90015	3226.6
2589.58411	3224.2
2592.2664	3228.7
2594.94701	3216.6
2597.62594	3234.7
2600.30321	3206.7
2602.9788	3208.8
2605.65273	3212.3
2608.32498	3213.4
2610.99557	3226.8
2613.66449	3239.8
2616.33175	3232.2
2618.99734	3235.2
2621.66128	3223.5
2624.32355	3218.9
2626.98416	3210.1
2629.64311	3205.2
2632.30041	3199.6
2634.95605	3189.9
2637.61004	3184.9
2640.26238	3186.6
2642.91306	3190.3
2645.56209	3170.1
2648.20948	3180.4
2650.85521	3165.5
2653.4993	3187.2
2656.14175	3197.5
2658.78255	3213.6
2661.42171	3203.6
2664.05923	3213.3
2666.6951	3227.2
2669.32934	3238
2671.96194	3227.7
2674.59291	3238.9
2677.22224	3228.7
2679.84993	3230.5
2682.476	3223.9
2685.10043	3214.5
2687.72324	3217.2
2690.34441	3209.1
2692.96396	3197.3
2695.58188	3187.7
2698.19818	3182
2700.81285	3197.8
2703.4259	3194
2706.03733	3195.5
2708.64714	3199.8
2711.25533	3201.2
2713.86191	3213.1
2716.46687	3217
2719.07021	3230.2
2721.67194	3232.8
2724.27206	3239.2
2726.87057	3238.3
2729.46747	3227.7
2732.06276	3234.3
2734.65644	3238.4
2737.24852	3227.1
2739.83899	3227.2
2742.42786	3222.3
2745.01513	3192.4
2747.60079	3199.3
2750.18486	3196.4
2752.76733	3193.3
2755.3482	3180.1
2757.92747	3180.4
2760.50515	3185.8
2763.08123	3189.6
2765.65573	3167.5
2768.22863	3168.3
2770.79994	3165.7
2773.36967	3173.4
2775.9378	3177.8
2778.50435	3170.7
2781.06932	3161
2783.6327	3183.4
2786.1945	3178.9
2788.75471	3185.4
2791.31335	3189.2
2793.87041	3184.7
2796.42589	3192.1
2798.97979	3198.4
2801.53212	3195.8
2804.08288	3191.9
2806.63206	3187.4
2809.17967	3199
2811.72571	3195.2
2814.27018	3224.2
2816.81308	3206.2
2819.35442	3217
2821.89419	3212.4
2824.43239	3237
2826.96904	3233.3
2829.50412	3237.5
2832.03763	3232.1
2834.56959	3225.4
2837.1	3224.9
2839.62884	3227.4
2842.15613	3232.7
2844.68186	3239.9
2847.20604	3254.8
2849.72867	3256.7
2852.24974	3271.7
2854.76927	3272.2
2857.28724	3287.2
2859.80367	3302
2862.31855	3312.8
2864.83189	3322.7
2867.34368	3351.3
2869.85393	3344.4
2872.36264	3351.7
2874.8698	3355.1
2877.37543	3360.7
2879.87952	3363.1
2882.38207	3359.2
2884.88308	3356.8
2887.38256	3357.8
2889.88051	3368.2
2892.37692	3391
2894.8718	3404.5
2897.36515	3419.9
2899.85698	3424.1
2902.34727	3442.2
2904.83604	3458.9
2907.32328	3454.4
2909.809	3465.8
2912.29319	3482.9
2914.77587	3475.1
2917.25702	3479.4
2919.73665	3489.2
2922.21476	3494.8
2924.69136	3490.7
2927.16644	3487.6
2929.64	3471.3
2932.11205	3465
2934.58258	3443.3
2937.05161	3436
2939.51912	3410.9
2941.98513	3417.7
2944.44962	3408.9
2946.91261	3375.2
2949.37409	3384.9
2951.83407	3356.8
2954.29254	3350
2956.74951	3340.3
2959.20498	3327.6
2961.65895	3305
2964.11142	3294.7
2966.56239	3274.9
2969.01186	3252.1
2971.45984	3229.3
2973.90632	3218.2
2976.35131	3216.5
2978.7948	3176.8
2981.23681	3173.7
2983.67732	3142.7
2986.11635	3142
2988.55388	3114.1
2990.98993	3114.9
2993.4245	3098
2995.85758	3094.4
2998.28917	3079.1
3000.71928	3076
3003.14791	3076.8
3005.57506	3075.3
3008.00073	3053.2
3010.42493	3035
3012.84764	3043.3
3015.26888	3040.1
3017.68865	3029.6
3020.10694	3023.6
3022.52376	3005.5
3024.9391	3004.7
3027.35298	3007.2
3029.76539	2985.2
3032.17632	2983.8
3034.5858	2951.4
3036.9938	2965
3039.40034	2970.7
3041.80542	2961.6
3044.20903	2973.3
3046.61118	2961
3049.01187	2968
3051.4111	2949.5
3053.80888	2971.1
3056.20519	2948
3058.60005	2948.9
3060.99345	2956.5
3063.3854	2942.4
3065.7759	2938.3
3068.16494	2928
3070.55254	2909.7
3072.93868	2899.4
3075.32338	2868.6
3077.70662	2880
3080.08842	2865.9
3082.46878	2873.9
3084.84769	2871.1
3087.22515	2863.4
3089.60118	2878.1
3091.97576	2868.7
3094.3489	2870.7
3096.72061	2878.4
3099.09087	2889.2
3101.4597	2866.7
3103.82709	2876.2
3106.19305	2882.7
3108.55757	2892.3
3110.92066	2875.4
3113.28232	2886.5
3115.64255	2891.3
3118.00134	2875.7
3120.35871	2884.5
3122.71466	2887.1
3125.06917	2870.6
3127.42226	2891.1
3129.77393	2891.9
3132.12417	2896.4
3134.47299	2890.2
3136.82039	2903.7
3139.16636	2894.5
3141.51092	2897.7
3143.85406	2907.9
3146.19579	2908.6
3148.53609	2905
3150.87499	2919.4
3153.21246	2916.4
3155.54853	2932.3
3157.88318	2940.6
3160.21642	2943.8
3162.54826	2944
3164.87868	2944.3
3167.2077	2971.9
3169.5353	2963.8
3171.86151	2970.4
3174.18631	2965.1
3176.5097	2971.1
3178.83169	2960.4
3181.15228	2967.5
3183.47147	2971.3
3185.78926	2968.1
3188.10565	2967.3
3190.42065	2963.9
3192.73424	2977
3195.04645	2985.9
3197.35725	2978.8
3199.66667	2983.3
3201.97469	2987.9
3204.28132	2990.7
3206.58656	2999.2
3208.8904	3018.8
3211.19287	3026.4
3213.49394	3020
3215.79363	3021.2
3218.09193	3032.7
3220.38884	3033
3222.68438	3040.3
3224.97853	3039.5
3227.2713	3047
3229.56269	3044.5
3231.8527	3049.5
3234.14133	3047.1
3236.42858	3028.6
3238.71446	3034.4
3240.99896	3023.3
3243.28209	3037.7
3245.56384	3032.3
3247.84423	3030.2
3250.12324	3035.3
3252.40088	3017.9
3254.67715	3000.1
3256.95205	3006.1
3259.22558	3021.7
3261.49775	3022.4
3263.76855	3023
3266.03799	3026.5
3268.30606	3031.7
3270.57277	3026.3
3272.83812	3024.8
3275.10211	3016.5
3277.36474	3013.8
3279.62601	3029.9
3281.88593	3041.8
3284.14448	3030
3286.40168	3034.4
3288.65753	3044.3
3290.91202	3055.3
3293.16516	3056.3
3295.41695	3048.9
3297.66738	3032.7
3299.91647	3024.2
3302.16421	2999.3
3304.4106	3001.5
3306.65564	2974.6
3308.89933	2962.5
3311.14169	2945
3313.38269	2907.7
3315.62236	2896.3
3317.86068	2867.9
3320.09766	2853.6
3322.3333	2839.7
3324.5676	2827.6
3326.80056	2785.1
3329.03219	2767.4
3331.26248	2.2
3333.49143	1
3335.71905	0.8
