Data from AgNPs_UA_50uM_CRN_500uM_AS_RamanShift__15__15-23-01-559.txt Node

Date: Wed Aug 17 15:23:01 BST 2022
User: TCL
Spectrometer: QEP01345
Trigger mode: 4
Integration Time (sec): 7.000000E0
Scans to average: 10
Electric dark correction enabled: true
Nonlinearity correction enabled: false
Boxcar width: 0
XAxis mode: Raman Shifts
Number of Pixels in Spectrum: 1044
>>>>>Begin Spectral Data<<<<<
46.04893	-1
50.45542	-0.2
54.85868	-2.8
59.25871	0
63.6555	23.7
68.04907	21.8
72.43941	27.8
76.82654	31
81.21044	32.6
85.59113	34.8
89.96862	31
94.34289	39.2
98.71396	39.2
103.08183	38.8
107.4465	36
111.80798	36.1
116.16626	39
120.52136	41.6
124.87327	38.5
129.222	38.6
133.56755	35.7
137.90993	36.4
142.24913	41.7
146.58517	44.2
150.91804	43
155.24774	44.7
159.57429	51.2
163.89768	61
168.21792	72.3
172.53501	96.3
176.84895	118.4
181.15975	158.7
185.46741	223.4
189.77193	299.4
194.07331	394.8
198.37157	500.7
202.6667	630.9
206.9587	742.4
211.24758	866.8
215.53334	984.3
219.81599	1100.7
224.09553	1239
228.37195	1386.7
232.64527	1547.2
236.91549	1696.5
241.18261	1872.8
245.44663	1994.5
249.70755	2119.1
253.96539	2219.5
258.22014	2310.8
262.4718	2356.8
266.72039	2401.1
270.96589	2393.7
275.20832	2369.7
279.44768	2331.3
283.68397	2286.8
287.91719	2229.9
292.14735	2208.3
296.37445	2197.3
300.59849	2200.6
304.81948	2213.7
309.03742	2213.3
313.25231	2224.2
317.46415	2177.5
321.67296	2136.8
325.87872	2120.2
330.08145	2109.2
334.28114	2118.2
338.47781	2136
342.67145	2177.1
346.86207	2209.4
351.04966	2257.9
355.23424	2326.8
359.4158	2372.3
363.59435	2415.7
367.76989	2441.8
371.94243	2473
376.11196	2470.2
380.27849	2503.8
384.44203	2508.8
388.60257	2515.1
392.76012	2538.2
396.91468	2562.5
401.06626	2583.8
405.21485	2603.4
409.36047	2601.2
413.50311	2590.2
417.64277	2562
421.77947	2557.7
425.9132	2554.8
430.04396	2575.6
434.17176	2590.8
438.2966	2614.5
442.41849	2658
446.53742	2686.2
450.6534	2715.5
454.76644	2734
458.87653	2759.6
462.98368	2754.8
467.08789	2760.4
471.18916	2759.8
475.2875	2745.3
479.38291	2747.9
483.4754	2741.3
487.56496	2747.3
491.6516	2752
495.73531	2758.7
499.81612	2765.7
503.89401	2773.6
507.96899	2785.4
512.04106	2810.3
516.11023	2810.6
520.1765	2837.7
524.23987	2829.5
528.30034	2837
532.35792	2845.4
536.41261	2838.6
540.46441	2827.9
544.51333	2824.2
548.55936	2828.6
552.60252	2852.1
556.64279	2872.4
560.6802	2889.9
564.71473	2905.9
568.7464	2917.3
572.7752	2925.9
576.80114	2913.8
580.82422	2924
584.84444	2915.8
588.86181	2925.4
592.87633	2944.5
596.888	2977.2
600.89682	3018.6
604.9028	3121.7
608.90594	3408.4
612.90624	3709.2
616.90371	3573
620.89834	3209.3
624.89015	3050.4
628.87913	3028.9
632.86528	3067.4
636.84862	3109.2
640.82913	3098.5
644.80683	3083
648.78172	3053.3
652.75379	3065.3
656.72306	3093.4
660.68952	3126.1
664.65319	3116.5
668.61405	3113.4
672.57211	3131.8
676.52738	3182.5
680.47986	3207.2
684.42955	3215.4
688.37646	3189.3
692.32058	3176.8
696.26192	3156.9
700.20048	3159.5
704.13626	3161.9
708.06928	3145.9
711.99952	3136.8
715.927	3138.6
719.85171	3130
723.77365	3154.8
727.69284	3162.5
731.60928	3154.1
735.52295	3148.4
739.43388	3151.4
743.34206	3162.5
747.24749	3164.9
751.15017	3178.8
755.05012	3189.1
758.94733	3228.4
762.8418	3326
766.73354	3481.4
770.62254	3650.2
774.50882	3730.3
778.39237	3673.7
782.27321	3516
786.15132	3362.4
790.02671	3292.1
793.89938	3244.4
797.76935	3222.7
801.6366	3226.3
805.50115	3212.2
809.36299	3227.1
813.22213	3213.4
817.07857	3215.9
820.93231	3219.1
824.78336	3209.9
828.63172	3213
832.47738	3214.8
836.32036	3222.5
840.16066	3223.7
843.99827	3221.3
847.8332	3232.9
851.66546	3248.2
855.49504	3262.4
859.32195	3253.8
863.1462	3261
866.96777	3289.8
870.78668	3290.6
874.60293	3298.6
878.41652	3320.5
882.22745	3321.9
886.03573	3337.3
889.84136	3334.9
893.64433	3332.3
897.44466	3333.8
901.24235	3335.9
905.0374	3327.3
908.8298	3319.2
912.61957	3315.6
916.40671	3329.2
920.19121	3322.8
923.97308	3354.1
927.75233	3368.6
931.52895	3372.1
935.30295	3381.6
939.07433	3356.4
942.84309	3351.3
946.60924	3333.3
950.37278	3318.4
954.13371	3325
957.89203	3317.6
961.64774	3319.4
965.40086	3333.6
969.15137	3314.1
972.89929	3319.8
976.64461	3304.3
980.38733	3326.8
984.12747	3330.2
987.86502	3341.4
991.59999	3346.6
995.33237	3358
999.06217	3373
1002.78939	3409.3
1006.51404	3412.2
1010.23611	3431.9
1013.95561	3452.2
1017.67255	3471
1021.38692	3459.5
1025.09872	3456.7
1028.80796	3457.4
1032.51465	3471.4
1036.21877	3471
1039.92035	3497.6
1043.61937	3514.5
1047.31584	3523.5
1051.00976	3550.6
1054.70114	3570.2
1058.38998	3570.3
1062.07627	3579
1065.76003	3586.7
1069.44126	3600.3
1073.11995	3617.7
1076.79611	3631.9
1080.46974	3657.2
1084.14085	3676.8
1087.80943	3698.7
1091.47549	3722.5
1095.13903	3712.5
1098.80005	3681.7
1102.45857	3687.9
1106.11456	3688.7
1109.76805	3694.2
1113.41903	3721.3
1117.06751	3752.8
1120.71348	3780.8
1124.35696	3825.4
1127.99793	3896.2
1131.63641	3901.8
1135.2724	3884.2
1138.90589	3846.3
1142.5369	3816.3
1146.16542	3777.5
1149.79145	3763.5
1153.415	3730.4
1157.03607	3740.4
1160.65467	3747.6
1164.27079	3777.4
1167.88443	3835.5
1171.49561	3896.9
1175.10432	4005.6
1178.71056	4162
1182.31434	4305.9
1185.91565	4342.5
1189.51451	4344.1
1193.11091	4266.9
1196.70485	4192.6
1200.29634	4139.9
1203.88538	4084.3
1207.47197	4010.8
1211.05612	3948.9
1214.63782	3902.9
1218.21708	3886.2
1221.79391	3890.3
1225.36829	3889.5
1228.94024	3886.7
1232.50976	3906.6
1236.07685	3924.9
1239.6415	3925.8
1243.20374	3940.2
1246.76355	3959.1
1250.32093	3983
1253.8759	4002.3
1257.42845	4016.9
1260.97859	4057.1
1264.52631	4099.4
1268.07163	4124.1
1271.61453	4145.3
1275.15503	4163.4
1278.69312	4156.7
1282.22882	4172.2
1285.76211	4193.6
1289.29301	4235.1
1292.82151	4265
1296.34761	4328
1299.87133	4385.6
1303.39266	4508.8
1306.9116	4644.8
1310.42815	4811.7
1313.94233	4871.8
1317.45412	4788.8
1320.96354	4654
1324.47058	4537.1
1327.97525	4426.2
1331.47754	4355.9
1334.97747	4313.3
1338.47502	4322.6
1341.97022	4361.5
1345.46305	4441.8
1348.95352	4588.5
1352.44163	4741.6
1355.92738	4921.8
1359.41078	5182
1362.89183	5386.8
1366.37053	5337.6
1369.84688	4989
1373.32088	4648.3
1376.79254	4417.3
1380.26186	4284.4
1383.72883	4216.4
1387.19347	4158.1
1390.65578	4093.8
1394.11575	4041.6
1397.57339	4015.4
1401.0287	3988.3
1404.48168	3957.3
1407.93234	3943.5
1411.38068	3969.8
1414.82669	3980
1418.27039	3994.8
1421.71177	3993.6
1425.15083	3983
1428.58758	3967.8
1432.02203	3961.4
1435.45416	3964.5
1438.88399	3955.5
1442.31151	3955.7
1445.73673	3964.6
1449.15965	3968.4
1452.58027	3969.9
1455.9986	3953.8
1459.41463	3959.1
1462.82837	3979.4
1466.23982	4002.8
1469.64898	4028.2
1473.05586	4060.5
1476.46045	4076.8
1479.86276	4090.6
1483.26279	4114.5
1486.66054	4157.4
1490.05602	4202.3
1493.44922	4269.6
1496.84016	4398.1
1500.22882	4564.6
1503.61521	4797.3
1506.99934	5041.2
1510.38121	5222.2
1513.76081	5207.6
1517.13816	5003.5
1520.51324	4763.9
1523.88607	4553.4
1527.25665	4434.3
1530.62498	4390.8
1533.99105	4334.7
1537.35488	4319.5
1540.71647	4307.8
1544.07581	4309.3
1547.4329	4310.2
1550.78776	4312.7
1554.14038	4335.5
1557.49077	4363.1
1560.83892	4369.5
1564.18484	4450.4
1567.52853	4489
1570.86999	4535
1574.20922	4578.6
1577.54624	4562
1580.88103	4496.6
1584.2136	4427.9
1587.54395	4371.7
1590.87208	4354.3
1594.19801	4371.4
1597.52172	4439.3
1600.84321	4466.7
1604.16251	4451.2
1607.47959	4435.3
1610.79447	4362.7
1614.10715	4329.8
1617.41763	4267.4
1620.7259	4252.4
1624.03199	4230.9
1627.33587	4222.5
1630.63757	4234.5
1633.93707	4251.3
1637.23439	4330.3
1640.52951	4406
1643.82246	4557.5
1647.11321	4707.9
1650.40179	4852.1
1653.68819	4806.9
1656.97241	4666.4
1660.25446	4498.6
1663.53433	4367.7
1666.81203	4280.1
1670.08756	4250.4
1673.36092	4215.6
1676.63211	4175.1
1679.90115	4147.7
1683.16801	4136.8
1686.43272	4131.3
1689.69527	4141.1
1692.95567	4117.8
1696.2139	4132
1699.46999	4138.2
1702.72392	4139.3
1705.97571	4106.4
1709.22535	4097.7
1712.47284	4100.8
1715.71819	4106.6
1718.96139	4087
1722.20246	4092.3
1725.44139	4082.5
1728.67818	4099.8
1731.91284	4058.2
1735.14537	4062.2
1738.37576	4061.1
1741.60403	4060.8
1744.83017	4082.6
1748.05418	4080.9
1751.27607	4105.6
1754.49584	4125.1
1757.71349	4143.6
1760.92903	4141
1764.14244	4120.7
1767.35375	4118.6
1770.56294	4098.2
1773.77002	4096.5
1776.97499	4080.1
1780.17785	4087.7
1783.37861	4069.1
1786.57727	4069.9
1789.77382	4053.4
1792.96828	4057.3
1796.16064	4050.2
1799.3509	4043.5
1802.53907	4025.9
1805.72514	4019.3
1808.90913	4035.9
1812.09102	4015.3
1815.27083	4008.7
1818.44856	4003.8
1821.6242	4022.3
1824.79776	4014.3
1827.96924	4029.4
1831.13864	4028.9
1834.30597	4033.6
1837.47122	4005.6
1840.6344	3999.1
1843.7955	4012.8
1846.95454	4007.9
1850.11151	4016.2
1853.26642	4007.2
1856.41926	4005.9
1859.57004	4023.7
1862.71876	4012.2
1865.86542	4021.4
1869.01003	4033.2
1872.15258	4040.1
1875.29308	4037.3
1878.43152	4037.4
1881.56792	4025.2
1884.70227	4045.1
1887.83457	4054
1890.96482	4032
1894.09304	4026.2
1897.21921	4046.2
1900.34335	4035.2
1903.46544	4043.8
1906.58551	4048.8
1909.70353	4059.9
1912.81953	4069
1915.93349	4048.7
1919.04543	4039
1922.15534	4047
1925.26322	4047.1
1928.36908	4051
1931.47292	4056.6
1934.57473	4044.9
1937.67453	4060.9
1940.77232	4035
1943.86808	4038.8
1946.96184	4028.5
1950.05358	4022.7
1953.14331	4007.3
1956.23103	4018.6
1959.31675	4017.2
1962.40046	3994.9
1965.48217	3996.1
1968.56188	3995.6
1971.63959	3976.7
1974.7153	3974.1
1977.78901	3965.6
1980.86073	3958.6
1983.93046	3967
1986.99819	3963.4
1990.06394	3956.3
1993.1277	3941.2
1996.18947	3960.8
1999.24925	3951.2
2002.30706	3943.6
2005.36288	3921
2008.41672	3933.4
2011.46859	3921.5
2014.51848	3912.4
2017.56639	3915.4
2020.61233	3911.7
2023.6563	3913.3
2026.6983	3885.1
2029.73833	3882.5
2032.7764	3881.4
2035.8125	3878.8
2038.84664	3884.8
2041.87881	3874.8
2044.90903	3874.9
2047.93729	3882.7
2050.96359	3879.6
2053.98794	3868
2057.01034	3889.6
2060.03078	3870.6
2063.04927	3886.2
2066.06582	3902.6
2069.08042	3889.2
2072.09307	3895.2
2075.10378	3914.8
2078.11255	3898.4
2081.11938	3904.6
2084.12426	3904.5
2087.12722	3914.7
2090.12824	3927.8
2093.12732	3949.2
2096.12447	3966.2
2099.11969	3945.4
2102.11299	3946.7
2105.10435	3960.8
2108.09379	3968.3
2111.08131	3953.5
2114.0669	3977.9
2117.05057	3987.9
2120.03233	3991.7
2123.01216	4022.3
2125.99008	4046.5
2128.96609	4034.3
2131.94018	4036.7
2134.91236	4049.2
2137.88263	4054.3
2140.851	4067.5
2143.81746	4082.4
2146.78201	4088
2149.74466	4100.8
2152.7054	4071.3
2155.66425	4082.8
2158.6212	4087.2
2161.57625	4100.2
2164.52941	4102.1
2167.48067	4113.6
2170.43004	4106.4
2173.37752	4133.9
2176.32311	4123.3
2179.26681	4134.4
2182.20863	4137.7
2185.14856	4146
2188.08661	4148.9
2191.02278	4149
2193.95707	4157.9
2196.88948	4160.1
2199.82001	4161.6
2202.74867	4153.7
2205.67545	4172.9
2208.60037	4186.1
2211.52341	4180.8
2214.44458	4175
2217.36388	4164.4
2220.28132	4162.5
2223.1969	4152
2226.11061	4146.7
2229.02246	4137.2
2231.93245	4153.9
2234.84058	4150.2
2237.74686	4142
2240.65128	4148.2
2243.55385	4157.4
2246.45456	4177.5
2249.35343	4164.2
2252.25044	4167.3
2255.14561	4169.8
2258.03893	4185.1
2260.93041	4164.5
2263.82004	4166
2266.70783	4168
2269.59378	4170.5
2272.4779	4138.1
2275.36017	4136.5
2278.24061	4141.4
2281.11922	4133.1
2283.996	4145.7
2286.87094	4141.8
2289.74405	4138.7
2292.61534	4128.4
2295.4848	4129.1
2298.35243	4142.2
2301.21824	4137.8
2304.08223	4158.2
2306.94439	4162.3
2309.80474	4163.8
2312.66327	4156.6
2315.51999	4163.2
2318.37489	4163.4
2321.22797	4150.4
2324.07925	4149.9
2326.92871	4142.9
2329.77637	4137.6
2332.62222	4142.7
2335.46626	4142.7
2338.3085	4137.6
2341.14893	4134.4
2343.98756	4143.2
2346.8244	4139.4
2349.65943	4120.5
2352.49267	4125.4
2355.32411	4166
2358.15376	4147.6
2360.98161	4160.3
2363.80768	4157.3
2366.63195	4165.6
2369.45444	4162.1
2372.27514	4179.4
2375.09405	4160.2
2377.91118	4168.2
2380.72652	4175.5
2383.54009	4185.6
2386.35187	4196.3
2389.16188	4168.3
2391.97011	4147.4
2394.77657	4146.7
2397.58125	4165.7
2400.38416	4159.7
2403.18529	4157
2405.98466	4147
2408.78226	4126.7
2411.57809	4124.2
2414.37216	4131.9
2417.16446	4152.3
2419.955	4165.5
2422.74378	4167.4
2425.5308	4158.4
2428.31606	4161.9
2431.09956	4161.1
2433.88131	4165.6
2436.6613	4172
2439.43954	4177.7
2442.21603	4170.2
2444.99077	4157.6
2447.76377	4140.4
2450.53501	4136
2453.30451	4149.1
2456.07226	4148.5
2458.83827	4152.7
2461.60254	4153.6
2464.36507	4182.1
2467.12586	4161.1
2469.88492	4153.6
2472.64224	4169.7
2475.39782	4158.5
2478.15167	4178.5
2480.90379	4161.8
2483.65417	4174.5
2486.40283	4174.3
2489.14976	4182.1
2491.89497	4192.1
2494.63845	4187.5
2497.3802	4178.7
2500.12024	4190
2502.85855	4197
2505.59514	4181.4
2508.33002	4172.3
2511.06318	4211.4
2513.79462	4195.9
2516.52435	4184
2519.25237	4170.6
2521.97867	4170.7
2524.70327	4169.3
2527.42616	4174.6
2530.14734	4159.6
2532.86681	4175.6
2535.58458	4187.2
2538.30065	4208.1
2541.01501	4204.9
2543.72768	4193
2546.43864	4191.3
2549.14791	4173.5
2551.85548	4166.7
2554.56136	4154.8
2557.26554	4150.8
2559.96803	4173.5
2562.66883	4182.3
2565.36794	4150.3
2568.06536	4147
2570.7611	4150.5
2573.45514	4133.9
2576.14751	4149.7
2578.83819	4137.2
2581.52719	4133.4
2584.21451	4142.2
2586.90015	4163.3
2589.58411	4151.6
2592.2664	4158.8
2594.94701	4168.7
2597.62594	4160.2
2600.30321	4145.4
2602.9788	4180.2
2605.65273	4163.9
2608.32498	4169.3
2610.99557	4143
2613.66449	4157.3
2616.33175	4144.5
2618.99734	4128.9
2621.66128	4120.8
2624.32355	4105.4
2626.98416	4100.7
2629.64311	4096.3
2632.30041	4123.9
2634.95605	4120.3
2637.61004	4114.4
2640.26238	4106.9
2642.91306	4095.3
2645.56209	4113.7
2648.20948	4108.4
2650.85521	4117
2653.4993	4105.5
2656.14175	4104.9
2658.78255	4124.6
2661.42171	4152.3
2664.05923	4145
2666.6951	4149.5
2669.32934	4148.6
2671.96194	4164.4
2674.59291	4157.6
2677.22224	4153
2679.84993	4167.4
2682.476	4151.6
2685.10043	4166.4
2687.72324	4139.4
2690.34441	4156.7
2692.96396	4158.1
2695.58188	4186.4
2698.19818	4186.7
2700.81285	4199.9
2703.4259	4207.3
2706.03733	4206.5
2708.64714	4188.6
2711.25533	4183.5
2713.86191	4179.1
2716.46687	4195.6
2719.07021	4215.4
2721.67194	4226.7
2724.27206	4222.8
2726.87057	4239.3
2729.46747	4224
2732.06276	4229.1
2734.65644	4241.9
2737.24852	4211
2739.83899	4233.5
2742.42786	4220.8
2745.01513	4216.4
2747.60079	4203.1
2750.18486	4208.5
2752.76733	4227.8
2755.3482	4225.7
2757.92747	4211.6
2760.50515	4210.5
2763.08123	4211.6
2765.65573	4208
2768.22863	4204.1
2770.79994	4205.8
2773.36967	4210.9
2775.9378	4198.5
2778.50435	4192
2781.06932	4193.1
2783.6327	4203.2
2786.1945	4207.1
2788.75471	4207.3
2791.31335	4191.6
2793.87041	4194.2
2796.42589	4193.8
2798.97979	4197.9
2801.53212	4190.3
2804.08288	4180.8
2806.63206	4176
2809.17967	4178
2811.72571	4158.9
2814.27018	4173.8
2816.81308	4145.9
2819.35442	4146.8
2821.89419	4118.6
2824.43239	4150.4
2826.96904	4134.9
2829.50412	4147.7
2832.03763	4136.2
2834.56959	4135.6
2837.1	4121
2839.62884	4129.1
2842.15613	4120.7
2844.68186	4144.7
2847.20604	4129.7
2849.72867	4128.1
2852.24974	4125.6
2854.76927	4119.7
2857.28724	4148.9
2859.80367	4140.5
2862.31855	4139.1
2864.83189	4138.2
2867.34368	4131.2
2869.85393	4152
2872.36264	4138.7
2874.8698	4151.6
2877.37543	4150
2879.87952	4152.9
2882.38207	4146.8
2884.88308	4143.4
2887.38256	4162.6
2889.88051	4169.2
2892.37692	4167.8
2894.8718	4179.2
2897.36515	4201.9
2899.85698	4204.8
2902.34727	4236
2904.83604	4234
2907.32328	4243
2909.809	4243.8
2912.29319	4263.2
2914.77587	4257.8
2917.25702	4271.9
2919.73665	4267.9
2922.21476	4283.9
2924.69136	4278.8
2927.16644	4266.3
2929.64	4266.3
2932.11205	4274.8
2934.58258	4304.6
2937.05161	4298.5
2939.51912	4295.7
2941.98513	4332.5
2944.44962	4329.8
2946.91261	4301.4
2949.37409	4310.8
2951.83407	4333.6
2954.29254	4330.4
2956.74951	4312.4
2959.20498	4295.8
2961.65895	4304.6
2964.11142	4306.2
2966.56239	4293.1
2969.01186	4298.6
2971.45984	4299.8
2973.90632	4306.9
2976.35131	4297.8
2978.7948	4285.9
2981.23681	4299.4
2983.67732	4289.6
2986.11635	4290.5
2988.55388	4284.9
2990.98993	4272.1
2993.4245	4265.7
2995.85758	4254.8
2998.28917	4247
3000.71928	4237.8
3003.14791	4269.2
3005.57506	4247.9
3008.00073	4239.4
3010.42493	4210.4
3012.84764	4251.2
3015.26888	4230.6
3017.68865	4223.1
3020.10694	4218.1
3022.52376	4221.4
3024.9391	4234.7
3027.35298	4218.7
3029.76539	4224.1
3032.17632	4210
3034.5858	4241.6
3036.9938	4215.5
3039.40034	4205.6
3041.80542	4237.7
3044.20903	4233.7
3046.61118	4243.7
3049.01187	4237.8
3051.4111	4248.6
3053.80888	4227.3
3056.20519	4229.7
3058.60005	4232.5
3060.99345	4251.4
3063.3854	4244.8
3065.7759	4237.9
3068.16494	4210.7
3070.55254	4195.9
3072.93868	4197.8
3075.32338	4202.9
3077.70662	4187.6
3080.08842	4175.2
3082.46878	4199.9
3084.84769	4197.1
3087.22515	4214.9
3089.60118	4231.5
3091.97576	4205.3
3094.3489	4216.4
3096.72061	4225.7
3099.09087	4243.8
3101.4597	4265.4
3103.82709	4289.9
3106.19305	4301.3
3108.55757	4290.8
3110.92066	4286.3
3113.28232	4288.3
3115.64255	4296.1
3118.00134	4306.1
3120.35871	4299
3122.71466	4293.3
3125.06917	4285.1
3127.42226	4293.2
3129.77393	4290.6
3132.12417	4312.2
3134.47299	4320.2
3136.82039	4321.2
3139.16636	4335
3141.51092	4327.5
3143.85406	4328.4
3146.19579	4339.5
3148.53609	4357.6
3150.87499	4358.7
3153.21246	4375.6
3155.54853	4384.6
3157.88318	4393.1
3160.21642	4403.2
3162.54826	4411.3
3164.87868	4408.3
3167.2077	4444
3169.5353	4453.2
3171.86151	4465.3
3174.18631	4463.7
3176.5097	4464.7
3178.83169	4456.4
3181.15228	4464.1
3183.47147	4459
3185.78926	4467.6
3188.10565	4460.1
3190.42065	4464.6
3192.73424	4473.3
3195.04645	4475.2
3197.35725	4451.4
3199.66667	4454.5
3201.97469	4465.6
3204.28132	4486.6
3206.58656	4517.9
3208.8904	4529.6
3211.19287	4527.6
3213.49394	4525.6
3215.79363	4528.9
3218.09193	4534
3220.38884	4558.1
3222.68438	4569.6
3224.97853	4579.9
3227.2713	4573.9
3229.56269	4579.7
3231.8527	4570.8
3234.14133	4566.5
3236.42858	4555
3238.71446	4564.6
3240.99896	4551.3
3243.28209	4545.8
3245.56384	4548.7
3247.84423	4540
3250.12324	4535.2
3252.40088	4521.9
3254.67715	4509.5
3256.95205	4516
3259.22558	4541
3261.49775	4556.6
3263.76855	4544.9
3266.03799	4545
3268.30606	4536.9
3270.57277	4536.5
3272.83812	4526.8
3275.10211	4528.5
3277.36474	4522.2
3279.62601	4532.2
3281.88593	4521.5
3284.14448	4505.3
3286.40168	4513.9
3288.65753	4509.4
3290.91202	4508.5
3293.16516	4487.8
3295.41695	4464.5
3297.66738	4452.5
3299.91647	4438.6
3302.16421	4451.3
3304.4106	4419.9
3306.65564	4414.5
3308.89933	4367.7
3311.14169	4334.6
3313.38269	4316.7
3315.62236	4296.8
3317.86068	4278.4
3320.09766	4245.4
3322.3333	4197.9
3324.5676	4167.9
3326.80056	4117.4
3329.03219	4085.9
3331.26248	3.2
3333.49143	0.3
3335.71905	0.9
