Data from AgNPs_UA_5uM_CRN_500uM_AS_RamanShift__32__13-34-53-858.txt Node

Date: Wed Aug 17 13:34:53 BST 2022
User: TCL
Spectrometer: QEP01345
Trigger mode: 4
Integration Time (sec): 7.000000E0
Scans to average: 10
Electric dark correction enabled: true
Nonlinearity correction enabled: false
Boxcar width: 0
XAxis mode: Raman Shifts
Number of Pixels in Spectrum: 1044
>>>>>Begin Spectral Data<<<<<
46.04893	1.1625
50.45542	0.6625
54.85868	-0.7375
59.25871	-0.6375
63.6555	92.2625
68.04907	101.8625
72.43941	103.5625
76.82654	110.1625
81.21044	114.5625
85.59113	118.2625
89.96862	123.7625
94.34289	129.7625
98.71396	132.5625
103.08183	138.2625
107.4465	144.3625
111.80798	145.1625
116.16626	152.2625
120.52136	159.2625
124.87327	166.3625
129.222	178.6625
133.56755	196.8625
137.90993	211.5625
142.24913	236.0625
146.58517	261.1625
150.91804	298.1625
155.24774	361.1625
159.57429	454.7625
163.89768	585.9625
168.21792	782.5625
172.53501	1070.9625
176.84895	1497.3625
181.15975	2110.8625
185.46741	2959.2625
189.77193	4136.2625
194.07331	5594.8625
198.37157	7268.5625
202.6667	9084.5625
206.9587	11006.5625
211.24758	13080.8625
215.53334	15396.6625
219.81599	18114.5625
224.09553	21166.6625
228.37195	24546.7625
232.64527	27924.4625
236.91549	31123.4625
241.18261	33573.0625
245.44663	35276.7625
249.70755	36590.0625
253.96539	37779.3625
258.22014	38356.9625
262.4718	38179.8625
266.72039	37023.5625
270.96589	35187.1625
275.20832	33039.2625
279.44768	30990.4625
283.68397	29545.1625
287.91719	29041.9625
292.14735	29741.5625
296.37445	32098.2625
300.59849	36059.1625
304.81948	40920.0625
309.03742	45147.2625
313.25231	46311.3625
317.46415	42765.2625
321.67296	36351.8625
325.87872	31105.7625
330.08145	28867.1625
334.28114	29041.6625
338.47781	30579.4625
342.67145	32682.1625
346.86207	36131.7625
351.04966	41511.2625
355.23424	47075.6625
359.4158	50129.7625
363.59435	50155.5625
367.76989	48518.7625
371.94243	46228.2625
376.11196	44101.4625
380.27849	42274.9625
384.44203	40451.8625
388.60257	38870.9625
392.76012	38092.0625
396.91468	38539.8625
401.06626	40022.1625
405.21485	40435.0625
409.36047	37857.2625
413.50311	32878.5625
417.64277	28265.6625
421.77947	25378.5625
425.9132	24063.9625
430.04396	23624.2625
434.17176	23832.0625
438.2966	24957.7625
442.41849	26668.8625
446.53742	28466.7625
450.6534	29566.5625
454.76644	29486.4625
458.87653	28391.5625
462.98368	26974.9625
467.08789	25561.7625
471.18916	24087.8625
475.2875	22352.1625
479.38291	20837.9625
483.4754	19827.0625
487.56496	19215.9625
491.6516	18912.4625
495.73531	18881.0625
499.81612	19294.4625
503.89401	20109.6625
507.96899	21296.4625
512.04106	22735.5625
516.11023	24227.0625
520.1765	25259.7625
524.23987	25340.1625
528.30034	24787.5625
532.35792	24012.4625
536.41261	22998.3625
540.46441	21529.7625
544.51333	20678.9625
548.55936	20730.2625
552.60252	21695.8625
556.64279	23001.9625
560.6802	24169.3625
564.71473	27099.3625
568.7464	31595.8625
572.7752	31943.2625
576.80114	26559.4625
580.82422	21709.0625
584.84444	19587.3625
588.86181	19383.7625
592.87633	20187.3625
596.888	21505.3625
600.89682	24990.6625
604.9028	37183.4625
608.90594	67453.3625
612.90624	101495.1625
616.90371	87413.6625
620.89834	43807.9625
624.89015	25793.5625
628.87913	23346.0625
632.86528	25331.4625
636.84862	26418.5625
640.82913	23545.8625
644.80683	19349.3625
648.78172	17278.6625
652.75379	18114.8625
656.72306	21648.4625
660.68952	24713.8625
664.65319	22231.6625
668.61405	17972.1625
672.57211	16524.4625
676.52738	16583.2625
680.47986	16174.4625
684.42955	15282.8625
688.37646	15046.0625
692.32058	15419.3625
696.26192	16196.9625
700.20048	17050.8625
704.13626	17212.4625
708.06928	16754.8625
711.99952	16346.0625
715.927	16632.9625
719.85171	17376.7625
723.77365	17604.0625
727.69284	17090.7625
731.60928	16621.7625
735.52295	16581.9625
739.43388	16711.6625
743.34206	16785.7625
747.24749	16600.6625
751.15017	16722.8625
755.05012	18381.5625
758.94733	24017.0625
762.8418	36193.3625
766.73354	51543.7625
770.62254	62454.7625
774.50882	68430.5625
778.39237	65406.2625
782.27321	49372.1625
786.15132	32133.1625
790.02671	22741.3625
793.89938	18942.8625
797.76935	17402.5625
801.6366	16637.2625
805.50115	16149.4625
809.36299	15847.1625
813.22213	15609.6625
817.07857	15527.7625
820.93231	15744.8625
824.78336	16308.6625
828.63172	16904.5625
832.47738	17015.3625
836.32036	16365.6625
840.16066	15505.5625
843.99827	14940.2625
847.8332	14775.8625
851.66546	14857.4625
855.49504	14936.6625
859.32195	14793.7625
863.1462	14491.9625
866.96777	14360.0625
870.78668	14405.6625
874.60293	14661.3625
878.41652	15105.2625
882.22745	15669.3625
886.03573	16001.3625
889.84136	15912.5625
893.64433	15861.1625
897.44466	16087.1625
901.24235	16104.7625
905.0374	15578.4625
908.8298	14892.5625
912.61957	14388.1625
916.40671	14209.5625
920.19121	14337.1625
923.97308	15069.4625
927.75233	16634.1625
931.52895	17994.3625
935.30295	16820.0625
939.07433	14455.8625
942.84309	12937.0625
946.60924	12233.1625
950.37278	12008.8625
954.13371	11922.0625
957.89203	11897.8625
961.64774	11825.7625
965.40086	11755.8625
969.15137	11666.3625
972.89929	11664.2625
976.64461	11671.2625
980.38733	11677.3625
984.12747	11715.3625
987.86502	11776.3625
991.59999	11970.0625
995.33237	12373.7625
999.06217	12962.6625
1002.78939	13642.4625
1006.51404	14428.1625
1010.23611	15067.2625
1013.95561	15185.1625
1017.67255	14777.5625
1021.38692	14006.0625
1025.09872	13250.3625
1028.80796	12862.3625
1032.51465	12971.5625
1036.21877	13385.1625
1039.92035	13818.6625
1043.61937	14269.6625
1047.31584	14490.8625
1051.00976	14316.1625
1054.70114	13852.0625
1058.38998	13568.6625
1062.07627	13503.3625
1065.76003	13459.0625
1069.44126	13662.5625
1073.11995	14465.1625
1076.79611	16188.8625
1080.46974	18880.6625
1084.14085	21901.0625
1087.80943	23776.6625
1091.47549	23410.3625
1095.13903	21130.8625
1098.80005	18519.0625
1102.45857	17149.6625
1106.11456	17286.8625
1109.76805	18715.1625
1113.41903	21432.9625
1117.06751	25849.9625
1120.71348	32533.7625
1124.35696	39768.6625
1127.99793	41452.5625
1131.63641	35446.6625
1135.2724	27968.6625
1138.90589	23016.0625
1142.5369	20279.8625
1146.16542	18593.7625
1149.79145	17682.6625
1153.415	17522.2625
1157.03607	18033.7625
1160.65467	19389.8625
1164.27079	21836.5625
1167.88443	25660.1625
1171.49561	31970.5625
1175.10432	42286.6625
1178.71056	54633.5625
1182.31434	62427.4625
1185.91565	62028.9625
1189.51451	56618.0625
1193.11091	49734.0625
1196.70485	43592.5625
1200.29634	39038.1625
1203.88538	33975.9625
1207.47197	27763.5625
1211.05612	22692.7625
1214.63782	19846.2625
1218.21708	18568.6625
1221.79391	18035.2625
1225.36829	17806.1625
1228.94024	17593.4625
1232.50976	17507.4625
1236.07685	17939.9625
1239.6415	18764.5625
1243.20374	19526.0625
1246.76355	19892.5625
1250.32093	20596.0625
1253.8759	22139.4625
1257.42845	24515.7625
1260.97859	27623.2625
1264.52631	30802.6625
1268.07163	33047.3625
1271.61453	33698.9625
1275.15503	33116.0625
1278.69312	32588.5625
1282.22882	33924.5625
1285.76211	37127.4625
1289.29301	40562.0625
1292.82151	43433.5625
1296.34761	47368.9625
1299.87133	54312.5625
1303.39266	66758.6625
1306.9116	84904.4625
1310.42815	100040.9625
1313.94233	99245.6625
1317.45412	83892.2625
1320.96354	65320.5625
1324.47058	49754.4625
1327.97525	39746.8625
1331.47754	35396.4625
1334.97747	35548.4625
1338.47502	39291.7625
1341.97022	46499.3625
1345.46305	56844.4625
1348.95352	68850.9625
1352.44163	84326.2625
1355.92738	108596.9625
1359.41078	137812.2625
1362.89183	146623.0625
1366.37053	121044.4625
1369.84688	87375.0625
1373.32088	65060.1625
1376.79254	53022.4625
1380.26186	44896.9625
1383.72883	37475.7625
1387.19347	31011.8625
1390.65578	26044.9625
1394.11575	23223.0625
1397.57339	21986.6625
1401.0287	21461.0625
1404.48168	21333.4625
1407.93234	21767.7625
1411.38068	22834.4625
1414.82669	23827.3625
1418.27039	23921.9625
1421.71177	23539.0625
1425.15083	23774.8625
1428.58758	25410.8625
1432.02203	27143.1625
1435.45416	27290.3625
1438.88399	26573.5625
1442.31151	26024.1625
1445.73673	25940.8625
1449.15965	25690.8625
1452.58027	24698.6625
1455.9986	23612.1625
1459.41463	23698.5625
1462.82837	25184.0625
1466.23982	26968.8625
1469.64898	28097.9625
1473.05586	28683.9625
1476.46045	29624.4625
1479.86276	31182.5625
1483.26279	33447.2625
1486.66054	36837.2625
1490.05602	42121.3625
1493.44922	49982.5625
1496.84016	62156.6625
1500.22882	80791.0625
1503.61521	105219.3625
1506.99934	130214.0625
1510.38121	145868.0625
1513.76081	141800.3625
1517.13816	117703.5625
1520.51324	87257.6625
1523.88607	63274.0625
1527.25665	49237.0625
1530.62498	41719.9625
1533.99105	37410.4625
1537.35488	34972.0625
1540.71647	33997.6625
1544.07581	34183.5625
1547.4329	34752.9625
1550.78776	35337.1625
1554.14038	35688.4625
1557.49077	36270.2625
1560.83892	38382.5625
1564.18484	43213.7625
1567.52853	48971.1625
1570.86999	52667.8625
1574.20922	53170.2625
1577.54624	49302.2625
1580.88103	40514.8625
1584.2136	31817.3625
1587.54395	27232.3625
1590.87208	27355.8625
1594.19801	31184.7625
1597.52172	35856.8625
1600.84321	37280.1625
1604.16251	34556.5625
1607.47959	29817.8625
1610.79447	24978.8625
1614.10715	21202.2625
1617.41763	18838.4625
1620.7259	17890.3625
1624.03199	17930.4625
1627.33587	18846.3625
1630.63757	20717.7625
1633.93707	24337.1625
1637.23439	30879.2625
1640.52951	42217.7625
1643.82246	58922.6625
1647.11321	75799.7625
1650.40179	81990.4625
1653.68819	71854.9625
1656.97241	52801.6625
1660.25446	35900.1625
1663.53433	25118.9625
1666.81203	19135.3625
1670.08756	15886.7625
1673.36092	14031.7625
1676.63211	12885.4625
1679.90115	12164.5625
1683.16801	11682.2625
1686.43272	11364.1625
1689.69527	11086.2625
1692.95567	10910.7625
1696.2139	10843.7625
1699.46999	10771.0625
1702.72392	10699.5625
1705.97571	10666.3625
1709.22535	10687.3625
1712.47284	10711.3625
1715.71819	10666.1625
1718.96139	10569.9625
1722.20246	10370.3625
1725.44139	10115.5625
1728.67818	9760.6625
1731.91284	9462.7625
1735.14537	9232.6625
1738.37576	9064.1625
1741.60403	8949.2625
1744.83017	8827.9625
1748.05418	8731.2625
1751.27607	8619.6625
1754.49584	8517.4625
1757.71349	8408.9625
1760.92903	8266.6625
1764.14244	8132.7625
1767.35375	7956.1625
1770.56294	7760.3625
1773.77002	7582.4625
1776.97499	7412.7625
1780.17785	7250.7625
1783.37861	7147.7625
1786.57727	7077.4625
1789.77382	7046.4625
1792.96828	7003.8625
1796.16064	6945.8625
1799.3509	6921.6625
1802.53907	6862.6625
1805.72514	6801.4625
1808.90913	6733.1625
1812.09102	6664.5625
1815.27083	6620.5625
1818.44856	6546.3625
1821.6242	6493.9625
1824.79776	6421.4625
1827.96924	6351.9625
1831.13864	6256.2625
1834.30597	6213.6625
1837.47122	6137.4625
1840.6344	6075.6625
1843.7955	6028.3625
1846.95454	5972.6625
1850.11151	5975.6625
1853.26642	5950.1625
1856.41926	5957.8625
1859.57004	5966.9625
1862.71876	5973.6625
1865.86542	5991.7625
1869.01003	6027.0625
1872.15258	6043.5625
1875.29308	6054.3625
1878.43152	6062.9625
1881.56792	6067.1625
1884.70227	6048.3625
1887.83457	6016.0625
1890.96482	5988.9625
1894.09304	5985.8625
1897.21921	5980.7625
1900.34335	5985.8625
1903.46544	5978.7625
1906.58551	5965.1625
1909.70353	5967.2625
1912.81953	5925.8625
1915.93349	5910.3625
1919.04543	5878.2625
1922.15534	5853.8625
1925.26322	5806.1625
1928.36908	5710.8625
1931.47292	5619.0625
1934.57473	5500.0625
1937.67453	5413.6625
1940.77232	5349.2625
1943.86808	5290.9625
1946.96184	5261.0625
1950.05358	5221.6625
1953.14331	5228.8625
1956.23103	5238.6625
1959.31675	5259.7625
1962.40046	5294.9625
1965.48217	5336.5625
1968.56188	5367.5625
1971.63959	5387.6625
1974.7153	5362.7625
1977.78901	5302.6625
1980.86073	5186.1625
1983.93046	5094.8625
1986.99819	5012.7625
1990.06394	4934.4625
1993.1277	4860.0625
1996.18947	4821.4625
1999.24925	4764.2625
2002.30706	4724.7625
2005.36288	4680.3625
2008.41672	4659.9625
2011.46859	4626.0625
2014.51848	4616.5625
2017.56639	4594.7625
2020.61233	4555.8625
2023.6563	4527.4625
2026.6983	4504.2625
2029.73833	4488.9625
2032.7764	4470.4625
2035.8125	4458.1625
2038.84664	4449.5625
2041.87881	4441.7625
2044.90903	4432.2625
2047.93729	4400.8625
2050.96359	4371.6625
2053.98794	4324.6625
2057.01034	4309.1625
2060.03078	4279.3625
2063.04927	4237.1625
2066.06582	4205.6625
2069.08042	4168.6625
2072.09307	4175.1625
2075.10378	4157.2625
2078.11255	4166.1625
2081.11938	4169.2625
2084.12426	4185.0625
2087.12722	4162.0625
2090.12824	4171.7625
2093.12732	4172.4625
2096.12447	4162.6625
2099.11969	4173.0625
2102.11299	4161.0625
2105.10435	4177.0625
2108.09379	4182.7625
2111.08131	4178.8625
2114.0669	4210.7625
2117.05057	4254.6625
2120.03233	4289.4625
2123.01216	4322.9625
2125.99008	4351.6625
2128.96609	4342.4625
2131.94018	4308.0625
2134.91236	4274.7625
2137.88263	4238.2625
2140.851	4166.6625
2143.81746	4133.3625
2146.78201	4061.6625
2149.74466	4010.5625
2152.7054	3964.6625
2155.66425	3923.4625
2158.6212	3894.6625
2161.57625	3871.7625
2164.52941	3855.4625
2167.48067	3859.4625
2170.43004	3847.6625
2173.37752	3859.5625
2176.32311	3875.1625
2179.26681	3908.6625
2182.20863	3924.0625
2185.14856	3902.6625
2188.08661	3875.2625
2191.02278	3843.7625
2193.95707	3804.0625
2196.88948	3776.9625
2199.82001	3757.8625
2202.74867	3734.0625
2205.67545	3744.6625
2208.60037	3733.4625
2211.52341	3736.7625
2214.44458	3732.8625
2217.36388	3686.5625
2220.28132	3652.1625
2223.1969	3621.6625
2226.11061	3602.9625
2229.02246	3579.0625
2231.93245	3565.1625
2234.84058	3556.9625
2237.74686	3557.5625
2240.65128	3562.8625
2243.55385	3579.1625
2246.45456	3604.5625
2249.35343	3656.3625
2252.25044	3699.6625
2255.14561	3786.9625
2258.03893	3865.4625
2260.93041	3909.5625
2263.82004	3922.2625
2266.70783	3911.9625
2269.59378	3864.0625
2272.4779	3839.8625
2275.36017	3836.2625
2278.24061	3820.0625
2281.11922	3776.5625
2283.996	3749.4625
2286.87094	3703.8625
2289.74405	3651.9625
2292.61534	3592.0625
2295.4848	3538.6625
2298.35243	3515.0625
2301.21824	3492.8625
2304.08223	3475.6625
2306.94439	3483.0625
2309.80474	3463.6625
2312.66327	3479.6625
2315.51999	3464.4625
2318.37489	3456.0625
2321.22797	3429.9625
2324.07925	3415.6625
2326.92871	3418.0625
2329.77637	3422.8625
2332.62222	3408.5625
2335.46626	3417.8625
2338.3085	3432.8625
2341.14893	3453.4625
2343.98756	3459.5625
2346.8244	3483.1625
2349.65943	3514.9625
2352.49267	3571.2625
2355.32411	3617.8625
2358.15376	3682.9625
2360.98161	3769.3625
2363.80768	3840.2625
2366.63195	3904.7625
2369.45444	3947.2625
2372.27514	3984.4625
2375.09405	3982.6625
2377.91118	3949.0625
2380.72652	3913.2625
2383.54009	3865.8625
2386.35187	3784.5625
2389.16188	3713.7625
2391.97011	3631.6625
2394.77657	3562.4625
2397.58125	3509.1625
2400.38416	3468.2625
2403.18529	3415.2625
2405.98466	3385.2625
2408.78226	3370.7625
2411.57809	3351.0625
2414.37216	3331.9625
2417.16446	3335.4625
2419.955	3343.0625
2422.74378	3357.0625
2425.5308	3382.3625
2428.31606	3389.4625
2431.09956	3437.7625
2433.88131	3446.9625
2436.6613	3501.4625
2439.43954	3516.6625
2442.21603	3558.1625
2444.99077	3566.8625
2447.76377	3605.9625
2450.53501	3634.5625
2453.30451	3650.7625
2456.07226	3647.9625
2458.83827	3637.9625
2461.60254	3648.9625
2464.36507	3646.9625
2467.12586	3643.7625
2469.88492	3665.1625
2472.64224	3689.2625
2475.39782	3756.2625
2478.15167	3825.9625
2480.90379	3906.9625
2483.65417	4006.0625
2486.40283	4084.3625
2489.14976	4145.3625
2491.89497	4173.5625
2494.63845	4188.9625
2497.3802	4142.0625
2500.12024	4104.9625
2502.85855	4010.2625
2505.59514	3901.3625
2508.33002	3802.4625
2511.06318	3680.5625
2513.79462	3561.9625
2516.52435	3459.5625
2519.25237	3379.9625
2521.97867	3323.4625
2524.70327	3301.8625
2527.42616	3284.5625
2530.14734	3255.7625
2532.86681	3265.9625
2535.58458	3291.3625
2538.30065	3337.3625
2541.01501	3336.3625
2543.72768	3365.2625
2546.43864	3408.6625
2549.14791	3421.5625
2551.85548	3448.6625
2554.56136	3462.8625
2557.26554	3457.7625
2559.96803	3469.0625
2562.66883	3470.6625
2565.36794	3469.3625
2568.06536	3465.2625
2570.7611	3432.6625
2573.45514	3417.0625
2576.14751	3398.4625
2578.83819	3378.1625
2581.52719	3344.1625
2584.21451	3334.1625
2586.90015	3318.1625
2589.58411	3292.4625
2592.2664	3299.8625
2594.94701	3300.0625
2597.62594	3313.1625
2600.30321	3324.1625
2602.9788	3332.2625
2605.65273	3363.3625
2608.32498	3391.0625
2610.99557	3409.2625
2613.66449	3433.6625
2616.33175	3438.9625
2618.99734	3449.9625
2621.66128	3442.0625
2624.32355	3402.6625
2626.98416	3374.9625
2629.64311	3337.6625
2632.30041	3304.9625
2634.95605	3283.4625
2637.61004	3257.4625
2640.26238	3256.4625
2642.91306	3232.7625
2645.56209	3228.4625
2648.20948	3238.7625
2650.85521	3250.3625
2653.4993	3276.1625
2656.14175	3297.2625
2658.78255	3324.4625
2661.42171	3363.0625
2664.05923	3411.6625
2666.6951	3440.3625
2669.32934	3479.0625
2671.96194	3487.8625
2674.59291	3504.4625
2677.22224	3502.9625
2679.84993	3492.5625
2682.476	3489.0625
2685.10043	3480.5625
2687.72324	3458.3625
2690.34441	3463.4625
2692.96396	3445.8625
2695.58188	3451.2625
2698.19818	3438.8625
2700.81285	3459.7625
2703.4259	3473.5625
2706.03733	3480.1625
2708.64714	3510.1625
2711.25533	3545.8625
2713.86191	3558.5625
2716.46687	3590.1625
2719.07021	3608.9625
2721.67194	3640.9625
2724.27206	3635.1625
2726.87057	3631.8625
2729.46747	3604.4625
2732.06276	3573.6625
2734.65644	3550.5625
2737.24852	3499.6625
2739.83899	3465.9625
2742.42786	3449.3625
2745.01513	3403.3625
2747.60079	3370.3625
2750.18486	3346.7625
2752.76733	3318.2625
2755.3482	3309.7625
2757.92747	3288.0625
2760.50515	3275.4625
2763.08123	3265.2625
2765.65573	3274.1625
2768.22863	3278.4625
2770.79994	3275.6625
2773.36967	3296.8625
2775.9378	3319.6625
2778.50435	3336.0625
2781.06932	3360.4625
2783.6327	3419.6625
2786.1945	3448.8625
2788.75471	3471.3625
2791.31335	3535.1625
2793.87041	3596.9625
2796.42589	3632.5625
2798.97979	3678.7625
2801.53212	3745.3625
2804.08288	3817.6625
2806.63206	3881.9625
2809.17967	3939.5625
2811.72571	4023.1625
2814.27018	4114.9625
2816.81308	4181.3625
2819.35442	4246.6625
2821.89419	4304.3625
2824.43239	4351.6625
2826.96904	4374.4625
2829.50412	4409.0625
2832.03763	4409.0625
2834.56959	4419.1625
2837.1	4442.1625
2839.62884	4489.9625
2842.15613	4528.8625
2844.68186	4579.6625
2847.20604	4666.8625
2849.72867	4748.8625
2852.24974	4816.1625
2854.76927	4887.8625
2857.28724	4963.8625
2859.80367	5035.9625
2862.31855	5110.0625
2864.83189	5176.3625
2867.34368	5225.8625
2869.85393	5265.7625
2872.36264	5276.5625
2874.8698	5251.6625
2877.37543	5216.4625
2879.87952	5170.8625
2882.38207	5148.8625
2884.88308	5100.7625
2887.38256	5085.6625
2889.88051	5067.9625
2892.37692	5077.3625
2894.8718	5059.9625
2897.36515	5079.7625
2899.85698	5074.6625
2902.34727	5049.2625
2904.83604	5017.2625
2907.32328	4986.1625
2909.809	4952.8625
2912.29319	4912.1625
2914.77587	4854.1625
2917.25702	4824.3625
2919.73665	4776.3625
2922.21476	4744.6625
2924.69136	4684.1625
2927.16644	4652.7625
2929.64	4584.6625
2932.11205	4520.0625
2934.58258	4468.3625
2937.05161	4407.2625
2939.51912	4344.4625
2941.98513	4287.9625
2944.44962	4231.5625
2946.91261	4170.0625
2949.37409	4132.4625
2951.83407	4100.7625
2954.29254	4064.9625
2956.74951	4029.1625
2959.20498	3996.6625
2961.65895	3945.8625
2964.11142	3930.6625
2966.56239	3866.2625
2969.01186	3830.1625
2971.45984	3753.0625
2973.90632	3724.0625
2976.35131	3672.7625
2978.7948	3631.8625
2981.23681	3602.3625
2983.67732	3583.7625
2986.11635	3559.4625
2988.55388	3537.0625
2990.98993	3523.7625
2993.4245	3533.9625
2995.85758	3539.3625
2998.28917	3543.0625
3000.71928	3546.9625
3003.14791	3553.5625
3005.57506	3554.3625
3008.00073	3552.4625
3010.42493	3593.9625
3012.84764	3563.6625
3015.26888	3543.6625
3017.68865	3542.3625
3020.10694	3513.7625
3022.52376	3493.2625
3024.9391	3478.2625
3027.35298	3442.0625
3029.76539	3404.1625
3032.17632	3351.5625
3034.5858	3303.5625
3036.9938	3263.3625
3039.40034	3233.9625
3041.80542	3193.1625
3044.20903	3159.5625
3046.61118	3149.5625
3049.01187	3120.1625
3051.4111	3102.8625
3053.80888	3071.2625
3056.20519	3063.2625
3058.60005	3027.0625
3060.99345	3006.4625
3063.3854	2976.4625
3065.7759	2947.2625
3068.16494	2927.3625
3070.55254	2895.0625
3072.93868	2867.4625
3075.32338	2855.3625
3077.70662	2837.4625
3080.08842	2807.5625
3082.46878	2805.4625
3084.84769	2793.4625
3087.22515	2785.9625
3089.60118	2781.0625
3091.97576	2755.9625
3094.3489	2747.7625
3096.72061	2753.0625
3099.09087	2734.1625
3101.4597	2733.8625
3103.82709	2727.5625
3106.19305	2726.2625
3108.55757	2728.3625
3110.92066	2717.0625
3113.28232	2725.7625
3115.64255	2723.7625
3118.00134	2721.9625
3120.35871	2722.6625
3122.71466	2725.4625
3125.06917	2727.7625
3127.42226	2758.6625
3129.77393	2766.6625
3132.12417	2776.0625
3134.47299	2784.1625
3136.82039	2821.1625
3139.16636	2824.6625
3141.51092	2828.3625
3143.85406	2847.5625
3146.19579	2855.7625
3148.53609	2859.7625
3150.87499	2901.1625
3153.21246	2910.0625
3155.54853	2926.2625
3157.88318	2933.6625
3160.21642	2955.4625
3162.54826	2963.1625
3164.87868	2945.6625
3167.2077	2971.0625
3169.5353	2972.8625
3171.86151	2974.1625
3174.18631	2982.6625
3176.5097	2990.5625
3178.83169	3004.6625
3181.15228	3019.9625
3183.47147	3032.9625
3185.78926	3043.3625
3188.10565	3050.2625
3190.42065	3084.2625
3192.73424	3111.2625
3195.04645	3133.1625
3197.35725	3147.1625
3199.66667	3173.4625
3201.97469	3207.5625
3204.28132	3231.0625
3206.58656	3265.0625
3208.8904	3293.3625
3211.19287	3323.0625
3213.49394	3354.3625
3215.79363	3370.8625
3218.09193	3401.9625
3220.38884	3418.5625
3222.68438	3433.4625
3224.97853	3443.2625
3227.2713	3449.8625
3229.56269	3464.0625
3231.8527	3475.0625
3234.14133	3462.1625
3236.42858	3474.3625
3238.71446	3464.1625
3240.99896	3475.9625
3243.28209	3486.5625
3245.56384	3459.1625
3247.84423	3484.8625
3250.12324	3472.3625
3252.40088	3478.7625
3254.67715	3475.0625
3256.95205	3475.3625
3259.22558	3482.9625
3261.49775	3480.5625
3263.76855	3485.8625
3266.03799	3478.5625
3268.30606	3489.0625
3270.57277	3478.2625
3272.83812	3485.4625
3275.10211	3480.2625
3277.36474	3482.9625
3279.62601	3499.3625
3281.88593	3503.3625
3284.14448	3514.7625
3286.40168	3536.0625
3288.65753	3512.8625
3290.91202	3536.0625
3293.16516	3539.2625
3295.41695	3543.1625
3297.66738	3510.0625
3299.91647	3477.7625
3302.16421	3416.8625
3304.4106	3402.0625
3306.65564	3329.1625
3308.89933	3288.4625
3311.14169	3234.5625
3313.38269	3175.9625
3315.62236	3137.0625
3317.86068	3094.7625
3320.09766	3033.6625
3322.3333	2992.7625
3324.5676	2959.5625
3326.80056	2899.2625
3329.03219	2864.4625
3331.26248	2.4625
3333.49143	-1.3375
3335.71905	-0.7375
