Data from Au@Ag_Absorbance__0__14-39-04-724.txt Node

Date: Thu Jun 09 14:39:04 BST 2022
User: TCL
Spectrometer: FLMS02025
Trigger mode: 0
Integration Time (sec): 1.000000E-2
Scans to average: 300
Electric dark correction enabled: true
Nonlinearity correction enabled: false
Boxcar width: 3
XAxis mode: Wavelengths
Number of Pixels in Spectrum: 2048
>>>>>Begin Spectral Data<<<<<
179.37241	-0.50284
179.75866	-0.27019
180.14488	-0.14294
180.53107	-0.02265
180.91723	1.84037
181.30337	-0
181.68947	-0
182.07555	-0
182.4616	-0
182.84761	-0
183.2336	-0
183.61956	-0.05707
184.0055	-0
184.3914	-0
184.77727	-0
185.16312	-0
185.54893	-0
185.93472	-0
186.32048	-0.59171
186.70621	-0.33173
187.09191	0.20012
187.47758	0.42685
187.86322	0.49094
188.24883	0.52334
188.63441	0.55319
189.01997	0.5916
189.40549	0.61721
189.79099	0.64859
190.17645	0.69139
190.56189	0.73306
190.9473	0.77396
191.33267	0.80918
191.71802	0.84451
192.10334	0.87908
192.48863	0.90923
192.87389	0.93343
193.25912	0.9626
193.64432	0.98992
194.0295	1.01976
194.41464	1.04473
194.79975	1.06977
195.18484	1.09657
195.56989	1.12148
195.95491	1.13962
196.33991	1.15667
196.72487	1.17408
197.10981	1.18719
197.49471	1.20482
197.87959	1.2229
198.26443	1.23742
198.64925	1.25569
199.03404	1.2704
199.41879	1.28689
199.80352	1.30954
200.18822	1.32653
200.57289	1.33638
200.95752	1.35134
201.34213	1.36017
201.72671	1.37789
202.11125	1.39126
202.49577	1.39648
202.88026	1.40543
203.26472	1.41852
203.64914	1.43096
204.03354	1.44739
204.41791	1.45869
204.80225	1.47118
205.18655	1.48289
205.57083	1.5019
205.95508	1.51419
206.33929	1.52747
206.72348	1.54058
207.10764	1.55334
207.49176	1.56642
207.87586	1.57837
208.25992	1.58953
208.64396	1.59984
209.02796	1.60871
209.41194	1.61878
209.79588	1.63124
210.17979	1.64173
210.56368	1.65502
210.94753	1.66318
211.33135	1.67331
211.71514	1.68457
212.0989	1.69585
212.48263	1.69994
212.86633	1.70324
213.25	1.7048
213.63364	1.70851
214.01725	1.71176
214.40083	1.71058
214.78437	1.70329
215.16789	1.70406
215.55137	1.69925
215.93483	1.69572
216.31825	1.68876
216.70164	1.67906
217.08501	1.66748
217.46834	1.65871
217.85164	1.64618
218.23491	1.63158
218.61815	1.61539
219.00136	1.59635
219.38453	1.5777
219.76768	1.55775
220.15079	1.53607
220.53388	1.51212
220.91693	1.48861
221.29995	1.46358
221.68294	1.43758
222.0659	1.41122
222.44883	1.38509
222.83173	1.35747
223.2146	1.32874
223.59743	1.30019
223.98023	1.27243
224.36301	1.2453
224.74575	1.2184
225.12846	1.19167
225.51114	1.16544
225.89379	1.14029
226.2764	1.1165
226.65899	1.09235
227.04154	1.06945
227.42406	1.0473
227.80655	1.02634
228.18901	1.00589
228.57144	0.98625
228.95384	0.96731
229.3362	0.94927
229.71854	0.93192
230.10084	0.91537
230.48311	0.89925
230.86535	0.88442
231.24755	0.87006
231.62973	0.85663
232.01187	0.84407
232.39399	0.83205
232.77607	0.82091
233.15812	0.81028
233.54013	0.80032
233.92212	0.79086
234.30407	0.78191
234.68599	0.77356
235.06788	0.76573
235.44974	0.75827
235.83157	0.75143
236.21336	0.74455
236.59512	0.73848
236.97685	0.7328
237.35855	0.72747
237.74022	0.72254
238.12185	0.71783
238.50346	0.71347
238.88503	0.70939
239.26656	0.70558
239.64807	0.70203
240.02954	0.69838
240.41099	0.69495
240.7924	0.69206
241.17377	0.68932
241.55512	0.68686
241.93643	0.68444
242.31771	0.68222
242.69896	0.68031
243.08018	0.67844
243.46136	0.67653
243.84252	0.6747
244.22363	0.67305
244.60472	0.67157
244.98578	0.67001
245.3668	0.66836
245.74779	0.66701
246.12875	0.66577
246.50967	0.66442
246.89056	0.66341
247.27142	0.66224
247.65225	0.66122
248.03305	0.66039
248.41381	0.65921
248.79454	0.65808
249.17523	0.65738
249.5559	0.65624
249.93653	0.65536
250.31713	0.65438
250.6977	0.65356
251.07823	0.65278
251.45873	0.65215
251.8392	0.6511
252.21963	0.65037
252.60003	0.64955
252.9804	0.6488
253.36074	0.64795
253.74104	0.6472
254.12132	0.64642
254.50155	0.64575
254.88176	0.64502
255.26193	0.64424
255.64207	0.64336
256.02217	0.64235
256.40225	0.64145
256.78229	0.64048
257.16229	0.63951
257.54227	0.63867
257.92221	0.6375
258.30212	0.63668
258.68199	0.63594
259.06183	0.63498
259.44164	0.63397
259.82141	0.633
260.20115	0.63193
260.58086	0.63111
260.96054	0.63003
261.34018	0.62905
261.71979	0.62807
262.09936	0.62711
262.4789	0.62602
262.85841	0.62488
263.23788	0.62377
263.61732	0.62253
263.99673	0.62115
264.3761	0.62008
264.75545	0.61882
265.13475	0.61764
265.51403	0.61653
265.89326	0.61522
266.27247	0.61421
266.65164	0.61306
267.03078	0.6116
267.40989	0.61035
267.78896	0.60907
268.168	0.60753
268.547	0.60643
268.92597	0.60487
269.30491	0.60349
269.68381	0.60219
270.06268	0.60074
270.44151	0.59925
270.82031	0.59802
271.19908	0.59637
271.57781	0.59492
271.95651	0.59336
272.33518	0.59177
272.71381	0.59015
273.09241	0.58842
273.47097	0.58661
273.8495	0.58496
274.22799	0.5833
274.60646	0.58159
274.98488	0.58006
275.36328	0.57835
275.74163	0.57669
276.11996	0.57508
276.49825	0.57333
276.8765	0.57148
277.25473	0.5696
277.63291	0.56765
278.01107	0.56591
278.38919	0.56402
278.76727	0.56201
279.14532	0.56
279.52334	0.55802
279.90132	0.55609
280.27927	0.55401
280.65718	0.55192
281.03506	0.55
281.4129	0.54788
281.79071	0.54584
282.16848	0.54373
282.54622	0.54152
282.92393	0.53949
283.3016	0.5373
283.67924	0.53515
284.05684	0.53293
284.43441	0.53081
284.81194	0.52871
285.18944	0.52661
285.5669	0.52439
285.94433	0.52219
286.32172	0.51994
286.69908	0.51775
287.0764	0.51535
287.45369	0.51288
287.83095	0.51048
288.20817	0.50795
288.58535	0.50552
288.9625	0.50294
289.33961	0.5004
289.71669	0.49786
290.09374	0.49528
290.47075	0.49273
290.84772	0.49009
291.22466	0.48716
291.60157	0.48428
291.97844	0.48138
292.35527	0.47858
292.73207	0.47569
293.10883	0.47262
293.48556	0.46961
293.86226	0.46667
294.23891	0.46355
294.61554	0.46035
294.99213	0.45703
295.36868	0.45366
295.7452	0.45036
296.12168	0.44686
296.49812	0.44339
296.87454	0.43985
297.25091	0.43636
297.62725	0.43265
298.00356	0.42904
298.37983	0.42526
298.75606	0.42152
299.13226	0.41743
299.50842	0.41355
299.88455	0.40943
300.26064	0.40549
300.6367	0.40136
301.01272	0.39722
301.3887	0.39298
301.76465	0.38877
302.14057	0.38442
302.51644	0.38032
302.89229	0.37609
303.26809	0.37184
303.64386	0.3676
304.0196	0.36343
304.3953	0.35931
304.77096	0.35514
305.14659	0.3509
305.52218	0.34656
305.89774	0.34239
306.27326	0.33823
306.64874	0.33412
307.02419	0.32988
307.3996	0.32575
307.77498	0.32174
308.15032	0.31785
308.52562	0.31415
308.90089	0.31033
309.27612	0.30671
309.65131	0.30323
310.02647	0.29977
310.4016	0.29629
310.77668	0.29281
311.15174	0.28932
311.52675	0.28595
311.90173	0.28262
312.27667	0.27934
312.65158	0.27617
313.02645	0.27311
313.40128	0.2702
313.77608	0.26724
314.15084	0.26443
314.52556	0.26172
314.90025	0.25894
315.2749	0.25633
315.64951	0.25375
316.02409	0.25131
316.39863	0.24896
316.77314	0.24665
317.14761	0.24457
317.52204	0.24252
317.89644	0.24047
318.2708	0.23864
318.64512	0.23689
319.0194	0.23536
319.39365	0.23389
319.76786	0.23236
320.14204	0.23122
320.51618	0.23032
320.89028	0.22949
321.26435	0.22877
321.63837	0.22818
322.01237	0.22784
322.38632	0.22773
322.76024	0.22766
323.13412	0.22768
323.50796	0.22791
323.88177	0.22826
324.25554	0.22874
324.62927	0.22931
325.00297	0.23007
325.37663	0.23124
325.75025	0.2328
326.12384	0.23456
326.49738	0.23676
326.8709	0.23936
327.24437	0.24214
327.61781	0.24513
327.99121	0.24826
328.36457	0.2515
328.73789	0.25491
329.11118	0.25841
329.48443	0.26216
329.85764	0.26623
330.23082	0.27043
330.60396	0.27476
330.97706	0.27919
331.35012	0.28397
331.72315	0.28876
332.09614	0.29366
332.46909	0.29854
332.842	0.30351
333.21488	0.30881
333.58772	0.31402
333.96052	0.31929
334.33328	0.32479
334.70601	0.33011
335.0787	0.33564
335.45135	0.34117
335.82396	0.34655
336.19654	0.35233
336.56908	0.35805
336.94158	0.36366
337.31404	0.36941
337.68647	0.37522
338.05885	0.38127
338.4312	0.38724
338.80352	0.3932
339.17579	0.39918
339.54802	0.40522
339.92022	0.41146
340.29238	0.41772
340.66451	0.42391
341.03659	0.43024
341.40864	0.43663
341.78064	0.44294
342.15261	0.44971
342.52455	0.45623
342.89644	0.46281
343.2683	0.46956
343.64012	0.47643
344.0119	0.48311
344.38364	0.49006
344.75534	0.49678
345.12701	0.50366
345.49863	0.51036
345.87022	0.51701
346.24177	0.52382
346.61329	0.53067
346.98476	0.53731
347.3562	0.54395
347.7276	0.55049
348.09895	0.55694
348.47028	0.56328
348.84156	0.56948
349.2128	0.57571
349.58401	0.58178
349.95517	0.58751
350.3263	0.59353
350.69739	0.59935
351.06845	0.60523
351.43946	0.61095
351.81043	0.61633
352.18137	0.62198
352.55227	0.62759
352.92313	0.63282
353.29395	0.6384
353.66473	0.64365
354.03547	0.64878
354.40617	0.65407
354.77684	0.65939
355.14746	0.66483
355.51805	0.6702
355.8886	0.67523
356.25911	0.68045
356.62958	0.68576
357.00001	0.69116
357.37041	0.69627
357.74076	0.70173
358.11108	0.70706
358.48135	0.71284
358.85159	0.71865
359.22179	0.72456
359.59195	0.73035
359.96207	0.73635
360.33215	0.74206
360.70219	0.74828
361.0722	0.75429
361.44216	0.76059
361.81209	0.76666
362.18197	0.77317
362.55182	0.77976
362.92163	0.78636
363.29139	0.79303
363.66112	0.79968
364.03081	0.80629
364.40046	0.81321
364.77007	0.8201
365.13964	0.82689
365.50918	0.83386
365.87867	0.841
366.24812	0.84818
366.61754	0.85565
366.98691	0.86353
367.35625	0.87095
367.72554	0.87868
368.0948	0.88666
368.46401	0.89435
368.83319	0.90202
369.20233	0.90945
369.57142	0.9165
369.94048	0.9239
370.3095	0.93149
370.67848	0.93885
371.04742	0.94632
371.41632	0.95371
371.78518	0.96187
372.154	0.96992
372.52278	0.97796
372.89152	0.98557
373.26022	0.99354
373.62888	1.00178
373.9975	1.01034
374.36608	1.01848
374.73462	1.02695
375.10312	1.03563
375.47158	1.04423
375.84	1.05255
376.20838	1.06128
376.57672	1.07006
376.94502	1.07836
377.31328	1.08684
377.6815	1.09581
378.04968	1.10501
378.41782	1.115
378.78592	1.12416
379.15398	1.13286
379.522	1.14173
379.88998	1.15112
380.25792	1.15993
380.62582	1.1681
380.99368	1.17583
381.3615	1.18389
381.72927	1.19269
382.09701	1.20143
382.46471	1.20996
382.83236	1.21735
383.19998	1.22677
383.56756	1.23572
383.93509	1.24493
384.30259	1.2534
384.67004	1.26132
385.03746	1.26978
385.40483	1.27939
385.77216	1.28748
386.13945	1.2955
386.50671	1.30401
386.87392	1.31235
387.24109	1.32156
387.60822	1.32929
387.97531	1.33715
388.34235	1.34485
388.70936	1.35186
389.07633	1.35866
389.44325	1.36575
389.81014	1.37209
390.17698	1.37927
390.54379	1.38609
390.91055	1.39331
391.27727	1.40104
391.64395	1.40876
392.01059	1.416
392.37719	1.42475
392.74375	1.43209
393.11026	1.4386
393.47674	1.44479
393.84317	1.45094
394.20957	1.45536
394.57592	1.45985
394.94223	1.46363
395.3085	1.46727
395.67473	1.47068
396.04092	1.47591
396.40706	1.47904
396.77317	1.48373
397.13923	1.49072
397.50526	1.49703
397.87124	1.50289
398.23718	1.50951
398.60308	1.51376
398.96894	1.51951
399.33475	1.52399
399.70053	1.52615
400.06626	1.52876
400.43195	1.53178
400.7976	1.53309
401.16321	1.53444
401.52878	1.53614
401.8943	1.53778
402.25979	1.54075
402.62523	1.54261
402.99063	1.54421
403.35599	1.54637
403.72131	1.54797
404.08659	1.54975
404.45182	1.55138
404.81701	1.55201
405.18217	1.55429
405.54728	1.55632
405.91234	1.55781
406.27737	1.55896
406.64235	1.55827
407.00729	1.55926
407.3722	1.55861
407.73705	1.55829
408.10187	1.5581
408.46665	1.55677
408.83138	1.55677
409.19607	1.55979
409.56072	1.55899
409.92532	1.55968
410.28989	1.55866
410.65441	1.55682
411.01889	1.55744
411.38333	1.55836
411.74773	1.55622
412.11208	1.55591
412.47639	1.55592
412.84066	1.55518
413.20489	1.5555
413.56908	1.55404
413.93322	1.54986
414.29732	1.54787
414.66138	1.54619
415.02539	1.54463
415.38937	1.54282
415.7533	1.54008
416.11719	1.53867
416.48104	1.53836
416.84484	1.53602
417.2086	1.53432
417.57232	1.53102
417.936	1.52828
418.29963	1.52541
418.66323	1.52078
419.02678	1.51752
419.39028	1.516
419.75375	1.51304
420.11717	1.511
420.48055	1.5092
420.84388	1.50945
421.20718	1.50943
421.57043	1.50801
421.93364	1.50667
422.2968	1.50389
422.65992	1.50041
423.023	1.49598
423.38604	1.49013
423.74903	1.48589
424.11199	1.48159
424.47489	1.47592
424.83776	1.47109
425.20058	1.4665
425.56336	1.46113
425.9261	1.45586
426.28879	1.45036
426.65144	1.44471
427.01405	1.43991
427.37662	1.43452
427.73914	1.43002
428.10162	1.42664
428.46405	1.42411
428.82644	1.42073
429.18879	1.41736
429.5511	1.41373
429.91336	1.4129
430.27558	1.40951
430.63776	1.40645
430.99989	1.40021
431.36198	1.39472
431.72402	1.38836
432.08603	1.38155
432.44799	1.37376
432.8099	1.36691
433.17178	1.36046
433.53361	1.3557
433.89539	1.34929
434.25713	1.34465
434.61883	1.33995
434.98049	1.3352
435.3421	1.33091
435.70367	1.32622
436.06519	1.32205
436.42667	1.31802
436.78811	1.31205
437.14951	1.30694
437.51086	1.3004
437.87216	1.29389
438.23343	1.2882
438.59464	1.28216
438.95582	1.27609
439.31695	1.27149
439.67804	1.26524
440.03908	1.25981
440.40008	1.25352
440.76104	1.24697
441.12195	1.24161
441.48282	1.23627
441.84365	1.22987
442.20443	1.22413
442.56516	1.21885
442.92586	1.21317
443.2865	1.20708
443.64711	1.20003
444.00767	1.19416
444.36819	1.18819
444.72866	1.18194
445.08909	1.1757
445.44947	1.1703
445.80981	1.16442
446.17011	1.15904
446.53036	1.15289
446.89056	1.14722
447.25073	1.14239
447.61085	1.13646
447.97092	1.12939
448.33095	1.12262
448.69094	1.1157
449.05088	1.10975
449.41078	1.10356
449.77063	1.09645
450.13044	1.09052
450.4902	1.0847
450.84992	1.07897
451.20959	1.07352
451.56922	1.06737
451.92881	1.0613
452.28835	1.05497
452.64785	1.04833
453.0073	1.04184
453.36671	1.03518
453.72607	1.0286
454.08539	1.02187
454.44466	1.01531
454.80389	1.00941
455.16307	1.00297
455.52221	0.99729
455.88131	0.99107
456.24036	0.98538
456.59936	0.97976
456.95832	0.97366
457.31724	0.96864
457.67611	0.96276
458.03493	0.95715
458.39371	0.95195
458.75245	0.94613
459.11114	0.9411
459.46979	0.9362
459.82839	0.9306
460.18694	0.92561
460.54545	0.92045
460.90392	0.91506
461.26234	0.91011
461.62071	0.90477
461.97904	0.89917
462.33733	0.89383
462.69557	0.88813
463.05376	0.88233
463.41191	0.87733
463.77001	0.87242
464.12807	0.86706
464.48609	0.86236
464.84405	0.85825
465.20198	0.8542
465.55986	0.84997
465.91769	0.84522
466.27547	0.84034
466.63321	0.83615
466.99091	0.83135
467.34856	0.82605
467.70617	0.82092
468.06372	0.81612
468.42124	0.81182
468.77871	0.80757
469.13613	0.8026
469.49351	0.79774
469.85084	0.79221
470.20812	0.78664
470.56536	0.78125
470.92256	0.77642
471.27971	0.77176
471.63681	0.76743
471.99387	0.76338
472.35088	0.7597
472.70784	0.7561
473.06476	0.75227
473.42164	0.7482
473.77846	0.74473
474.13525	0.74116
474.49198	0.73742
474.84867	0.73377
475.20532	0.73015
475.56191	0.72666
475.91847	0.72307
476.27497	0.71884
476.63143	0.71465
476.98785	0.71065
477.34422	0.7064
477.70054	0.70185
478.05681	0.69786
478.41304	0.69374
478.76923	0.68993
479.12537	0.68613
479.48146	0.68234
479.8375	0.67843
480.1935	0.67453
480.54945	0.6708
480.90536	0.6673
481.26122	0.66402
481.61703	0.66047
481.9728	0.65653
482.32852	0.65299
482.68419	0.64994
483.03982	0.6465
483.3954	0.64293
483.75094	0.63922
484.10643	0.63588
484.46187	0.63302
484.81726	0.63051
485.17261	0.62767
485.52792	0.62432
485.88317	0.62077
486.23838	0.61773
486.59354	0.61472
486.94866	0.61155
487.30373	0.60741
487.65875	0.60311
488.01373	0.59923
488.36866	0.59629
488.72354	0.59264
489.07837	0.58886
489.43316	0.58519
489.7879	0.58184
490.1426	0.57848
490.49725	0.57504
490.85185	0.57149
491.2064	0.56789
491.56091	0.56438
491.91537	0.56098
492.26978	0.55782
492.62415	0.55443
492.97847	0.55134
493.33274	0.54826
493.68696	0.54524
494.04114	0.54218
494.39527	0.53922
494.74936	0.53594
495.10339	0.53342
495.45738	0.53059
495.81132	0.52781
496.16522	0.52501
496.51907	0.52223
496.87287	0.5195
497.22662	0.51685
497.58032	0.51342
497.93398	0.51003
498.28759	0.50641
498.64116	0.50318
498.99467	0.49985
499.34814	0.4967
499.70156	0.49368
500.05494	0.49083
500.40826	0.48784
500.76154	0.48488
501.11477	0.48194
501.46796	0.47912
501.82109	0.47637
502.17418	0.47373
502.52722	0.47123
502.88022	0.46845
503.23316	0.46586
503.58606	0.4631
503.93891	0.4606
504.29171	0.45812
504.64447	0.45564
504.99717	0.45294
505.34983	0.45023
505.70244	0.44749
506.05501	0.44474
506.40752	0.44198
506.75999	0.43925
507.11241	0.43642
507.46478	0.43368
507.8171	0.43095
508.16938	0.42805
508.52161	0.42553
508.87379	0.42288
509.22592	0.42051
509.578	0.41819
509.93004	0.41579
510.28203	0.41377
510.63397	0.41194
510.98586	0.40971
511.3377	0.40761
511.6895	0.40528
512.04124	0.40303
512.39294	0.40075
512.74459	0.39829
513.09619	0.39568
513.44775	0.39351
513.79925	0.39131
514.15071	0.38904
514.50212	0.38647
514.85348	0.38397
515.20479	0.38154
515.55605	0.37948
515.90727	0.37709
516.25844	0.37481
516.60955	0.37246
516.96062	0.37037
517.31164	0.36856
517.66262	0.36668
518.01354	0.36457
518.36442	0.36248
518.71524	0.36041
519.06602	0.35854
519.41675	0.35651
519.76743	0.35424
520.11806	0.35208
520.46864	0.34984
520.81918	0.34751
521.16966	0.3451
521.5201	0.34271
521.87049	0.34051
522.22083	0.33843
522.57112	0.33643
522.92136	0.3344
523.27155	0.33243
523.6217	0.33051
523.97179	0.32872
524.32184	0.32702
524.67183	0.3254
525.02178	0.3236
525.37168	0.32182
525.72153	0.32019
526.07133	0.31853
526.42108	0.31695
526.77078	0.31531
527.12044	0.31349
527.47004	0.31203
527.81959	0.31061
528.1691	0.30881
528.51856	0.30693
528.86796	0.30523
529.21732	0.30352
529.56663	0.30191
529.91589	0.29989
530.2651	0.29796
530.61426	0.29644
530.96337	0.29504
531.31243	0.29327
531.66144	0.29174
532.0104	0.29017
532.35932	0.28886
532.70818	0.28747
533.057	0.2857
533.40576	0.28404
533.75448	0.2825
534.10314	0.28106
534.45176	0.27957
534.80032	0.27816
535.14884	0.27669
535.49731	0.27538
535.84572	0.27406
536.19409	0.27284
536.54241	0.27151
536.89068	0.27032
537.23889	0.2691
537.58706	0.26788
537.93518	0.26668
538.28325	0.26547
538.63127	0.26432
538.97924	0.26295
539.32716	0.26142
539.67503	0.25989
540.02285	0.25843
540.37062	0.25688
540.71833	0.25553
541.066	0.25406
541.41362	0.25268
541.76119	0.25151
542.10871	0.25029
542.45618	0.24896
542.8036	0.2478
543.15097	0.24656
543.49829	0.24536
543.84555	0.24421
544.19277	0.24328
544.53994	0.24226
544.88706	0.24138
545.23413	0.24055
545.58114	0.23972
545.92811	0.23882
546.27503	0.23799
546.62189	0.23703
546.96871	0.23628
547.31547	0.23525
547.66219	0.23408
548.00885	0.23268
548.35546	0.23149
548.70203	0.23027
549.04854	0.22906
549.395	0.2278
549.74141	0.22681
550.08778	0.22585
550.43409	0.22522
550.78035	0.22451
551.12656	0.22404
551.47271	0.22329
551.81882	0.22246
552.16488	0.22162
552.51089	0.22086
552.85684	0.22
553.20275	0.21907
553.5486	0.2181
553.8944	0.2172
554.24016	0.21652
554.58586	0.21586
554.93151	0.21519
555.27711	0.21437
555.62266	0.21338
555.96815	0.21222
556.3136	0.2113
556.659	0.21029
557.00434	0.20915
557.34963	0.2079
557.69488	0.20686
558.04007	0.20615
558.38521	0.20552
558.7303	0.20498
559.07534	0.2045
559.42032	0.20368
559.76526	0.20308
560.11015	0.2025
560.45498	0.202
560.79976	0.20163
561.14449	0.20124
561.48917	0.20075
561.8338	0.20047
562.17838	0.20017
562.5229	0.19992
562.86738	0.19959
563.2118	0.19886
563.55617	0.19757
563.90049	0.19623
564.24476	0.19517
564.58898	0.19407
564.93314	0.19263
565.27725	0.19132
565.62132	0.19027
565.96533	0.18954
566.30929	0.18889
566.65319	0.18803
566.99705	0.18724
567.34085	0.1866
567.68461	0.18581
568.02831	0.1853
568.37196	0.18483
568.71555	0.18416
569.0591	0.1835
569.40259	0.18265
569.74603	0.1821
570.08942	0.18137
570.43276	0.18062
570.77605	0.1799
571.11928	0.17941
571.46246	0.17852
571.80559	0.17764
572.14867	0.17702
572.4917	0.17669
572.83467	0.17605
573.1776	0.17501
573.52047	0.17367
573.86328	0.17274
574.20605	0.17212
574.54876	0.17143
574.89143	0.17062
575.23404	0.17009
575.57659	0.17005
575.9191	0.17009
576.26155	0.16959
576.60395	0.16919
576.9463	0.16868
577.2886	0.16784
577.63084	0.16696
577.97303	0.16589
578.31517	0.16512
578.65726	0.16504
578.99929	0.16491
579.34127	0.16431
579.6832	0.16356
580.02508	0.16285
580.36691	0.16288
580.70868	0.16213
581.0504	0.16063
581.39206	0.15838
581.73368	0.15686
582.07524	0.15602
582.41675	0.15551
582.7582	0.1545
583.09961	0.1535
583.44096	0.15299
583.78226	0.15405
584.1235	0.155
584.4647	0.15562
584.80584	0.1552
585.14692	0.15458
585.48796	0.15428
585.82894	0.15397
586.16987	0.15329
586.51074	0.15222
586.85157	0.15097
587.19234	0.15039
587.53305	0.15025
587.87372	0.14996
588.21433	0.14945
588.55488	0.14873
588.89539	0.1486
589.23584	0.14844
589.57624	0.14798
589.91659	0.1473
590.25688	0.14683
590.59712	0.14671
590.9373	0.14693
591.27744	0.14651
591.61752	0.14617
591.95754	0.14565
592.29752	0.1448
592.63744	0.14379
592.9773	0.14271
593.31712	0.14153
593.65688	0.14068
593.99658	0.14004
594.33624	0.13965
594.67584	0.13916
595.01538	0.1385
595.35487	0.13804
595.69431	0.13779
596.0337	0.13786
596.37303	0.13777
596.71231	0.13772
597.05154	0.13795
597.39071	0.13853
597.72983	0.13908
598.06889	0.13954
598.4079	0.1393
598.74686	0.13894
599.08576	0.13865
599.42461	0.13814
599.76341	0.13735
600.10215	0.13621
600.44084	0.13491
600.77947	0.13378
601.11805	0.1329
601.45658	0.13179
601.79505	0.13053
602.13347	0.12967
602.47184	0.12919
602.81015	0.12902
603.14841	0.12905
603.48661	0.1293
603.82476	0.12937
604.16285	0.12977
604.5009	0.13034
604.83888	0.13112
605.17682	0.13128
605.5147	0.13159
605.85252	0.13167
606.19029	0.13209
606.52801	0.13244
606.86567	0.13225
607.20328	0.13141
607.54083	0.13077
607.87833	0.12986
608.21578	0.12882
608.55317	0.12765
608.8905	0.12654
609.22779	0.12562
609.56502	0.12485
609.90219	0.12427
610.23931	0.12424
610.57637	0.1245
610.91338	0.12466
611.25034	0.12462
611.58724	0.12455
611.92409	0.1252
612.26088	0.12598
612.59762	0.12626
612.9343	0.1264
613.27093	0.12643
613.6075	0.12648
613.94402	0.12659
614.28049	0.1266
614.6169	0.12623
614.95325	0.12524
615.28955	0.12422
615.6258	0.12307
615.96199	0.12229
616.29812	0.12119
616.63421	0.11993
616.97023	0.11872
617.3062	0.11836
617.64212	0.11809
617.97798	0.11856
618.31379	0.11846
618.64954	0.11896
618.98524	0.11936
619.32088	0.12009
619.65647	0.12054
619.992	0.12065
620.32747	0.12051
620.6629	0.12068
620.99826	0.1206
621.33357	0.12092
621.66883	0.12085
622.00403	0.1206
622.33918	0.12058
622.67427	0.12023
623.0093	0.11932
623.34428	0.11865
623.67921	0.11775
624.01408	0.117
624.34889	0.11637
624.68365	0.11592
625.01835	0.11573
625.353	0.11599
625.68759	0.11588
626.02213	0.1158
626.35661	0.11597
626.69104	0.11659
627.02541	0.11708
627.35972	0.11728
627.69398	0.11739
628.02819	0.1173
628.36234	0.1173
628.69643	0.11735
629.03047	0.11702
629.36445	0.11646
629.69837	0.11595
630.03225	0.11532
630.36606	0.11498
630.69982	0.11431
631.03352	0.11347
631.36717	0.11302
631.70076	0.11295
632.0343	0.11311
632.36778	0.11346
632.7012	0.11351
633.03457	0.11394
633.36788	0.11425
633.70114	0.11419
634.03434	0.11407
634.36748	0.11388
634.70057	0.1137
635.0336	0.11381
635.36658	0.11375
635.6995	0.11373
636.03236	0.11385
636.36517	0.11376
636.69792	0.11369
637.03062	0.11326
637.36325	0.11274
637.69584	0.11226
638.02836	0.11192
638.36084	0.11147
638.69325	0.11121
639.02561	0.11102
639.35791	0.11118
639.69016	0.11122
640.02234	0.11117
640.35448	0.11077
640.68655	0.1105
641.01857	0.11009
641.35054	0.10979
641.68244	0.10943
642.01429	0.10936
642.34609	0.10934
642.67783	0.10973
643.00951	0.11008
643.34113	0.11069
643.6727	0.11115
644.00421	0.11157
644.33567	0.11158
644.66706	0.11146
644.9984	0.11116
645.32969	0.11087
645.66092	0.11035
645.99209	0.1098
646.3232	0.10902
646.65426	0.10863
646.98526	0.10827
647.31621	0.10802
647.64709	0.10789
647.97792	0.10787
648.3087	0.10779
648.63941	0.10806
648.97007	0.10794
649.30067	0.10777
649.63122	0.10746
649.96171	0.10708
650.29214	0.10695
650.62251	0.10671
650.95283	0.10641
651.28309	0.10626
651.61329	0.10628
651.94344	0.10636
652.27353	0.1066
652.60356	0.10661
652.93354	0.1066
653.26345	0.10652
653.59331	0.10645
653.92312	0.10623
654.25286	0.10587
654.58255	0.10556
654.91218	0.10779
655.24175	0.10501
655.57127	0.10089
655.90073	0.09672
656.23013	0.09498
656.55947	0.09422
656.88876	0.09383
657.21799	0.09189
657.54716	0.09039
657.87627	0.09034
658.20533	0.09507
658.53433	0.09893
658.86327	0.10105
659.19215	0.1019
659.52098	0.10209
659.84975	0.10199
660.17846	0.10202
660.50711	0.10206
660.83571	0.10178
661.16424	0.10156
661.49272	0.10138
661.82115	0.10138
662.14951	0.10149
662.47782	0.10134
662.80606	0.10113
663.13425	0.10101
663.46239	0.10118
663.79046	0.10123
664.11848	0.101
664.44644	0.10083
664.77434	0.10078
665.10218	0.10048
665.42997	0.10023
665.75769	0.09991
666.08536	0.0997
666.41297	0.09963
666.74052	0.09963
667.06802	0.09931
667.39545	0.09928
667.72283	0.09888
668.05015	0.09843
668.37741	0.09783
668.70462	0.09744
669.03176	0.09701
669.35885	0.09663
669.68588	0.09651
670.01285	0.09682
670.33976	0.09702
670.66661	0.09742
670.99341	0.09771
671.32014	0.0976
671.64682	0.09749
671.97344	0.09699
672.3	0.09637
672.62651	0.09595
672.95295	0.0954
673.27934	0.09466
673.60566	0.09421
673.93193	0.0939
674.25814	0.0939
674.58429	0.09407
674.91038	0.09401
675.23642	0.09405
675.56239	0.09421
675.88831	0.09439
676.21417	0.09453
676.53997	0.09446
676.86571	0.0943
677.19139	0.09399
677.51701	0.09358
677.84257	0.09297
678.16808	0.09254
678.49352	0.09218
678.81891	0.0919
679.14424	0.0915
679.46951	0.09136
679.79472	0.09113
680.11987	0.09135
680.44496	0.09122
680.76999	0.09091
681.09497	0.09068
681.41988	0.09033
681.74474	0.09025
682.06953	0.09016
682.39427	0.09
682.71895	0.08989
683.04357	0.09007
683.36813	0.0902
683.69263	0.09062
684.01707	0.09046
684.34145	0.09032
684.66578	0.08997
684.99004	0.08949
685.31424	0.08874
685.63839	0.08799
685.96247	0.08713
686.2865	0.08647
686.61046	0.08584
686.93437	0.08522
687.25822	0.08477
687.58201	0.08464
687.90573	0.0848
688.2294	0.08495
688.55301	0.08507
688.87656	0.08524
689.20005	0.08542
689.52348	0.08552
689.84685	0.08563
690.17016	0.08584
690.49342	0.08607
690.81661	0.08631
691.13974	0.08628
691.46281	0.08629
691.78582	0.08597
692.10878	0.08556
692.43167	0.0851
692.7545	0.0844
693.07727	0.08385
693.39999	0.08337
693.72264	0.08288
694.04523	0.08282
694.36777	0.08294
694.69024	0.08288
695.01265	0.08305
695.33501	0.08303
695.6573	0.08335
695.97953	0.08401
696.30171	0.08452
696.62382	0.0848
696.94587	0.0846
697.26786	0.08431
697.5898	0.084
697.91167	0.08342
698.23348	0.08256
698.55523	0.08185
698.87692	0.08092
699.19855	0.0804
699.52013	0.07993
699.84164	0.07975
700.16309	0.07949
700.48448	0.07933
700.8058	0.07899
701.12707	0.07897
701.44828	0.07892
701.76943	0.07895
702.09052	0.07862
702.41154	0.07866
702.73251	0.07846
703.05342	0.07821
703.37426	0.078
703.69505	0.07809
704.01577	0.07798
704.33644	0.07819
704.65704	0.07827
704.97758	0.07844
705.29806	0.07895
705.61848	0.07928
705.93884	0.07924
706.25914	0.0793
706.57938	0.07896
706.89956	0.0785
707.21967	0.0781
707.53973	0.07759
707.85973	0.07701
708.17966	0.0764
708.49953	0.07579
708.81935	0.07538
709.1391	0.075
709.45879	0.0746
709.77842	0.07453
710.09798	0.07444
710.41749	0.07431
710.73694	0.07421
711.05632	0.07442
711.37565	0.07477
711.69491	0.07528
712.01411	0.07536
712.33325	0.07557
712.65233	0.07572
712.97135	0.07576
713.29031	0.07527
713.6092	0.07471
713.92804	0.07412
714.24681	0.07396
714.56552	0.07369
714.88417	0.07361
715.20276	0.07362
715.52129	0.07384
715.83975	0.0742
716.15816	0.07441
716.4765	0.0743
716.79478	0.07438
717.113	0.07463
717.43116	0.07448
717.74926	0.07447
718.06729	0.07415
718.38527	0.07407
718.70318	0.07377
719.02103	0.07341
719.33882	0.07289
719.65655	0.07271
719.97421	0.07241
720.29182	0.07196
720.60936	0.07143
720.92684	0.07082
721.24426	0.07036
721.56161	0.07004
721.87891	0.06977
722.19614	0.06965
722.51331	0.0701
722.83042	0.07046
723.14747	0.07095
723.46446	0.07129
723.78138	0.07126
724.09824	0.07138
724.41504	0.07116
724.73178	0.07065
725.04845	0.0701
725.36507	0.0698
725.68162	0.06957
725.99811	0.06967
726.31453	0.06975
726.6309	0.06999
726.9472	0.07021
727.26344	0.07048
727.57962	0.07056
727.89573	0.0705
728.21179	0.07004
728.52778	0.06937
728.84371	0.06882
729.15958	0.06843
729.47538	0.06788
729.79112	0.06755
730.1068	0.06733
730.42242	0.06755
730.73797	0.06767
731.05347	0.06753
731.36889	0.06725
731.68426	0.06717
731.99957	0.06715
732.31481	0.06724
732.62999	0.06687
732.94511	0.06666
733.26016	0.0665
733.57515	0.06656
733.89008	0.06658
734.20495	0.0662
734.51975	0.06603
734.83449	0.06632
735.14917	0.06679
735.46379	0.06712
735.77834	0.06723
736.09283	0.06719
736.40725	0.06726
736.72162	0.06685
737.03592	0.06645
737.35016	0.06603
737.66433	0.06589
737.97845	0.06627
738.2925	0.06671
738.60648	0.06674
738.92041	0.06679
739.23427	0.0667
739.54806	0.06645
739.8618	0.06616
740.17547	0.06583
740.48908	0.0653
740.80262	0.0652
741.1161	0.06571
741.42952	0.06598
741.74288	0.06635
742.05617	0.06638
742.3694	0.06586
742.68256	0.06569
742.99567	0.06587
743.30871	0.06551
743.62168	0.06546
743.93459	0.06526
744.24744	0.06566
744.56023	0.06605
744.87295	0.06636
745.18561	0.066
745.4982	0.06549
745.81074	0.06512
746.1232	0.06469
746.43561	0.06406
746.74795	0.06347
747.06023	0.0628
747.37244	0.06267
747.68459	0.06315
747.99668	0.0635
748.3087	0.064
748.62066	0.06411
748.93256	0.06447
749.24439	0.06462
749.55616	0.06452
749.86786	0.06409
750.1795	0.06347
750.49108	0.06315
750.80259	0.06325
751.11404	0.06332
751.42543	0.06354
751.73675	0.06367
752.04801	0.06408
752.3592	0.06458
752.67033	0.06471
752.98139	0.06487
753.2924	0.0646
753.60333	0.06424
753.91421	0.06402
754.22502	0.06379
754.53576	0.06368
754.84644	0.06358
755.15706	0.06346
755.46761	0.06388
755.7781	0.06424
756.08852	0.06498
756.39888	0.06515
756.70918	0.06518
757.01941	0.06513
757.32958	0.06497
757.63968	0.06468
757.94972	0.06437
758.2597	0.06347
758.56961	0.0627
758.87945	0.06209
759.18923	0.06138
759.49895	0.06076
759.8086	0.06019
760.11819	0.0599
760.42771	0.05988
760.73717	0.06005
761.04657	0.06005
761.35589	0.06033
761.66516	0.06051
761.97436	0.06055
762.2835	0.06086
762.59257	0.06096
762.90157	0.0607
763.21051	0.06044
763.51939	0.06037
763.8282	0.06054
764.13695	0.06083
764.44563	0.06083
764.75425	0.06069
765.0628	0.06055
765.37129	0.06053
765.67972	0.06043
765.98807	0.06016
766.29637	0.05982
766.6046	0.05953
766.91276	0.05932
767.22086	0.05956
767.52889	0.05937
767.83686	0.0589
768.14476	0.0584
768.4526	0.05769
768.76037	0.05693
769.06808	0.05655
769.37573	0.05634
769.6833	0.05637
769.99082	0.05639
770.29826	0.05647
770.60565	0.05686
770.91296	0.05742
771.22021	0.05803
771.5274	0.05825
771.83452	0.05835
772.14158	0.05873
772.44857	0.05891
772.75549	0.05911
773.06235	0.05917
773.36915	0.05881
773.67587	0.05868
773.98254	0.05857
774.28914	0.05852
774.59567	0.05864
774.90213	0.05866
775.20853	0.05859
775.51487	0.05868
775.82114	0.05892
776.12734	0.05926
776.43348	0.0592
776.73956	0.05904
777.04556	0.05878
777.35151	0.05836
777.65738	0.05821
777.96319	0.05781
778.26894	0.05723
778.57461	0.0568
778.88023	0.0565
779.18577	0.05652
779.49125	0.05688
779.79667	0.05702
780.10202	0.05704
780.4073	0.05741
780.71252	0.05742
781.01767	0.05747
781.32276	0.05723
781.62778	0.0569
781.93273	0.05648
782.23762	0.05596
782.54244	0.05537
782.84719	0.05517
783.15188	0.05475
783.4565	0.05449
783.76106	0.05394
784.06555	0.05343
784.36998	0.05349
784.67433	0.05369
784.97863	0.05406
785.28285	0.05428
785.58701	0.0543
785.8911	0.05438
786.19513	0.05445
786.49909	0.05438
786.80298	0.05413
787.10681	0.05381
787.41057	0.05391
787.71427	0.05378
788.01789	0.05399
788.32146	0.05436
788.62495	0.05406
788.92838	0.05383
789.23174	0.05356
789.53504	0.05329
789.83827	0.05341
790.14143	0.05345
790.44452	0.05343
790.74755	0.05372
791.05051	0.05382
791.35341	0.05406
791.65624	0.05443
791.959	0.05501
792.2617	0.0553
792.56432	0.05532
792.86689	0.05546
793.16938	0.0557
793.47181	0.05587
793.77417	0.0558
794.07646	0.05534
794.37869	0.05465
794.68085	0.05414
794.98294	0.05371
795.28497	0.05337
795.58693	0.05298
795.88882	0.05289
796.19065	0.05271
796.4924	0.05279
796.7941	0.0527
797.09572	0.05249
797.39728	0.05265
797.69877	0.05248
798.00019	0.05125
798.30154	0.0502
798.60283	0.0496
798.90405	0.04885
799.2052	0.04875
799.50629	0.04796
799.80731	0.04682
800.10826	0.04662
800.40914	0.04677
800.70996	0.04693
801.01071	0.04774
801.31139	0.04756
801.61201	0.04728
801.91255	0.04752
802.21303	0.04759
802.51345	0.04778
802.81379	0.04792
803.11407	0.04789
803.41428	0.04805
803.71442	0.04831
804.01449	0.04841
804.3145	0.0488
804.61444	0.04961
804.91431	0.0498
805.21411	0.04943
805.51385	0.04902
805.81351	0.04864
806.11311	0.049
806.41265	0.04897
806.71211	0.04801
807.01151	0.04738
807.31084	0.04708
807.6101	0.04673
807.90929	0.04698
808.20841	0.04661
808.50747	0.04686
808.80646	0.04692
809.10538	0.04688
809.40423	0.04673
809.70302	0.04682
810.00174	0.04647
810.30039	0.0464
810.59897	0.04606
810.89748	0.04614
811.19592	0.04634
811.4943	0.04639
811.79261	0.04681
812.09085	0.0472
812.38902	0.04749
812.68712	0.04742
812.98516	0.04667
813.28312	0.04551
813.58102	0.04516
813.87885	0.0446
814.17662	0.04409
814.47431	0.04359
814.77193	0.04269
815.06949	0.04264
815.36698	0.04291
815.6644	0.04315
815.96175	0.04335
816.25903	0.04364
816.55625	0.04334
816.85339	0.04355
817.15047	0.04301
817.44748	0.04271
817.74442	0.04259
818.04129	0.04232
818.33809	0.04172
818.63482	0.0413
818.93149	0.04169
819.22809	0.04238
819.52461	0.04312
819.82107	0.04296
820.11746	0.0425
820.41378	0.0423
820.71004	0.04216
821.00622	0.0421
821.30233	0.04175
821.59838	0.04175
821.89436	0.04171
822.19026	0.04232
822.4861	0.04233
822.78187	0.04217
823.07757	0.04153
823.37321	0.04228
823.66877	0.04231
823.96426	0.04304
824.25969	0.04277
824.55504	0.04246
824.85033	0.04331
825.14554	0.0435
825.44069	0.04338
825.73577	0.04363
826.03078	0.04355
826.32572	0.04395
826.62059	0.04513
826.91539	0.0447
827.21013	0.04536
827.50479	0.04498
827.79938	0.0449
828.09391	0.04428
828.38836	0.04418
828.68275	0.04339
828.97706	0.04358
829.27131	0.04321
829.56549	0.0429
829.85959	0.04179
830.15363	0.04135
830.4476	0.03989
830.7415	0.03932
831.03533	0.03898
831.32909	0.03796
831.62278	0.03785
831.9164	0.03804
832.20995	0.03801
832.50343	0.03914
832.79684	0.03911
833.09018	0.0387
833.38345	0.03839
833.67665	0.03849
833.96979	0.03854
834.26285	0.03756
834.55584	0.03665
834.84876	0.03713
835.14162	0.03725
835.4344	0.03835
835.72711	0.03768
836.01975	0.03597
836.31233	0.0357
836.60483	0.03487
836.89726	0.03353
837.18962	0.03366
837.48192	0.03124
837.77414	0.03076
838.06629	0.03108
838.35837	0.03124
838.65038	0.0323
838.94232	0.03282
839.2342	0.03204
839.526	0.03307
839.81773	0.03318
840.10939	0.03263
840.40098	0.03273
840.6925	0.03197
840.98395	0.0319
841.27533	0.03188
841.56664	0.0319
841.85788	0.03179
842.14904	0.03325
842.44014	0.03317
842.73117	0.03263
843.02213	0.03161
843.31301	0.03106
843.60383	0.03154
843.89457	0.0316
844.18525	0.03192
844.47585	0.03234
844.76638	0.03253
845.05685	0.03246
845.34724	0.03281
845.63756	0.03112
845.92781	0.03039
846.21799	0.02935
846.5081	0.0284
846.79814	0.0285
847.0881	0.02786
847.378	0.02799
847.66783	0.02788
847.95758	0.02802
848.24727	0.02768
848.53688	0.02672
848.82642	0.02686
849.11589	0.02931
849.40529	0.02764
849.69462	0.0278
849.98388	0.02704
850.27307	0.02622
850.56218	0.0271
850.85123	0.02686
851.1402	0.0247
851.4291	0.02434
851.71794	0.02191
852.0067	0.02104
852.29539	0.01911
852.584	0.01704
852.87255	0.01503
853.16103	0.01574
853.44943	0.0167
853.73776	0.01701
854.02603	0.01776
854.31422	0.01966
854.60233	0.02083
854.89038	0.02137
855.17836	0.01985
855.46626	0.01859
855.7541	0.01728
856.04186	0.01627
856.32955	0.01557
856.61717	0.01597
856.90471	0.01405
857.19219	0.01139
857.47959	0.01128
857.76693	0.01406
858.05419	0.01425
858.34138	0.01207
858.62849	0.01117
858.91554	0.00993
859.20251	0.0137
859.48942	0.01432
859.77625	0.01511
860.06301	0.01282
860.34969	0.0172
860.63631	0.01717
860.92285	0.02155
861.20932	0.01745
861.49572	0.01604
861.78205	0.01881
862.06831	0.02196
862.35449	0.02006
862.6406	0.02083
862.92664	0.01976
863.21261	0.02116
863.49851	0.0222
863.78433	0.01819
864.07008	0.01311
864.35576	0.01143
864.64137	0.00917
864.9269	0.00944
865.21237	0.01244
865.49776	0.01264
865.78308	0.01272
866.06832	0.01377
866.3535	0.01281
866.6386	0.01249
866.92363	0.00652
867.20859	0.00577
867.49347	0.00352
867.77828	0.00389
868.06302	0.00673
868.34769	0.00573
868.63229	0.00769
868.91681	0.01251
869.20126	0.01056
869.48564	0.00914
869.76994	0.00521
870.05418	0.00525
870.33834	0.00411
870.62242	0.0006
870.90644	-0.00145
871.19038	-0.00119
871.47425	0.00385
871.75805	0.00497
872.04177	0.00001
872.32543	0.00331
872.609	0.00421
872.89251	0.00188
873.17594	-0.00111
873.4593	-0.00372
873.74259	0.00115
874.02581	0.00344
874.30895	-0.00036
874.59202	0.00096
874.87502	0.00427
875.15794	0.0095
875.44079	0.01218
875.72357	0.00428
876.00627	0.00217
876.2889	0.00747
876.57146	0.00517
876.85395	0.00212
877.13636	-0.00095
877.4187	-0.0039
877.70096	-0.00051
877.98316	0.00437
878.26528	0.00212
878.54732	0.00209
878.8293	0.00795
