EXPLAIN
TAG	CHRONOA
TITLE	LABEL	Chronoamperometry Scan	Test Identifier
DATE	LABEL	27/1/2022	Date
TIME	LABEL	14:56:35	Time
NOTES	NOTES	1	Notes...
	
PSTAT	PSTAT	IFC1010-21051	Potentiostat
VPRESTEP	POTEN	1.00000E-002	F	Pre-step Voltage (V)
TPRESTEP	QUANT	5.00000E-001	Pre-step Delay Time (s)
VSTEP1	POTEN	0.00000E+000	F	Step 1 Voltage (V)
TSTEP1	QUANT	3.00000E+002	Step 1 Time (s)
VSTEP2	POTEN	-1.00000E-001	T	Step 2 Voltage (V)
TSTEP2	QUANT	1.00000E+000	Step 2 Time (s)
SAMPLETIME	QUANT	1.00000E-001	Sample Period (s)
DECIMATE	TOGGLE	T	Decimate
ILIMIT	QUANT	1.00000E+000	Limit I (mA/cm^2)
IMODE	SELECTOR	1	I/E Range Mode
IRANGE	QUANT	3.00000E-001	Max Current (mA)
EQDELAY	QUANT	5.00000E+000	Equil. Time (s)
SAMPLINGMODE	SELECTOR	1	Sampling Mode
AREA	QUANT	1.00000E+000	Sample Area (cm^2)
IRCOMP	SELECTOR	0	IRComp
PFCOR	QUANT	5.00000E+001	PF Corr. (ohm)
SEQUENCER	TOGGLE	TRUE	Run as Sequence
PSTATMODEL	IQUANT	64	Pstat Model
PSTATSECTION	LABEL	IFC1010-21051	Pstat Section
PSTATSERIALNO	LABEL	21051	Pstat Serial Number
CTRLMODE	IQUANT	1	Control Mode
ELECTROMETER	IQUANT	0	RE=0 or CS=1
IESTAB	IQUANT	0	I/E Stability
CASPEED	IQUANT	4	Control Amp Speed
CONVENTION	IQUANT	1	Current Convention
ICHRANGE	IQUANT	2	Ich Range
ICHRANGEMODE	TOGGLE	T	Ich Auto Range
ICHOFFSETENABLE	TOGGLE	F	Ich Offset Enable
ICHOFFSET	QUANT	0	Ich Offset (V)
ICHFILTER	IQUANT	3	Ich Filter
VCHRANGE	IQUANT	3	Vch Range
VCHRANGEMODE	TOGGLE	T	Vch Auto Range
VCHOFFSETENABLE	TOGGLE	F	Vch Offset Enable
VCHOFFSET	QUANT	0	Vch Offset (V)
VCHFILTER	IQUANT	3	Vch Filter
IERANGELOWERLIMIT	IQUANT	4	I/E Range Lower Limit
IERANGEMODE	TOGGLE	F	I/E AutoRange
IERANGE	IQUANT	9	I/E Range
ACHSELECT	IQUANT	0	Ach Select
ACHRANGE	IQUANT	2	Ach Range
ACHOFFSETENABLE	TOGGLE	F	Ach Offset Enable
ACHOFFSET	QUANT	0	Ach Offset (V)
ACHFILTER	IQUANT	1	Ach Filter
SENSECABLEID	IQUANT	14	Sense Cable ID
PWRCABLEID	IQUANT	14	Power Cable ID
DCCALDATE	LABEL	1/24/2022	DC Calibration Date
ACCALDATE	LABEL	4/2/2018	AC Calibration Date
FRAMEWORKVERSION	QUANT	7.06	Framework Version
INSTRUMENTVERSION	LABEL	4.30	Instrument Version
CURVE	TABLE	98
	Pt	T	Vf	Im	Vu	Sig	Ach	IERange	Over	Temp
	#	s	V vs. Ref.	A	V	V	V	#	bits	deg C
	0	-0.4	9.18667E-003	-3.26442E-005	0.00000E+000	1.00559E-002	0.00000E+000	9	...........	1425.95
	1	-0.3	9.88421E-003	-3.22618E-005	0.00000E+000	1.00559E-002	0.00000E+000	9	...........	1425.95
	2	-0.2	1.00356E-002	-3.19082E-005	0.00000E+000	1.00559E-002	0.00000E+000	9	...........	1425.95
	3	-0.1	1.00525E-002	-3.15490E-005	0.00000E+000	1.00559E-002	0.00000E+000	9	...........	1425.95
	4	0	1.00530E-002	-3.12083E-005	0.00000E+000	1.00559E-002	0.00000E+000	9	...........	1425.95
	5	0.1	4.57783E-005	-7.53190E-005	0.00000E+000	5.34840E-005	0.00000E+000	9	...........	1425.95
	6	0.2	4.60977E-005	-6.61064E-005	0.00000E+000	5.34840E-005	0.00000E+000	9	...........	1425.95
	7	0.3	4.59895E-005	-5.94628E-005	0.00000E+000	5.34840E-005	0.00000E+000	9	...........	1425.95
	8	0.4	4.59514E-005	-5.44935E-005	0.00000E+000	5.34840E-005	0.00000E+000	9	...........	1425.95
	9	0.5	4.49913E-005	-5.06342E-005	0.00000E+000	5.34840E-005	0.00000E+000	9	...........	1425.95
	10	0.6	4.57742E-005	-4.75848E-005	0.00000E+000	5.34840E-005	0.00000E+000	9	...........	1425.95
	11	0.7	4.42173E-005	-4.51329E-005	0.00000E+000	5.34840E-005	0.00000E+000	9	...........	1425.87
	12	0.8	4.48301E-005	-4.31147E-005	0.00000E+000	5.34840E-005	0.00000E+000	9	...........	1425.87
	13	0.9	4.49502E-005	-4.14239E-005	0.00000E+000	5.34840E-005	0.00000E+000	9	...........	1425.87
	14	1	4.46108E-005	-3.99903E-005	0.00000E+000	5.34840E-005	0.00000E+000	9	...........	1425.87
	15	1.1	4.55510E-005	-3.87595E-005	0.00000E+000	5.34840E-005	0.00000E+000	9	...........	1425.87
	16	1.2	4.47530E-005	-3.76827E-005	0.00000E+000	5.34840E-005	0.00000E+000	9	...........	1425.87
	17	1.3	4.41152E-005	-3.67419E-005	0.00000E+000	5.34840E-005	0.00000E+000	9	...........	1425.87
	18	1.4	4.50874E-005	-3.59021E-005	0.00000E+000	5.34840E-005	0.00000E+000	9	...........	1425.87
	19	1.5	4.42303E-005	-3.51513E-005	0.00000E+000	5.34840E-005	0.00000E+000	9	...........	1425.87
	20	1.6	4.36737E-005	-3.44634E-005	0.00000E+000	5.34840E-005	0.00000E+000	9	...........	1425.87
	21	1.7	4.34053E-005	-3.38306E-005	0.00000E+000	5.34840E-005	0.00000E+000	9	...........	1426.22
	22	1.8	4.26894E-005	-3.32598E-005	0.00000E+000	5.34840E-005	0.00000E+000	9	...........	1426.22
	23	1.9	4.27946E-005	-3.27296E-005	0.00000E+000	5.34840E-005	0.00000E+000	9	...........	1426.22
	24	2	4.31680E-005	-3.22304E-005	0.00000E+000	5.34840E-005	0.00000E+000	9	...........	1426.22
	25	2.1	4.19195E-005	-3.17741E-005	0.00000E+000	5.34840E-005	0.00000E+000	9	...........	1426.22
	26	2.2	4.22850E-005	-3.13373E-005	0.00000E+000	5.34840E-005	0.00000E+000	9	...........	1426.22
	27	2.3	4.32892E-005	-3.09288E-005	0.00000E+000	5.34840E-005	0.00000E+000	9	...........	1426.22
	28	2.4	4.21097E-005	-3.05476E-005	0.00000E+000	5.34840E-005	0.00000E+000	9	...........	1426.22
	29	2.5	4.43104E-005	-3.01770E-005	0.00000E+000	5.34840E-005	0.00000E+000	9	...........	1426.22
	30	2.6	4.35695E-005	-2.98370E-005	0.00000E+000	5.34840E-005	0.00000E+000	9	...........	1426.22
	31	2.7	4.39039E-005	-2.95149E-005	0.00000E+000	5.34840E-005	0.00000E+000	9	...........	1426.22
	32	2.8	4.43044E-005	-2.92088E-005	0.00000E+000	5.34840E-005	0.00000E+000	9	...........	1426.22
	33	2.9	4.27625E-005	-2.89187E-005	0.00000E+000	5.34840E-005	0.00000E+000	9	...........	1426.22
	34	3	4.36366E-005	-2.86301E-005	0.00000E+000	5.34840E-005	0.00000E+000	9	...........	1426.22
	35	3.1	4.33062E-005	-2.83531E-005	0.00000E+000	5.34840E-005	0.00000E+000	9	...........	1426.22
	36	3.2	4.39099E-005	-2.80874E-005	0.00000E+000	5.34840E-005	0.00000E+000	9	...........	1426.22
	37	3.3	4.39120E-005	-2.78315E-005	0.00000E+000	5.34840E-005	0.00000E+000	9	...........	1426.22
	38	3.4	4.48040E-005	-2.75763E-005	0.00000E+000	5.34840E-005	0.00000E+000	9	...........	1426.22
	39	3.5	4.34073E-005	-2.73341E-005	0.00000E+000	5.34840E-005	0.00000E+000	9	...........	1426.22
	40	3.6	4.36406E-005	-2.70981E-005	0.00000E+000	5.34840E-005	0.00000E+000	9	...........	1426.22
	41	3.7	4.34984E-005	-2.68717E-005	0.00000E+000	5.34840E-005	0.00000E+000	9	...........	1426.22
	42	3.8	4.33933E-005	-2.66446E-005	0.00000E+000	5.34840E-005	0.00000E+000	9	...........	1426.22
	43	3.9	4.27866E-005	-2.64431E-005	0.00000E+000	5.34840E-005	0.00000E+000	9	...........	1426.22
	44	4	4.35155E-005	-2.62331E-005	0.00000E+000	5.34840E-005	0.00000E+000	9	...........	1426.22
	45	4.1	4.34564E-005	-2.60453E-005	0.00000E+000	5.34840E-005	0.00000E+000	9	...........	1426.22
	46	4.2	4.20977E-005	-2.58639E-005	0.00000E+000	5.34840E-005	0.00000E+000	9	...........	1426.22
	47	4.3	4.34924E-005	-2.56895E-005	0.00000E+000	5.34840E-005	0.00000E+000	9	...........	1426.22
	48	4.4	4.43305E-005	-2.55199E-005	0.00000E+000	5.34840E-005	0.00000E+000	9	...........	1426.22
	49	4.5	4.44646E-005	-2.53507E-005	0.00000E+000	5.34840E-005	0.00000E+000	9	...........	1426.22
	50	4.6	4.48872E-005	-2.51921E-005	0.00000E+000	5.34840E-005	0.00000E+000	9	...........	1426.22
	51	4.7	4.41973E-005	-2.50379E-005	0.00000E+000	5.34840E-005	0.00000E+000	9	...........	1426.22
	52	4.8	4.37888E-005	-2.48834E-005	0.00000E+000	5.34840E-005	0.00000E+000	9	...........	1426.22
	53	4.9	4.35936E-005	-2.47295E-005	0.00000E+000	5.34840E-005	0.00000E+000	9	...........	1426.22
	54	5	4.32121E-005	-2.45872E-005	0.00000E+000	5.34840E-005	0.00000E+000	9	...........	1426.22
	55	5.1	4.37367E-005	-2.44490E-005	0.00000E+000	5.34840E-005	0.00000E+000	9	...........	1426.22
	56	5.2	4.45187E-005	-2.43057E-005	0.00000E+000	5.34840E-005	0.00000E+000	9	...........	1426.22
	57	5.3	4.38369E-005	-2.41748E-005	0.00000E+000	5.34840E-005	0.00000E+000	9	...........	1426.22
	58	5.4	4.41703E-005	-2.40462E-005	0.00000E+000	5.34840E-005	0.00000E+000	9	...........	1426.22
	59	5.5	4.36556E-005	-2.39136E-005	0.00000E+000	5.34840E-005	0.00000E+000	9	...........	1426.22
	60	5.6	4.31190E-005	-2.37893E-005	0.00000E+000	5.34840E-005	0.00000E+000	9	...........	1426.22
	61	5.7	4.49662E-005	-2.36627E-005	0.00000E+000	5.34840E-005	0.00000E+000	9	...........	1426.13
	62	5.8	4.50133E-005	-2.35359E-005	0.00000E+000	5.34840E-005	0.00000E+000	9	...........	1426.13
	63	5.9	4.49432E-005	-2.34195E-005	0.00000E+000	5.34840E-005	0.00000E+000	9	...........	1426.13
	64	6	4.44727E-005	-2.33152E-005	0.00000E+000	5.34840E-005	0.00000E+000	9	...........	1426.13
	65	6.1	4.36907E-005	-2.32093E-005	0.00000E+000	5.34840E-005	0.00000E+000	9	...........	1426.13
	66	7.1	4.51565E-005	-2.22674E-005	0.00000E+000	5.34840E-005	0.00000E+000	9	...........	1426.22
	67	8.1	4.33873E-005	-2.13903E-005	0.00000E+000	5.34840E-005	0.00000E+000	9	...........	1426.22
	68	9.1	4.36416E-005	-2.06581E-005	0.00000E+000	5.34840E-005	0.00000E+000	9	...........	1426.22
	69	10.1	4.26644E-005	-2.00957E-005	0.00000E+000	5.34840E-005	0.00000E+000	9	...........	1426.22
	70	11.1	4.30629E-005	-1.96564E-005	0.00000E+000	5.34840E-005	0.00000E+000	9	...........	1426.22
	71	12.1	4.23330E-005	-1.92704E-005	0.00000E+000	5.34840E-005	0.00000E+000	9	...........	1426.22
	72	13.1	4.53427E-005	-1.89080E-005	0.00000E+000	5.34840E-005	0.00000E+000	9	...........	1426.22
	73	14.1	4.40591E-005	-1.85372E-005	0.00000E+000	5.34840E-005	0.00000E+000	9	...........	1426.22
	74	15.1	4.34574E-005	-1.81736E-005	0.00000E+000	5.34840E-005	0.00000E+000	9	...........	1426.22
	75	16.1	4.28106E-005	-1.78258E-005	0.00000E+000	5.34840E-005	0.00000E+000	9	...........	1426.22
	76	26.1	4.30188E-005	-1.57205E-005	0.00000E+000	5.34840E-005	0.00000E+000	9	...........	1426.22
	77	36.1	4.44817E-005	-1.51684E-005	0.00000E+000	5.34840E-005	0.00000E+000	9	...........	1426.22
	78	46.1	4.30088E-005	-1.44839E-005	0.00000E+000	5.34840E-005	0.00000E+000	9	...........	1426.22
	79	56.1	4.28346E-005	-1.41209E-005	0.00000E+000	5.34840E-005	0.00000E+000	9	...........	1426.22
	80	66.1	4.36817E-005	-1.40575E-005	0.00000E+000	5.34840E-005	0.00000E+000	9	...........	1426.22
	81	76.1	4.47500E-005	-1.39430E-005	0.00000E+000	5.34840E-005	0.00000E+000	9	...........	1426.22
	82	86.1	4.16131E-005	-1.37967E-005	0.00000E+000	5.34840E-005	0.00000E+000	9	...........	1426.22
	83	96.1	4.40962E-005	-1.38403E-005	0.00000E+000	5.34840E-005	0.00000E+000	9	...........	1426.22
	84	106.1	4.39720E-005	-1.39329E-005	0.00000E+000	5.34840E-005	0.00000E+000	9	...........	1426.22
	85	116.1	4.31410E-005	-1.38383E-005	0.00000E+000	5.34840E-005	0.00000E+000	9	...........	1426.22
	86	216.1	4.27665E-005	-1.34742E-005	0.00000E+000	5.34840E-005	0.00000E+000	9	...........	1426.22
	87	300	4.49402E-005	-1.29900E-005	0.00000E+000	5.34840E-005	0.00000E+000	9	...........	1426.22
	88	300.1	-3.29270E-002	-4.36657E-004	0.00000E+000	-9.99460E-002	0.00000E+000	9	.........v.	1426.22
	89	300.2	-9.99806E-002	-3.40873E-004	0.00000E+000	-9.99460E-002	0.00000E+000	9	...........	1426.22
	90	300.3	-9.99787E-002	-2.77013E-004	0.00000E+000	-9.99460E-002	0.00000E+000	9	...........	1426.22
	91	300.4	-9.99794E-002	-2.31943E-004	0.00000E+000	-9.99460E-002	0.00000E+000	9	...........	1426.22
	92	300.5	-9.99808E-002	-1.98766E-004	0.00000E+000	-9.99460E-002	0.00000E+000	9	...........	1426.22
	93	300.6	-9.99798E-002	-1.73545E-004	0.00000E+000	-9.99460E-002	0.00000E+000	9	...........	1426.22
	94	300.7	-9.99810E-002	-1.53843E-004	0.00000E+000	-9.99460E-002	0.00000E+000	9	...........	1426.22
	95	300.8	-9.99792E-002	-1.38127E-004	0.00000E+000	-9.99460E-002	0.00000E+000	9	...........	1426.22
	96	300.9	-9.99806E-002	-1.25378E-004	0.00000E+000	-9.99460E-002	0.00000E+000	9	...........	1426.22
	97	301	-9.99810E-002	-1.14855E-004	0.00000E+000	-9.99460E-002	0.00000E+000	9	...........	1426.22
