EXPLAIN
TAG	CHRONOA
TITLE	LABEL	Chronoamperometry Scan	Test Identifier
DATE	LABEL	27/1/2022	Date
TIME	LABEL	13:05:05	Time
NOTES	NOTES	1	Notes...
	
PSTAT	PSTAT	IFC1010-21051	Potentiostat
VPRESTEP	POTEN	3.00000E-001	F	Pre-step Voltage (V)
TPRESTEP	QUANT	5.00000E-001	Pre-step Delay Time (s)
VSTEP1	POTEN	4.00000E-001	F	Step 1 Voltage (V)
TSTEP1	QUANT	3.00000E+002	Step 1 Time (s)
VSTEP2	POTEN	3.00000E-001	F	Step 2 Voltage (V)
TSTEP2	QUANT	1.00000E+000	Step 2 Time (s)
SAMPLETIME	QUANT	1.00000E-001	Sample Period (s)
DECIMATE	TOGGLE	T	Decimate
ILIMIT	QUANT	1.00000E+000	Limit I (mA/cm^2)
IMODE	SELECTOR	1	I/E Range Mode
IRANGE	QUANT	3.00000E-001	Max Current (mA)
EQDELAY	QUANT	5.00000E+000	Equil. Time (s)
SAMPLINGMODE	SELECTOR	1	Sampling Mode
AREA	QUANT	1.00000E+000	Sample Area (cm^2)
IRCOMP	SELECTOR	0	IRComp
PFCOR	QUANT	5.00000E+001	PF Corr. (ohm)
SEQUENCER	TOGGLE	TRUE	Run as Sequence
PSTATMODEL	IQUANT	64	Pstat Model
PSTATSECTION	LABEL	IFC1010-21051	Pstat Section
PSTATSERIALNO	LABEL	21051	Pstat Serial Number
CTRLMODE	IQUANT	1	Control Mode
ELECTROMETER	IQUANT	0	RE=0 or CS=1
IESTAB	IQUANT	0	I/E Stability
CASPEED	IQUANT	4	Control Amp Speed
CONVENTION	IQUANT	1	Current Convention
ICHRANGE	IQUANT	2	Ich Range
ICHRANGEMODE	TOGGLE	T	Ich Auto Range
ICHOFFSETENABLE	TOGGLE	F	Ich Offset Enable
ICHOFFSET	QUANT	0	Ich Offset (V)
ICHFILTER	IQUANT	3	Ich Filter
VCHRANGE	IQUANT	3	Vch Range
VCHRANGEMODE	TOGGLE	T	Vch Auto Range
VCHOFFSETENABLE	TOGGLE	F	Vch Offset Enable
VCHOFFSET	QUANT	0	Vch Offset (V)
VCHFILTER	IQUANT	3	Vch Filter
IERANGELOWERLIMIT	IQUANT	4	I/E Range Lower Limit
IERANGEMODE	TOGGLE	F	I/E AutoRange
IERANGE	IQUANT	9	I/E Range
ACHSELECT	IQUANT	0	Ach Select
ACHRANGE	IQUANT	2	Ach Range
ACHOFFSETENABLE	TOGGLE	F	Ach Offset Enable
ACHOFFSET	QUANT	0	Ach Offset (V)
ACHFILTER	IQUANT	1	Ach Filter
SENSECABLEID	IQUANT	14	Sense Cable ID
PWRCABLEID	IQUANT	14	Power Cable ID
DCCALDATE	LABEL	1/24/2022	DC Calibration Date
ACCALDATE	LABEL	4/2/2018	AC Calibration Date
FRAMEWORKVERSION	QUANT	7.06	Framework Version
INSTRUMENTVERSION	LABEL	4.30	Instrument Version
CURVE	TABLE	98
	Pt	T	Vf	Im	Vu	Sig	Ach	IERange	Over	Temp
	#	s	V vs. Ref.	A	V	V	V	#	bits	deg C
	0	-0.4	2.99617E-001	1.11422E-005	0.00000E+000	3.00072E-001	0.00000E+000	9	...........	1425.78
	1	-0.3	3.00310E-001	1.10211E-005	0.00000E+000	3.00072E-001	0.00000E+000	9	...........	1425.78
	2	-0.2	3.00310E-001	1.08897E-005	0.00000E+000	3.00072E-001	0.00000E+000	9	...........	1425.78
	3	-0.1	3.00332E-001	1.07153E-005	0.00000E+000	3.00072E-001	0.00000E+000	9	...........	1425.78
	4	0	3.00313E-001	1.06248E-005	0.00000E+000	3.00072E-001	0.00000E+000	9	...........	1425.78
	5	0.1	4.00359E-001	5.64675E-004	0.00000E+000	4.00072E-001	0.00000E+000	9	...........	1425.78
	6	0.2	4.00349E-001	4.82936E-004	0.00000E+000	4.00072E-001	0.00000E+000	9	...........	1425.78
	7	0.3	4.00349E-001	4.26049E-004	0.00000E+000	4.00072E-001	0.00000E+000	9	...........	1425.78
	8	0.4	4.00350E-001	3.83326E-004	0.00000E+000	4.00072E-001	0.00000E+000	9	...........	1425.78
	9	0.5	4.00351E-001	3.49734E-004	0.00000E+000	4.00072E-001	0.00000E+000	9	...........	1425.78
	10	0.6	4.00355E-001	3.22569E-004	0.00000E+000	4.00072E-001	0.00000E+000	9	...........	1425.78
	11	0.7	4.00357E-001	3.00040E-004	0.00000E+000	4.00072E-001	0.00000E+000	9	...........	1425.78
	12	0.8	4.00362E-001	2.81025E-004	0.00000E+000	4.00072E-001	0.00000E+000	9	...........	1425.78
	13	0.9	4.00355E-001	2.64788E-004	0.00000E+000	4.00072E-001	0.00000E+000	9	...........	1425.78
	14	1	4.00350E-001	2.50726E-004	0.00000E+000	4.00072E-001	0.00000E+000	9	...........	1425.78
	15	1.1	4.00357E-001	2.38342E-004	0.00000E+000	4.00072E-001	0.00000E+000	9	...........	1425.78
	16	1.2	4.00353E-001	2.27384E-004	0.00000E+000	4.00072E-001	0.00000E+000	9	...........	1425.78
	17	1.3	4.00345E-001	2.17606E-004	0.00000E+000	4.00072E-001	0.00000E+000	9	...........	1425.78
	18	1.4	4.00356E-001	2.08769E-004	0.00000E+000	4.00072E-001	0.00000E+000	9	...........	1425.78
	19	1.5	4.00355E-001	2.00842E-004	0.00000E+000	4.00072E-001	0.00000E+000	9	...........	1425.78
	20	1.6	4.00362E-001	1.93568E-004	0.00000E+000	4.00072E-001	0.00000E+000	9	...........	1425.78
	21	1.7	4.00354E-001	1.86995E-004	0.00000E+000	4.00072E-001	0.00000E+000	9	...........	1425.78
	22	1.8	4.00355E-001	1.80928E-004	0.00000E+000	4.00072E-001	0.00000E+000	9	...........	1425.78
	23	1.9	4.00365E-001	1.75256E-004	0.00000E+000	4.00072E-001	0.00000E+000	9	...........	1425.78
	24	2	4.00365E-001	1.70068E-004	0.00000E+000	4.00072E-001	0.00000E+000	9	...........	1425.78
	25	2.1	4.00367E-001	1.65184E-004	0.00000E+000	4.00072E-001	0.00000E+000	9	...........	1425.78
	26	2.2	4.00364E-001	1.60682E-004	0.00000E+000	4.00072E-001	0.00000E+000	9	...........	1425.78
	27	2.3	4.00360E-001	1.56379E-004	0.00000E+000	4.00072E-001	0.00000E+000	9	...........	1425.78
	28	2.4	4.00362E-001	1.52378E-004	0.00000E+000	4.00072E-001	0.00000E+000	9	...........	1425.78
	29	2.5	4.00362E-001	1.48540E-004	0.00000E+000	4.00072E-001	0.00000E+000	9	...........	1425.78
	30	2.6	4.00365E-001	1.45026E-004	0.00000E+000	4.00072E-001	0.00000E+000	9	...........	1425.78
	31	2.7	4.00367E-001	1.41657E-004	0.00000E+000	4.00072E-001	0.00000E+000	9	...........	1425.78
	32	2.8	4.00367E-001	1.38394E-004	0.00000E+000	4.00072E-001	0.00000E+000	9	...........	1425.69
	33	2.9	4.00365E-001	1.35309E-004	0.00000E+000	4.00072E-001	0.00000E+000	9	...........	1425.69
	34	3	4.00394E-001	1.32336E-004	0.00000E+000	4.00072E-001	0.00000E+000	9	...........	1425.69
	35	3.1	4.00358E-001	1.29561E-004	0.00000E+000	4.00072E-001	0.00000E+000	9	...........	1425.69
	36	3.2	4.00354E-001	1.26935E-004	0.00000E+000	4.00072E-001	0.00000E+000	9	...........	1425.69
	37	3.3	4.00360E-001	1.24313E-004	0.00000E+000	4.00072E-001	0.00000E+000	9	...........	1425.69
	38	3.4	4.00362E-001	1.21849E-004	0.00000E+000	4.00072E-001	0.00000E+000	9	...........	1425.69
	39	3.5	4.00358E-001	1.19493E-004	0.00000E+000	4.00072E-001	0.00000E+000	9	...........	1425.69
	40	3.6	4.00354E-001	1.17184E-004	0.00000E+000	4.00072E-001	0.00000E+000	9	...........	1425.69
	41	3.7	4.00364E-001	1.15030E-004	0.00000E+000	4.00072E-001	0.00000E+000	9	...........	1425.69
	42	3.8	4.00362E-001	1.12847E-004	0.00000E+000	4.00072E-001	0.00000E+000	9	...........	1425.78
	43	3.9	4.00363E-001	1.10854E-004	0.00000E+000	4.00072E-001	0.00000E+000	9	...........	1425.78
	44	4	4.00380E-001	1.08856E-004	0.00000E+000	4.00072E-001	0.00000E+000	9	...........	1425.78
	45	4.1	4.00349E-001	1.06981E-004	0.00000E+000	4.00072E-001	0.00000E+000	9	...........	1425.78
	46	4.2	4.00354E-001	1.05141E-004	0.00000E+000	4.00072E-001	0.00000E+000	9	...........	1425.78
	47	4.3	4.00364E-001	1.03401E-004	0.00000E+000	4.00072E-001	0.00000E+000	9	...........	1425.78
	48	4.4	4.00358E-001	1.01672E-004	0.00000E+000	4.00072E-001	0.00000E+000	9	...........	1425.78
	49	4.5	4.00357E-001	1.00030E-004	0.00000E+000	4.00072E-001	0.00000E+000	9	...........	1425.78
	50	4.6	4.00357E-001	9.84122E-005	0.00000E+000	4.00072E-001	0.00000E+000	9	...........	1425.78
	51	4.7	4.00363E-001	9.68257E-005	0.00000E+000	4.00072E-001	0.00000E+000	9	...........	1425.78
	52	4.8	4.00351E-001	9.53416E-005	0.00000E+000	4.00072E-001	0.00000E+000	9	...........	1425.69
	53	4.9	4.00345E-001	9.38182E-005	0.00000E+000	4.00072E-001	0.00000E+000	9	...........	1425.69
	54	5	4.00359E-001	9.24479E-005	0.00000E+000	4.00072E-001	0.00000E+000	9	...........	1425.69
	55	5.1	4.00352E-001	9.10840E-005	0.00000E+000	4.00072E-001	0.00000E+000	9	...........	1425.69
	56	5.2	4.00357E-001	8.97372E-005	0.00000E+000	4.00072E-001	0.00000E+000	9	...........	1425.69
	57	5.3	4.00356E-001	8.84378E-005	0.00000E+000	4.00072E-001	0.00000E+000	9	...........	1425.69
	58	5.4	4.00361E-001	8.71938E-005	0.00000E+000	4.00072E-001	0.00000E+000	9	...........	1425.69
	59	5.5	4.00370E-001	8.59430E-005	0.00000E+000	4.00072E-001	0.00000E+000	9	...........	1425.69
	60	5.6	4.00351E-001	8.47450E-005	0.00000E+000	4.00072E-001	0.00000E+000	9	...........	1425.69
	61	5.7	4.00361E-001	8.35791E-005	0.00000E+000	4.00072E-001	0.00000E+000	9	...........	1425.69
	62	5.8	4.00355E-001	8.25125E-005	0.00000E+000	4.00072E-001	0.00000E+000	9	...........	1425.25
	63	5.9	4.00344E-001	8.13849E-005	0.00000E+000	4.00072E-001	0.00000E+000	9	...........	1425.25
	64	6	4.00357E-001	8.03488E-005	0.00000E+000	4.00072E-001	0.00000E+000	9	...........	1425.25
	65	6.1	4.00368E-001	7.93285E-005	0.00000E+000	4.00072E-001	0.00000E+000	9	...........	1425.25
	66	7.1	4.00358E-001	7.02647E-005	0.00000E+000	4.00072E-001	0.00000E+000	9	...........	1425.34
	67	8.1	4.00362E-001	6.32400E-005	0.00000E+000	4.00072E-001	0.00000E+000	9	...........	1425.78
	68	9.1	4.00366E-001	5.75571E-005	0.00000E+000	4.00072E-001	0.00000E+000	9	...........	1425.78
	69	10.1	4.00342E-001	5.29525E-005	0.00000E+000	4.00072E-001	0.00000E+000	9	...........	1425.78
	70	11.1	4.00353E-001	4.91127E-005	0.00000E+000	4.00072E-001	0.00000E+000	9	...........	1425.78
	71	12.1	4.00350E-001	4.57876E-005	0.00000E+000	4.00072E-001	0.00000E+000	9	...........	1425.78
	72	13.1	4.00357E-001	4.30578E-005	0.00000E+000	4.00072E-001	0.00000E+000	9	...........	1425.78
	73	14.1	4.00364E-001	4.06628E-005	0.00000E+000	4.00072E-001	0.00000E+000	9	...........	1425.78
	74	15.1	4.00369E-001	3.84575E-005	0.00000E+000	4.00072E-001	0.00000E+000	9	...........	1425.78
	75	16.1	4.00365E-001	3.65859E-005	0.00000E+000	4.00072E-001	0.00000E+000	9	...........	1425.78
	76	26.1	4.00363E-001	2.63103E-005	0.00000E+000	4.00072E-001	0.00000E+000	9	...........	1425.78
	77	36.1	4.00363E-001	2.20272E-005	0.00000E+000	4.00072E-001	0.00000E+000	9	...........	1425.78
	78	46.1	4.00353E-001	1.95577E-005	0.00000E+000	4.00072E-001	0.00000E+000	9	...........	1425.78
	79	56.1	4.00357E-001	1.83823E-005	0.00000E+000	4.00072E-001	0.00000E+000	9	...........	1425.78
	80	66.1	4.00372E-001	1.71226E-005	0.00000E+000	4.00072E-001	0.00000E+000	9	...........	1425.87
	81	76.1	4.00370E-001	1.67438E-005	0.00000E+000	4.00072E-001	0.00000E+000	9	...........	1425.78
	82	86.1	4.00363E-001	1.60861E-005	0.00000E+000	4.00072E-001	0.00000E+000	9	...........	1425.78
	83	96.1	4.00353E-001	1.58129E-005	0.00000E+000	4.00072E-001	0.00000E+000	9	...........	1425.78
	84	106.1	4.00367E-001	1.56965E-005	0.00000E+000	4.00072E-001	0.00000E+000	9	...........	1425.78
	85	116.1	4.00361E-001	1.55917E-005	0.00000E+000	4.00072E-001	0.00000E+000	9	...........	1425.78
	86	216.1	4.00353E-001	1.47223E-005	0.00000E+000	4.00072E-001	0.00000E+000	9	...........	1425.87
	87	300	4.00363E-001	1.45710E-005	0.00000E+000	4.00072E-001	0.00000E+000	9	...........	1425.87
	88	300.1	3.00326E-001	-4.69994E-004	0.00000E+000	3.00072E-001	0.00000E+000	9	...........	1425.87
	89	300.2	3.00316E-001	-4.10578E-004	0.00000E+000	3.00072E-001	0.00000E+000	9	...........	1425.87
	90	300.3	3.00315E-001	-3.61903E-004	0.00000E+000	3.00072E-001	0.00000E+000	9	...........	1425.87
	91	300.4	3.00310E-001	-3.20651E-004	0.00000E+000	3.00072E-001	0.00000E+000	9	...........	1425.87
	92	300.5	3.00315E-001	-2.85350E-004	0.00000E+000	3.00072E-001	0.00000E+000	9	...........	1425.87
	93	300.6	3.00314E-001	-2.55075E-004	0.00000E+000	3.00072E-001	0.00000E+000	9	...........	1425.87
	94	300.7	3.00306E-001	-2.29059E-004	0.00000E+000	3.00072E-001	0.00000E+000	9	...........	1425.87
	95	300.8	3.00303E-001	-2.06700E-004	0.00000E+000	3.00072E-001	0.00000E+000	9	...........	1425.87
	96	300.9	3.00310E-001	-1.87521E-004	0.00000E+000	3.00072E-001	0.00000E+000	9	...........	1425.87
	97	301	3.00313E-001	-1.71098E-004	0.00000E+000	3.00072E-001	0.00000E+000	9	...........	1425.87
