EXPLAIN
TAG	CHRONOA
TITLE	LABEL	Chronoamperometry Scan	Test Identifier
DATE	LABEL	27/1/2022	Date
TIME	LABEL	12:22:05	Time
NOTES	NOTES	1	Notes...
	
PSTAT	PSTAT	IFC1010-21051	Potentiostat
VPRESTEP	POTEN	3.00000E-001	F	Pre-step Voltage (V)
TPRESTEP	QUANT	5.00000E-001	Pre-step Delay Time (s)
VSTEP1	POTEN	4.00000E-001	F	Step 1 Voltage (V)
TSTEP1	QUANT	3.00000E+002	Step 1 Time (s)
VSTEP2	POTEN	3.00000E-001	F	Step 2 Voltage (V)
TSTEP2	QUANT	1.00000E+000	Step 2 Time (s)
SAMPLETIME	QUANT	1.00000E-001	Sample Period (s)
DECIMATE	TOGGLE	T	Decimate
ILIMIT	QUANT	1.00000E+000	Limit I (mA/cm^2)
IMODE	SELECTOR	1	I/E Range Mode
IRANGE	QUANT	3.00000E-001	Max Current (mA)
EQDELAY	QUANT	5.00000E+000	Equil. Time (s)
SAMPLINGMODE	SELECTOR	1	Sampling Mode
AREA	QUANT	1.00000E+000	Sample Area (cm^2)
IRCOMP	SELECTOR	0	IRComp
PFCOR	QUANT	5.00000E+001	PF Corr. (ohm)
SEQUENCER	TOGGLE	TRUE	Run as Sequence
PSTATMODEL	IQUANT	64	Pstat Model
PSTATSECTION	LABEL	IFC1010-21051	Pstat Section
PSTATSERIALNO	LABEL	21051	Pstat Serial Number
CTRLMODE	IQUANT	1	Control Mode
ELECTROMETER	IQUANT	0	RE=0 or CS=1
IESTAB	IQUANT	0	I/E Stability
CASPEED	IQUANT	4	Control Amp Speed
CONVENTION	IQUANT	1	Current Convention
ICHRANGE	IQUANT	2	Ich Range
ICHRANGEMODE	TOGGLE	T	Ich Auto Range
ICHOFFSETENABLE	TOGGLE	F	Ich Offset Enable
ICHOFFSET	QUANT	0	Ich Offset (V)
ICHFILTER	IQUANT	3	Ich Filter
VCHRANGE	IQUANT	3	Vch Range
VCHRANGEMODE	TOGGLE	T	Vch Auto Range
VCHOFFSETENABLE	TOGGLE	F	Vch Offset Enable
VCHOFFSET	QUANT	0	Vch Offset (V)
VCHFILTER	IQUANT	3	Vch Filter
IERANGELOWERLIMIT	IQUANT	4	I/E Range Lower Limit
IERANGEMODE	TOGGLE	F	I/E AutoRange
IERANGE	IQUANT	9	I/E Range
ACHSELECT	IQUANT	0	Ach Select
ACHRANGE	IQUANT	2	Ach Range
ACHOFFSETENABLE	TOGGLE	F	Ach Offset Enable
ACHOFFSET	QUANT	0	Ach Offset (V)
ACHFILTER	IQUANT	1	Ach Filter
SENSECABLEID	IQUANT	14	Sense Cable ID
PWRCABLEID	IQUANT	14	Power Cable ID
DCCALDATE	LABEL	1/24/2022	DC Calibration Date
ACCALDATE	LABEL	4/2/2018	AC Calibration Date
FRAMEWORKVERSION	QUANT	7.06	Framework Version
INSTRUMENTVERSION	LABEL	4.30	Instrument Version
CURVE	TABLE	98
	Pt	T	Vf	Im	Vu	Sig	Ach	IERange	Over	Temp
	#	s	V vs. Ref.	A	V	V	V	#	bits	deg C
	0	-0.4	2.99603E-001	9.67707E-006	0.00000E+000	3.00072E-001	0.00000E+000	9	...........	1425.69
	1	-0.3	3.00317E-001	9.53746E-006	0.00000E+000	3.00072E-001	0.00000E+000	9	...........	1425.69
	2	-0.2	3.00322E-001	9.42758E-006	0.00000E+000	3.00072E-001	0.00000E+000	9	...........	1425.69
	3	-0.1	3.00316E-001	9.34225E-006	0.00000E+000	3.00072E-001	0.00000E+000	9	...........	1425.69
	4	0	3.00320E-001	9.18536E-006	0.00000E+000	3.00072E-001	0.00000E+000	9	...........	1425.69
	5	0.1	4.00347E-001	5.44879E-004	0.00000E+000	4.00072E-001	0.00000E+000	9	...........	1425.69
	6	0.2	4.00354E-001	4.68017E-004	0.00000E+000	4.00072E-001	0.00000E+000	9	...........	1425.69
	7	0.3	4.00366E-001	4.12763E-004	0.00000E+000	4.00072E-001	0.00000E+000	9	...........	1425.69
	8	0.4	4.00364E-001	3.70700E-004	0.00000E+000	4.00072E-001	0.00000E+000	9	...........	1425.69
	9	0.5	4.00357E-001	3.37433E-004	0.00000E+000	4.00072E-001	0.00000E+000	9	...........	1425.69
	10	0.6	4.00361E-001	3.10296E-004	0.00000E+000	4.00072E-001	0.00000E+000	9	...........	1425.69
	11	0.7	4.00356E-001	2.87673E-004	0.00000E+000	4.00072E-001	0.00000E+000	9	...........	1425.69
	12	0.8	4.00362E-001	2.68363E-004	0.00000E+000	4.00072E-001	0.00000E+000	9	...........	1425.69
	13	0.9	4.00359E-001	2.51843E-004	0.00000E+000	4.00072E-001	0.00000E+000	9	...........	1425.69
	14	1	4.00365E-001	2.37429E-004	0.00000E+000	4.00072E-001	0.00000E+000	9	...........	1425.69
	15	1.1	4.00376E-001	2.24751E-004	0.00000E+000	4.00072E-001	0.00000E+000	9	...........	1425.69
	16	1.2	4.00356E-001	2.13528E-004	0.00000E+000	4.00072E-001	0.00000E+000	9	...........	1425.69
	17	1.3	4.00359E-001	2.03586E-004	0.00000E+000	4.00072E-001	0.00000E+000	9	...........	1425.69
	18	1.4	4.00351E-001	1.94540E-004	0.00000E+000	4.00072E-001	0.00000E+000	9	...........	1425.69
	19	1.5	4.00355E-001	1.86343E-004	0.00000E+000	4.00072E-001	0.00000E+000	9	...........	1425.69
	20	1.6	4.00353E-001	1.78828E-004	0.00000E+000	4.00072E-001	0.00000E+000	9	...........	1425.69
	21	1.7	4.00360E-001	1.71902E-004	0.00000E+000	4.00072E-001	0.00000E+000	9	...........	1425.69
	22	1.8	4.00385E-001	1.65408E-004	0.00000E+000	4.00072E-001	0.00000E+000	9	...........	1425.69
	23	1.9	4.00361E-001	1.59377E-004	0.00000E+000	4.00072E-001	0.00000E+000	9	...........	1425.69
	24	2	4.00369E-001	1.53711E-004	0.00000E+000	4.00072E-001	0.00000E+000	9	...........	1425.69
	25	2.1	4.00358E-001	1.48298E-004	0.00000E+000	4.00072E-001	0.00000E+000	9	...........	1425.25
	26	2.2	4.00352E-001	1.43211E-004	0.00000E+000	4.00072E-001	0.00000E+000	9	...........	1425.25
	27	2.3	4.00368E-001	1.38456E-004	0.00000E+000	4.00072E-001	0.00000E+000	9	...........	1425.25
	28	2.4	4.00362E-001	1.33852E-004	0.00000E+000	4.00072E-001	0.00000E+000	9	...........	1425.25
	29	2.5	4.00364E-001	1.29510E-004	0.00000E+000	4.00072E-001	0.00000E+000	9	...........	1425.25
	30	2.6	4.00366E-001	1.25341E-004	0.00000E+000	4.00072E-001	0.00000E+000	9	...........	1425.25
	31	2.7	4.00364E-001	1.21412E-004	0.00000E+000	4.00072E-001	0.00000E+000	9	...........	1425.25
	32	2.8	4.00363E-001	1.17659E-004	0.00000E+000	4.00072E-001	0.00000E+000	9	...........	1425.25
	33	2.9	4.00375E-001	1.14033E-004	0.00000E+000	4.00072E-001	0.00000E+000	9	...........	1425.25
	34	3	4.00355E-001	1.10668E-004	0.00000E+000	4.00072E-001	0.00000E+000	9	...........	1425.25
	35	3.1	4.00350E-001	1.07412E-004	0.00000E+000	4.00072E-001	0.00000E+000	9	...........	1425.16
	36	3.2	4.00356E-001	1.04265E-004	0.00000E+000	4.00072E-001	0.00000E+000	9	...........	1425.16
	37	3.3	4.00353E-001	1.01289E-004	0.00000E+000	4.00072E-001	0.00000E+000	9	...........	1425.16
	38	3.4	4.00357E-001	9.85154E-005	0.00000E+000	4.00072E-001	0.00000E+000	9	...........	1425.16
	39	3.5	4.00378E-001	9.57436E-005	0.00000E+000	4.00072E-001	0.00000E+000	9	...........	1425.16
	40	3.6	4.00358E-001	9.32055E-005	0.00000E+000	4.00072E-001	0.00000E+000	9	...........	1425.16
	41	3.7	4.00352E-001	9.07432E-005	0.00000E+000	4.00072E-001	0.00000E+000	9	...........	1425.16
	42	3.8	4.00367E-001	8.83839E-005	0.00000E+000	4.00072E-001	0.00000E+000	9	...........	1425.16
	43	3.9	4.00358E-001	8.61752E-005	0.00000E+000	4.00072E-001	0.00000E+000	9	...........	1425.16
	44	4	4.00357E-001	8.40314E-005	0.00000E+000	4.00072E-001	0.00000E+000	9	...........	1425.16
	45	4.1	4.00367E-001	8.20133E-005	0.00000E+000	4.00072E-001	0.00000E+000	9	...........	1425.25
	46	4.2	4.00359E-001	8.00809E-005	0.00000E+000	4.00072E-001	0.00000E+000	9	...........	1425.25
	47	4.3	4.00365E-001	7.82125E-005	0.00000E+000	4.00072E-001	0.00000E+000	9	...........	1425.25
	48	4.4	4.00361E-001	7.64823E-005	0.00000E+000	4.00072E-001	0.00000E+000	9	...........	1425.25
	49	4.5	4.00352E-001	7.48231E-005	0.00000E+000	4.00072E-001	0.00000E+000	9	...........	1425.25
	50	4.6	4.00357E-001	7.32279E-005	0.00000E+000	4.00072E-001	0.00000E+000	9	...........	1425.25
	51	4.7	4.00362E-001	7.16925E-005	0.00000E+000	4.00072E-001	0.00000E+000	9	...........	1425.25
	52	4.8	4.00368E-001	7.02456E-005	0.00000E+000	4.00072E-001	0.00000E+000	9	...........	1425.25
	53	4.9	4.00354E-001	6.88898E-005	0.00000E+000	4.00072E-001	0.00000E+000	9	...........	1425.25
	54	5	4.00368E-001	6.75995E-005	0.00000E+000	4.00072E-001	0.00000E+000	9	...........	1425.25
	55	5.1	4.00365E-001	6.63539E-005	0.00000E+000	4.00072E-001	0.00000E+000	9	...........	1425.25
	56	5.2	4.00360E-001	6.51450E-005	0.00000E+000	4.00072E-001	0.00000E+000	9	...........	1425.25
	57	5.3	4.00363E-001	6.40732E-005	0.00000E+000	4.00072E-001	0.00000E+000	9	...........	1425.25
	58	5.4	4.00364E-001	6.30070E-005	0.00000E+000	4.00072E-001	0.00000E+000	9	...........	1425.25
	59	5.5	4.00353E-001	6.19182E-005	0.00000E+000	4.00072E-001	0.00000E+000	9	...........	1425.25
	60	5.6	4.00362E-001	6.09776E-005	0.00000E+000	4.00072E-001	0.00000E+000	9	...........	1425.25
	61	5.7	4.00375E-001	6.00407E-005	0.00000E+000	4.00072E-001	0.00000E+000	9	...........	1425.25
	62	5.8	4.00368E-001	5.91784E-005	0.00000E+000	4.00072E-001	0.00000E+000	9	...........	1425.25
	63	5.9	4.00361E-001	5.82924E-005	0.00000E+000	4.00072E-001	0.00000E+000	9	...........	1425.25
	64	6	4.00366E-001	5.75055E-005	0.00000E+000	4.00072E-001	0.00000E+000	9	...........	1425.25
	65	6.1	4.00370E-001	5.67121E-005	0.00000E+000	4.00072E-001	0.00000E+000	9	...........	1425.16
	66	7.1	4.00365E-001	5.02437E-005	0.00000E+000	4.00072E-001	0.00000E+000	9	...........	1425.25
	67	8.1	4.00356E-001	4.55154E-005	0.00000E+000	4.00072E-001	0.00000E+000	9	...........	1425.69
	68	9.1	4.00364E-001	4.18865E-005	0.00000E+000	4.00072E-001	0.00000E+000	9	...........	1425.69
	69	10.1	4.00358E-001	3.89751E-005	0.00000E+000	4.00072E-001	0.00000E+000	9	...........	1425.69
	70	11.1	4.00352E-001	3.66435E-005	0.00000E+000	4.00072E-001	0.00000E+000	9	...........	1425.69
	71	12.1	4.00364E-001	3.46710E-005	0.00000E+000	4.00072E-001	0.00000E+000	9	...........	1425.69
	72	13.1	4.00380E-001	3.29385E-005	0.00000E+000	4.00072E-001	0.00000E+000	9	...........	1425.69
	73	14.1	4.00370E-001	3.15305E-005	0.00000E+000	4.00072E-001	0.00000E+000	9	...........	1425.69
	74	15.1	4.00365E-001	3.02801E-005	0.00000E+000	4.00072E-001	0.00000E+000	9	...........	1425.69
	75	16.1	4.00374E-001	2.92143E-005	0.00000E+000	4.00072E-001	0.00000E+000	9	...........	1425.69
	76	26.1	4.00371E-001	2.25635E-005	0.00000E+000	4.00072E-001	0.00000E+000	9	...........	1425.69
	77	36.1	4.00357E-001	1.94202E-005	0.00000E+000	4.00072E-001	0.00000E+000	9	...........	1425.69
	78	46.1	4.00365E-001	1.76079E-005	0.00000E+000	4.00072E-001	0.00000E+000	9	...........	1425.69
	79	56.1	4.00376E-001	1.65748E-005	0.00000E+000	4.00072E-001	0.00000E+000	9	...........	1425.69
	80	66.1	4.00368E-001	1.59747E-005	0.00000E+000	4.00072E-001	0.00000E+000	9	...........	1425.69
	81	76.1	4.00363E-001	1.51654E-005	0.00000E+000	4.00072E-001	0.00000E+000	9	...........	1425.69
	82	86.1	4.00359E-001	1.50408E-005	0.00000E+000	4.00072E-001	0.00000E+000	9	...........	1425.69
	83	96.1	4.00358E-001	1.46940E-005	0.00000E+000	4.00072E-001	0.00000E+000	9	...........	1425.69
	84	106.1	4.00363E-001	1.44573E-005	0.00000E+000	4.00072E-001	0.00000E+000	9	...........	1425.69
	85	116.1	4.00367E-001	1.44645E-005	0.00000E+000	4.00072E-001	0.00000E+000	9	...........	1425.69
	86	216.1	4.00371E-001	1.38515E-005	0.00000E+000	4.00072E-001	0.00000E+000	9	...........	1425.69
	87	300	4.00364E-001	1.38145E-005	0.00000E+000	4.00072E-001	0.00000E+000	9	...........	1425.69
	88	300.1	3.00320E-001	-4.68247E-004	0.00000E+000	3.00072E-001	0.00000E+000	9	...........	1425.69
	89	300.2	3.00332E-001	-4.11891E-004	0.00000E+000	3.00072E-001	0.00000E+000	9	...........	1425.69
	90	300.3	3.00316E-001	-3.65180E-004	0.00000E+000	3.00072E-001	0.00000E+000	9	...........	1425.69
	91	300.4	3.00322E-001	-3.25073E-004	0.00000E+000	3.00072E-001	0.00000E+000	9	...........	1425.69
	92	300.5	3.00310E-001	-2.90281E-004	0.00000E+000	3.00072E-001	0.00000E+000	9	...........	1425.69
	93	300.6	3.00307E-001	-2.60084E-004	0.00000E+000	3.00072E-001	0.00000E+000	9	...........	1425.69
	94	300.7	3.00312E-001	-2.33841E-004	0.00000E+000	3.00072E-001	0.00000E+000	9	...........	1425.69
	95	300.8	3.00316E-001	-2.11180E-004	0.00000E+000	3.00072E-001	0.00000E+000	9	...........	1425.69
	96	300.9	3.00329E-001	-1.91512E-004	0.00000E+000	3.00072E-001	0.00000E+000	9	...........	1425.69
	97	301	3.00316E-001	-1.74504E-004	0.00000E+000	3.00072E-001	0.00000E+000	9	...........	1425.69
