EXPLAIN
TAG	CHRONOA
TITLE	LABEL	Chronoamperometry Scan	Test Identifier
DATE	LABEL	27/1/2022	Date
TIME	LABEL	12:54:51	Time
NOTES	NOTES	1	Notes...
	
PSTAT	PSTAT	IFC1010-21051	Potentiostat
VPRESTEP	POTEN	1.00000E-002	F	Pre-step Voltage (V)
TPRESTEP	QUANT	5.00000E-001	Pre-step Delay Time (s)
VSTEP1	POTEN	0.00000E+000	F	Step 1 Voltage (V)
TSTEP1	QUANT	3.00000E+002	Step 1 Time (s)
VSTEP2	POTEN	-1.00000E-001	T	Step 2 Voltage (V)
TSTEP2	QUANT	1.00000E+000	Step 2 Time (s)
SAMPLETIME	QUANT	1.00000E-001	Sample Period (s)
DECIMATE	TOGGLE	T	Decimate
ILIMIT	QUANT	1.00000E+000	Limit I (mA/cm^2)
IMODE	SELECTOR	1	I/E Range Mode
IRANGE	QUANT	3.00000E-001	Max Current (mA)
EQDELAY	QUANT	5.00000E+000	Equil. Time (s)
SAMPLINGMODE	SELECTOR	1	Sampling Mode
AREA	QUANT	1.00000E+000	Sample Area (cm^2)
IRCOMP	SELECTOR	0	IRComp
PFCOR	QUANT	5.00000E+001	PF Corr. (ohm)
SEQUENCER	TOGGLE	TRUE	Run as Sequence
PSTATMODEL	IQUANT	64	Pstat Model
PSTATSECTION	LABEL	IFC1010-21051	Pstat Section
PSTATSERIALNO	LABEL	21051	Pstat Serial Number
CTRLMODE	IQUANT	1	Control Mode
ELECTROMETER	IQUANT	0	RE=0 or CS=1
IESTAB	IQUANT	0	I/E Stability
CASPEED	IQUANT	4	Control Amp Speed
CONVENTION	IQUANT	1	Current Convention
ICHRANGE	IQUANT	2	Ich Range
ICHRANGEMODE	TOGGLE	T	Ich Auto Range
ICHOFFSETENABLE	TOGGLE	F	Ich Offset Enable
ICHOFFSET	QUANT	0	Ich Offset (V)
ICHFILTER	IQUANT	3	Ich Filter
VCHRANGE	IQUANT	3	Vch Range
VCHRANGEMODE	TOGGLE	T	Vch Auto Range
VCHOFFSETENABLE	TOGGLE	F	Vch Offset Enable
VCHOFFSET	QUANT	0	Vch Offset (V)
VCHFILTER	IQUANT	3	Vch Filter
IERANGELOWERLIMIT	IQUANT	4	I/E Range Lower Limit
IERANGEMODE	TOGGLE	F	I/E AutoRange
IERANGE	IQUANT	9	I/E Range
ACHSELECT	IQUANT	0	Ach Select
ACHRANGE	IQUANT	2	Ach Range
ACHOFFSETENABLE	TOGGLE	F	Ach Offset Enable
ACHOFFSET	QUANT	0	Ach Offset (V)
ACHFILTER	IQUANT	1	Ach Filter
SENSECABLEID	IQUANT	14	Sense Cable ID
PWRCABLEID	IQUANT	14	Power Cable ID
DCCALDATE	LABEL	1/24/2022	DC Calibration Date
ACCALDATE	LABEL	4/2/2018	AC Calibration Date
FRAMEWORKVERSION	QUANT	7.06	Framework Version
INSTRUMENTVERSION	LABEL	4.30	Instrument Version
CURVE	TABLE	98
	Pt	T	Vf	Im	Vu	Sig	Ach	IERange	Over	Temp
	#	s	V vs. Ref.	A	V	V	V	#	bits	deg C
	0	-0.4	9.17786E-003	-1.77910E-005	0.00000E+000	1.00559E-002	0.00000E+000	9	...........	1425.78
	1	-0.3	9.87570E-003	-1.76146E-005	0.00000E+000	1.00559E-002	0.00000E+000	9	...........	1425.78
	2	-0.2	1.00403E-002	-1.74423E-005	0.00000E+000	1.00559E-002	0.00000E+000	9	...........	1425.78
	3	-0.1	1.00552E-002	-1.72847E-005	0.00000E+000	1.00559E-002	0.00000E+000	9	...........	1425.78
	4	0	1.00546E-002	-1.71292E-005	0.00000E+000	1.00559E-002	0.00000E+000	9	...........	1425.78
	5	0.1	4.88991E-005	-6.21014E-005	0.00000E+000	5.34840E-005	0.00000E+000	9	...........	1425.78
	6	0.2	4.77677E-005	-5.38595E-005	0.00000E+000	5.34840E-005	0.00000E+000	9	...........	1425.78
	7	0.3	4.77817E-005	-4.76387E-005	0.00000E+000	5.34840E-005	0.00000E+000	9	...........	1425.78
	8	0.4	4.81242E-005	-4.27981E-005	0.00000E+000	5.34840E-005	0.00000E+000	9	...........	1425.78
	9	0.5	4.77977E-005	-3.89384E-005	0.00000E+000	5.34840E-005	0.00000E+000	9	...........	1425.78
	10	0.6	4.71249E-005	-3.58377E-005	0.00000E+000	5.34840E-005	0.00000E+000	9	...........	1425.78
	11	0.7	4.66133E-005	-3.32980E-005	0.00000E+000	5.34840E-005	0.00000E+000	9	...........	1425.78
	12	0.8	4.78097E-005	-3.11927E-005	0.00000E+000	5.34840E-005	0.00000E+000	9	...........	1425.78
	13	0.9	4.71149E-005	-2.94435E-005	0.00000E+000	5.34840E-005	0.00000E+000	9	...........	1425.78
	14	1	4.78828E-005	-2.79520E-005	0.00000E+000	5.34840E-005	0.00000E+000	9	...........	1425.78
	15	1.1	4.82042E-005	-2.66932E-005	0.00000E+000	5.34840E-005	0.00000E+000	9	...........	1426.13
	16	1.2	4.74793E-005	-2.56036E-005	0.00000E+000	5.34840E-005	0.00000E+000	9	...........	1426.13
	17	1.3	4.71870E-005	-2.46597E-005	0.00000E+000	5.34840E-005	0.00000E+000	9	...........	1426.13
	18	1.4	4.69006E-005	-2.38274E-005	0.00000E+000	5.34840E-005	0.00000E+000	9	...........	1426.13
	19	1.5	4.71690E-005	-2.31034E-005	0.00000E+000	5.34840E-005	0.00000E+000	9	...........	1426.13
	20	1.6	4.64951E-005	-2.24436E-005	0.00000E+000	5.34840E-005	0.00000E+000	9	...........	1426.13
	21	1.7	4.62218E-005	-2.18410E-005	0.00000E+000	5.34840E-005	0.00000E+000	9	...........	1426.13
	22	1.8	4.73261E-005	-2.13169E-005	0.00000E+000	5.34840E-005	0.00000E+000	9	...........	1426.13
	23	1.9	4.71549E-005	-2.08440E-005	0.00000E+000	5.34840E-005	0.00000E+000	9	...........	1426.13
	24	2	4.65592E-005	-2.04173E-005	0.00000E+000	5.34840E-005	0.00000E+000	9	...........	1426.13
	25	2.1	4.66293E-005	-2.00396E-005	0.00000E+000	5.34840E-005	0.00000E+000	9	...........	1425.78
	26	2.2	4.62398E-005	-1.96929E-005	0.00000E+000	5.34840E-005	0.00000E+000	9	...........	1425.78
	27	2.3	4.67685E-005	-1.93767E-005	0.00000E+000	5.34840E-005	0.00000E+000	9	...........	1425.78
	28	2.4	4.76285E-005	-1.90715E-005	0.00000E+000	5.34840E-005	0.00000E+000	9	...........	1425.78
	29	2.5	4.72751E-005	-1.88042E-005	0.00000E+000	5.34840E-005	0.00000E+000	9	...........	1425.78
	30	2.6	4.58944E-005	-1.85591E-005	0.00000E+000	5.34840E-005	0.00000E+000	9	...........	1425.78
	31	2.7	4.70338E-005	-1.83111E-005	0.00000E+000	5.34840E-005	0.00000E+000	9	...........	1425.78
	32	2.8	4.64901E-005	-1.80826E-005	0.00000E+000	5.34840E-005	0.00000E+000	9	...........	1425.78
	33	2.9	4.59525E-005	-1.78761E-005	0.00000E+000	5.34840E-005	0.00000E+000	9	...........	1425.78
	34	3	4.64671E-005	-1.76755E-005	0.00000E+000	5.34840E-005	0.00000E+000	9	...........	1425.78
	35	3.1	4.65292E-005	-1.74847E-005	0.00000E+000	5.34840E-005	0.00000E+000	9	...........	1426.13
	36	3.2	4.60105E-005	-1.73104E-005	0.00000E+000	5.34840E-005	0.00000E+000	9	...........	1426.13
	37	3.3	4.63509E-005	-1.71499E-005	0.00000E+000	5.34840E-005	0.00000E+000	9	...........	1426.13
	38	3.4	4.66844E-005	-1.69829E-005	0.00000E+000	5.34840E-005	0.00000E+000	9	...........	1426.13
	39	3.5	4.61567E-005	-1.68398E-005	0.00000E+000	5.34840E-005	0.00000E+000	9	...........	1426.13
	40	3.6	4.72100E-005	-1.66825E-005	0.00000E+000	5.34840E-005	0.00000E+000	9	...........	1426.13
	41	3.7	4.66854E-005	-1.65408E-005	0.00000E+000	5.34840E-005	0.00000E+000	9	...........	1426.13
	42	3.8	4.60726E-005	-1.64069E-005	0.00000E+000	5.34840E-005	0.00000E+000	9	...........	1426.13
	43	3.9	4.60536E-005	-1.62737E-005	0.00000E+000	5.34840E-005	0.00000E+000	9	...........	1426.13
	44	4	4.72380E-005	-1.61305E-005	0.00000E+000	5.34840E-005	0.00000E+000	9	...........	1426.13
	45	4.1	4.61857E-005	-1.60077E-005	0.00000E+000	5.34840E-005	0.00000E+000	9	...........	1425.69
	46	4.2	4.68095E-005	-1.58733E-005	0.00000E+000	5.34840E-005	0.00000E+000	9	...........	1425.69
	47	4.3	4.70608E-005	-1.57518E-005	0.00000E+000	5.34840E-005	0.00000E+000	9	...........	1425.69
	48	4.4	4.61056E-005	-1.56355E-005	0.00000E+000	5.34840E-005	0.00000E+000	9	...........	1425.69
	49	4.5	4.66844E-005	-1.55175E-005	0.00000E+000	5.34840E-005	0.00000E+000	9	...........	1425.69
	50	4.6	4.64030E-005	-1.54017E-005	0.00000E+000	5.34840E-005	0.00000E+000	9	...........	1425.69
	51	4.7	4.70969E-005	-1.53058E-005	0.00000E+000	5.34840E-005	0.00000E+000	9	...........	1425.69
	52	4.8	4.67434E-005	-1.52083E-005	0.00000E+000	5.34840E-005	0.00000E+000	9	...........	1425.69
	53	4.9	4.68686E-005	-1.51235E-005	0.00000E+000	5.34840E-005	0.00000E+000	9	...........	1425.69
	54	5	4.52095E-005	-1.50358E-005	0.00000E+000	5.34840E-005	0.00000E+000	9	...........	1425.69
	55	5.1	4.66543E-005	-1.49286E-005	0.00000E+000	5.34840E-005	0.00000E+000	9	...........	1426.04
	56	5.2	4.79840E-005	-1.48377E-005	0.00000E+000	5.34840E-005	0.00000E+000	9	...........	1426.04
	57	5.3	4.67604E-005	-1.47510E-005	0.00000E+000	5.34840E-005	0.00000E+000	9	...........	1426.04
	58	5.4	4.66413E-005	-1.46555E-005	0.00000E+000	5.34840E-005	0.00000E+000	9	...........	1426.04
	59	5.5	4.60145E-005	-1.45717E-005	0.00000E+000	5.34840E-005	0.00000E+000	9	...........	1426.04
	60	5.6	4.54238E-005	-1.44750E-005	0.00000E+000	5.34840E-005	0.00000E+000	9	...........	1426.04
	61	5.7	4.54448E-005	-1.44019E-005	0.00000E+000	5.34840E-005	0.00000E+000	9	...........	1426.04
	62	5.8	4.46208E-005	-1.43285E-005	0.00000E+000	5.34840E-005	0.00000E+000	9	...........	1426.04
	63	5.9	4.44516E-005	-1.42697E-005	0.00000E+000	5.34840E-005	0.00000E+000	9	...........	1426.04
	64	6	4.64471E-005	-1.42059E-005	0.00000E+000	5.34840E-005	0.00000E+000	9	...........	1426.04
	65	6.1	4.55359E-005	-1.41548E-005	0.00000E+000	5.34840E-005	0.00000E+000	9	...........	1425.69
	66	7.1	4.62428E-005	-1.36339E-005	0.00000E+000	5.34840E-005	0.00000E+000	9	...........	1426.04
	67	8.1	4.50373E-005	-1.33175E-005	0.00000E+000	5.34840E-005	0.00000E+000	9	...........	1426.13
	68	9.1	4.63079E-005	-1.29628E-005	0.00000E+000	5.34840E-005	0.00000E+000	9	...........	1426.13
	69	10.1	4.54388E-005	-1.27111E-005	0.00000E+000	5.34840E-005	0.00000E+000	9	...........	1426.13
	70	11.1	4.56000E-005	-1.26261E-005	0.00000E+000	5.34840E-005	0.00000E+000	9	...........	1426.13
	71	12.1	4.48311E-005	-1.25761E-005	0.00000E+000	5.34840E-005	0.00000E+000	9	...........	1426.13
	72	13.1	4.42744E-005	-1.24224E-005	0.00000E+000	5.34840E-005	0.00000E+000	9	...........	1426.13
	73	14.1	4.59705E-005	-1.22475E-005	0.00000E+000	5.34840E-005	0.00000E+000	9	...........	1426.13
	74	15.1	4.69617E-005	-1.21109E-005	0.00000E+000	5.34840E-005	0.00000E+000	9	...........	1426.13
	75	16.1	4.58383E-005	-1.20411E-005	0.00000E+000	5.34840E-005	0.00000E+000	9	...........	1426.13
	76	26.1	4.55349E-005	-1.16544E-005	0.00000E+000	5.34840E-005	0.00000E+000	9	...........	1426.13
	77	36.1	4.54969E-005	-1.14495E-005	0.00000E+000	5.34840E-005	0.00000E+000	9	...........	1426.13
	78	46.1	4.67364E-005	-1.14703E-005	0.00000E+000	5.34840E-005	0.00000E+000	9	...........	1426.13
	79	56.1	4.61757E-005	-1.17649E-005	0.00000E+000	5.34840E-005	0.00000E+000	9	...........	1426.13
	80	66.1	4.46248E-005	-1.20298E-005	0.00000E+000	5.34840E-005	0.00000E+000	9	...........	1426.13
	81	76.1	4.44496E-005	-1.19232E-005	0.00000E+000	5.34840E-005	0.00000E+000	9	...........	1426.04
	82	86.1	4.66023E-005	-1.20441E-005	0.00000E+000	5.34840E-005	0.00000E+000	9	...........	1426.13
	83	96.1	4.67524E-005	-1.24075E-005	0.00000E+000	5.34840E-005	0.00000E+000	9	...........	1426.13
	84	106.1	4.70208E-005	-1.22710E-005	0.00000E+000	5.34840E-005	0.00000E+000	9	...........	1426.13
	85	116.1	4.64801E-005	-1.23771E-005	0.00000E+000	5.34840E-005	0.00000E+000	9	...........	1426.13
	86	216.1	4.53988E-005	-1.27020E-005	0.00000E+000	5.34840E-005	0.00000E+000	9	...........	1426.22
	87	300	4.48181E-005	-1.27638E-005	0.00000E+000	5.34840E-005	0.00000E+000	9	...........	1426.22
	88	300.1	-3.29270E-002	-4.54947E-004	0.00000E+000	-9.99460E-002	0.00000E+000	9	.........v.	1426.22
	89	300.2	-9.99765E-002	-3.71919E-004	0.00000E+000	-9.99460E-002	0.00000E+000	9	...........	1426.22
	90	300.3	-9.99795E-002	-3.12279E-004	0.00000E+000	-9.99460E-002	0.00000E+000	9	...........	1426.22
	91	300.4	-9.99791E-002	-2.67505E-004	0.00000E+000	-9.99460E-002	0.00000E+000	9	...........	1426.22
	92	300.5	-9.99782E-002	-2.32858E-004	0.00000E+000	-9.99460E-002	0.00000E+000	9	...........	1426.22
	93	300.6	-9.99788E-002	-2.05398E-004	0.00000E+000	-9.99460E-002	0.00000E+000	9	...........	1426.22
	94	300.7	-9.99803E-002	-1.83182E-004	0.00000E+000	-9.99460E-002	0.00000E+000	9	...........	1426.22
	95	300.8	-9.99785E-002	-1.64891E-004	0.00000E+000	-9.99460E-002	0.00000E+000	9	...........	1426.22
	96	300.9	-9.99791E-002	-1.49628E-004	0.00000E+000	-9.99460E-002	0.00000E+000	9	...........	1426.22
	97	301	-9.99781E-002	-1.36759E-004	0.00000E+000	-9.99460E-002	0.00000E+000	9	...........	1426.22
