EXPLAIN
TAG	CHRONOA
TITLE	LABEL	Chronoamperometry Scan	Test Identifier
DATE	LABEL	27/1/2022	Date
TIME	LABEL	18:32:20	Time
NOTES	NOTES	1	Notes...
	
PSTAT	PSTAT	IFC1010-21051	Potentiostat
VPRESTEP	POTEN	1.00000E-002	F	Pre-step Voltage (V)
TPRESTEP	QUANT	5.00000E-001	Pre-step Delay Time (s)
VSTEP1	POTEN	0.00000E+000	F	Step 1 Voltage (V)
TSTEP1	QUANT	3.00000E+002	Step 1 Time (s)
VSTEP2	POTEN	-1.00000E-001	T	Step 2 Voltage (V)
TSTEP2	QUANT	1.00000E+000	Step 2 Time (s)
SAMPLETIME	QUANT	1.00000E-001	Sample Period (s)
DECIMATE	TOGGLE	T	Decimate
ILIMIT	QUANT	1.00000E+000	Limit I (mA/cm^2)
IMODE	SELECTOR	1	I/E Range Mode
IRANGE	QUANT	3.00000E-001	Max Current (mA)
EQDELAY	QUANT	5.00000E+000	Equil. Time (s)
SAMPLINGMODE	SELECTOR	1	Sampling Mode
AREA	QUANT	1.00000E+000	Sample Area (cm^2)
IRCOMP	SELECTOR	0	IRComp
PFCOR	QUANT	5.00000E+001	PF Corr. (ohm)
SEQUENCER	TOGGLE	TRUE	Run as Sequence
PSTATMODEL	IQUANT	64	Pstat Model
PSTATSECTION	LABEL	IFC1010-21051	Pstat Section
PSTATSERIALNO	LABEL	21051	Pstat Serial Number
CTRLMODE	IQUANT	1	Control Mode
ELECTROMETER	IQUANT	0	RE=0 or CS=1
IESTAB	IQUANT	0	I/E Stability
CASPEED	IQUANT	4	Control Amp Speed
CONVENTION	IQUANT	1	Current Convention
ICHRANGE	IQUANT	2	Ich Range
ICHRANGEMODE	TOGGLE	T	Ich Auto Range
ICHOFFSETENABLE	TOGGLE	F	Ich Offset Enable
ICHOFFSET	QUANT	0	Ich Offset (V)
ICHFILTER	IQUANT	3	Ich Filter
VCHRANGE	IQUANT	3	Vch Range
VCHRANGEMODE	TOGGLE	T	Vch Auto Range
VCHOFFSETENABLE	TOGGLE	F	Vch Offset Enable
VCHOFFSET	QUANT	0	Vch Offset (V)
VCHFILTER	IQUANT	3	Vch Filter
IERANGELOWERLIMIT	IQUANT	4	I/E Range Lower Limit
IERANGEMODE	TOGGLE	F	I/E AutoRange
IERANGE	IQUANT	9	I/E Range
ACHSELECT	IQUANT	0	Ach Select
ACHRANGE	IQUANT	2	Ach Range
ACHOFFSETENABLE	TOGGLE	F	Ach Offset Enable
ACHOFFSET	QUANT	0	Ach Offset (V)
ACHFILTER	IQUANT	1	Ach Filter
SENSECABLEID	IQUANT	14	Sense Cable ID
PWRCABLEID	IQUANT	14	Power Cable ID
DCCALDATE	LABEL	1/24/2022	DC Calibration Date
ACCALDATE	LABEL	4/2/2018	AC Calibration Date
FRAMEWORKVERSION	QUANT	7.06	Framework Version
INSTRUMENTVERSION	LABEL	4.30	Instrument Version
CURVE	TABLE	98
	Pt	T	Vf	Im	Vu	Sig	Ach	IERange	Over	Temp
	#	s	V vs. Ref.	A	V	V	V	#	bits	deg C
	0	-0.4	9.18587E-003	-1.35442E-005	0.00000E+000	1.00559E-002	0.00000E+000	9	...........	1426.13
	1	-0.3	9.87310E-003	-1.34411E-005	0.00000E+000	1.00559E-002	0.00000E+000	9	...........	1426.13
	2	-0.2	1.00371E-002	-1.33433E-005	0.00000E+000	1.00559E-002	0.00000E+000	9	...........	1426.13
	3	-0.1	1.00528E-002	-1.32394E-005	0.00000E+000	1.00559E-002	0.00000E+000	9	...........	1426.13
	4	0	1.00521E-002	-1.31380E-005	0.00000E+000	1.00559E-002	0.00000E+000	9	...........	1426.13
	5	0.1	4.42053E-005	-3.95636E-005	0.00000E+000	5.34840E-005	0.00000E+000	9	...........	1426.13
	6	0.2	4.46659E-005	-2.60747E-005	0.00000E+000	5.34840E-005	0.00000E+000	9	...........	1426.13
	7	0.3	4.42233E-005	-2.13198E-005	0.00000E+000	5.34840E-005	0.00000E+000	9	...........	1426.13
	8	0.4	4.28747E-005	-1.92956E-005	0.00000E+000	5.34840E-005	0.00000E+000	9	...........	1426.13
	9	0.5	4.41883E-005	-1.82321E-005	0.00000E+000	5.34840E-005	0.00000E+000	9	...........	1425.69
	10	0.6	4.48101E-005	-1.76011E-005	0.00000E+000	5.34840E-005	0.00000E+000	9	...........	1425.69
	11	0.7	4.29628E-005	-1.71694E-005	0.00000E+000	5.34840E-005	0.00000E+000	9	...........	1425.69
	12	0.8	4.33883E-005	-1.68316E-005	0.00000E+000	5.34840E-005	0.00000E+000	9	...........	1425.69
	13	0.9	4.15741E-005	-1.65775E-005	0.00000E+000	5.34840E-005	0.00000E+000	9	...........	1425.69
	14	1	4.25403E-005	-1.63444E-005	0.00000E+000	5.34840E-005	0.00000E+000	9	...........	1425.69
	15	1.1	4.15651E-005	-1.61561E-005	0.00000E+000	5.34840E-005	0.00000E+000	9	...........	1425.69
	16	1.2	4.27706E-005	-1.59757E-005	0.00000E+000	5.34840E-005	0.00000E+000	9	...........	1425.69
	17	1.3	4.29037E-005	-1.58153E-005	0.00000E+000	5.34840E-005	0.00000E+000	9	...........	1425.69
	18	1.4	4.31310E-005	-1.56543E-005	0.00000E+000	5.34840E-005	0.00000E+000	9	...........	1425.69
	19	1.5	4.35906E-005	-1.55064E-005	0.00000E+000	5.34840E-005	0.00000E+000	9	...........	1426.40
	20	1.6	4.37187E-005	-1.53659E-005	0.00000E+000	5.34840E-005	0.00000E+000	9	...........	1426.40
	21	1.7	4.40952E-005	-1.52466E-005	0.00000E+000	5.34840E-005	0.00000E+000	9	...........	1426.40
	22	1.8	4.38339E-005	-1.51287E-005	0.00000E+000	5.34840E-005	0.00000E+000	9	...........	1426.40
	23	1.9	4.36947E-005	-1.50205E-005	0.00000E+000	5.34840E-005	0.00000E+000	9	...........	1426.40
	24	2	4.34494E-005	-1.49085E-005	0.00000E+000	5.34840E-005	0.00000E+000	9	...........	1426.40
	25	2.1	4.22189E-005	-1.48071E-005	0.00000E+000	5.34840E-005	0.00000E+000	9	...........	1426.40
	26	2.2	4.22910E-005	-1.47050E-005	0.00000E+000	5.34840E-005	0.00000E+000	9	...........	1426.40
	27	2.3	4.27175E-005	-1.45876E-005	0.00000E+000	5.34840E-005	0.00000E+000	9	...........	1426.40
	28	2.4	4.28957E-005	-1.44802E-005	0.00000E+000	5.34840E-005	0.00000E+000	9	...........	1426.40
	29	2.5	4.31020E-005	-1.43590E-005	0.00000E+000	5.34840E-005	0.00000E+000	9	...........	1426.40
	30	2.6	4.38999E-005	-1.42444E-005	0.00000E+000	5.34840E-005	0.00000E+000	9	...........	1426.40
	31	2.7	4.45557E-005	-1.41358E-005	0.00000E+000	5.34840E-005	0.00000E+000	9	...........	1426.40
	32	2.8	4.43495E-005	-1.40324E-005	0.00000E+000	5.34840E-005	0.00000E+000	9	...........	1426.40
	33	2.9	4.40391E-005	-1.39366E-005	0.00000E+000	5.34840E-005	0.00000E+000	9	...........	1426.40
	34	3	4.37648E-005	-1.38120E-005	0.00000E+000	5.34840E-005	0.00000E+000	9	...........	1426.40
	35	3.1	4.33333E-005	-1.37138E-005	0.00000E+000	5.34840E-005	0.00000E+000	9	...........	1426.40
	36	3.2	4.36016E-005	-1.36178E-005	0.00000E+000	5.34840E-005	0.00000E+000	9	...........	1426.40
	37	3.3	4.29277E-005	-1.35230E-005	0.00000E+000	5.34840E-005	0.00000E+000	9	...........	1426.40
	38	3.4	4.25913E-005	-1.34575E-005	0.00000E+000	5.34840E-005	0.00000E+000	9	...........	1426.40
	39	3.5	4.27996E-005	-1.33575E-005	0.00000E+000	5.34840E-005	0.00000E+000	9	...........	1426.40
	40	3.6	4.15420E-005	-1.32614E-005	0.00000E+000	5.34840E-005	0.00000E+000	9	...........	1426.40
	41	3.7	4.28156E-005	-1.31494E-005	0.00000E+000	5.34840E-005	0.00000E+000	9	...........	1426.40
	42	3.8	4.30379E-005	-1.30525E-005	0.00000E+000	5.34840E-005	0.00000E+000	9	...........	1426.40
	43	3.9	4.34624E-005	-1.29511E-005	0.00000E+000	5.34840E-005	0.00000E+000	9	...........	1426.40
	44	4	4.26644E-005	-1.28725E-005	0.00000E+000	5.34840E-005	0.00000E+000	9	...........	1426.40
	45	4.1	4.18614E-005	-1.28037E-005	0.00000E+000	5.34840E-005	0.00000E+000	9	...........	1426.40
	46	4.2	4.12437E-005	-1.27635E-005	0.00000E+000	5.34840E-005	0.00000E+000	9	...........	1426.40
	47	4.3	4.16522E-005	-1.26976E-005	0.00000E+000	5.34840E-005	0.00000E+000	9	...........	1426.40
	48	4.4	4.21157E-005	-1.26347E-005	0.00000E+000	5.34840E-005	0.00000E+000	9	...........	1426.40
	49	4.5	4.39129E-005	-1.25632E-005	0.00000E+000	5.34840E-005	0.00000E+000	9	...........	1426.40
	50	4.6	4.43244E-005	-1.25170E-005	0.00000E+000	5.34840E-005	0.00000E+000	9	...........	1426.40
	51	4.7	4.25062E-005	-1.24673E-005	0.00000E+000	5.34840E-005	0.00000E+000	9	...........	1426.40
	52	4.8	4.25383E-005	-1.24177E-005	0.00000E+000	5.34840E-005	0.00000E+000	9	...........	1426.40
	53	4.9	4.25403E-005	-1.23726E-005	0.00000E+000	5.34840E-005	0.00000E+000	9	...........	1426.40
	54	5	4.18614E-005	-1.23176E-005	0.00000E+000	5.34840E-005	0.00000E+000	9	...........	1426.40
	55	5.1	4.23480E-005	-1.22571E-005	0.00000E+000	5.34840E-005	0.00000E+000	9	...........	1426.40
	56	5.2	4.16391E-005	-1.22197E-005	0.00000E+000	5.34840E-005	0.00000E+000	9	...........	1426.40
	57	5.3	4.19836E-005	-1.21775E-005	0.00000E+000	5.34840E-005	0.00000E+000	9	...........	1426.40
	58	5.4	4.27525E-005	-1.21552E-005	0.00000E+000	5.34840E-005	0.00000E+000	9	...........	1426.40
	59	5.5	4.22219E-005	-1.21397E-005	0.00000E+000	5.34840E-005	0.00000E+000	9	...........	1426.40
	60	5.6	4.25102E-005	-1.21061E-005	0.00000E+000	5.34840E-005	0.00000E+000	9	...........	1426.40
	61	5.7	4.25693E-005	-1.20742E-005	0.00000E+000	5.34840E-005	0.00000E+000	9	...........	1426.40
	62	5.8	4.33182E-005	-1.20333E-005	0.00000E+000	5.34840E-005	0.00000E+000	9	...........	1426.40
	63	5.9	4.25473E-005	-1.19795E-005	0.00000E+000	5.34840E-005	0.00000E+000	9	...........	1426.40
	64	6	4.25202E-005	-1.19373E-005	0.00000E+000	5.34840E-005	0.00000E+000	9	...........	1426.40
	65	6.1	4.27906E-005	-1.18774E-005	0.00000E+000	5.34840E-005	0.00000E+000	9	...........	1426.40
	66	7.1	4.35055E-005	-1.14184E-005	0.00000E+000	5.34840E-005	0.00000E+000	9	...........	1426.40
	67	8.1	4.29838E-005	-1.12572E-005	0.00000E+000	5.34840E-005	0.00000E+000	9	...........	1426.31
	68	9.1	4.40041E-005	-1.11720E-005	0.00000E+000	5.34840E-005	0.00000E+000	9	...........	1426.40
	69	10.1	4.34434E-005	-1.09057E-005	0.00000E+000	5.34840E-005	0.00000E+000	9	...........	1426.49
	70	11.1	4.22299E-005	-1.05670E-005	0.00000E+000	5.34840E-005	0.00000E+000	9	...........	1426.40
	71	12.1	4.31620E-005	-1.04169E-005	0.00000E+000	5.34840E-005	0.00000E+000	9	...........	1426.40
	72	13.1	4.24492E-005	-1.01232E-005	0.00000E+000	5.34840E-005	0.00000E+000	9	...........	1426.40
	73	14.1	4.19956E-005	-9.71768E-006	0.00000E+000	5.34840E-005	0.00000E+000	9	...........	1426.40
	74	15.1	4.10004E-005	-9.50082E-006	0.00000E+000	5.34840E-005	0.00000E+000	9	...........	1426.40
	75	16.1	4.07461E-005	-9.44350E-006	0.00000E+000	5.34840E-005	0.00000E+000	9	...........	1426.40
	76	26.1	4.11776E-005	-8.34293E-006	0.00000E+000	5.34840E-005	0.00000E+000	9	...........	1426.40
	77	36.1	4.25593E-005	-7.99770E-006	0.00000E+000	5.34840E-005	0.00000E+000	9	...........	1426.40
	78	46.1	4.28096E-005	-7.83333E-006	0.00000E+000	5.34840E-005	0.00000E+000	9	...........	1426.40
	79	56.1	4.18895E-005	-7.40005E-006	0.00000E+000	5.34840E-005	0.00000E+000	9	...........	1426.40
	80	66.1	4.21728E-005	-7.12844E-006	0.00000E+000	5.34840E-005	0.00000E+000	9	...........	1426.40
	81	76.1	4.14369E-005	-7.34743E-006	0.00000E+000	5.34840E-005	0.00000E+000	9	...........	1426.40
	82	86.1	4.27565E-005	-6.99690E-006	0.00000E+000	5.34840E-005	0.00000E+000	9	...........	1426.49
	83	96.1	4.41903E-005	-7.08743E-006	0.00000E+000	5.34840E-005	0.00000E+000	9	...........	1426.40
	84	106.1	4.24812E-005	-7.28767E-006	0.00000E+000	5.34840E-005	0.00000E+000	9	...........	1426.40
	85	116.1	4.18214E-005	-6.85633E-006	0.00000E+000	5.34840E-005	0.00000E+000	9	...........	1426.40
	86	216.1	4.35776E-005	-6.91896E-006	0.00000E+000	5.34840E-005	0.00000E+000	9	...........	1426.40
	87	300	4.32712E-005	-6.68231E-006	0.00000E+000	5.34840E-005	0.00000E+000	9	...........	1426.40
	88	300.1	-3.29270E-002	-2.74715E-004	0.00000E+000	-9.99460E-002	0.00000E+000	9	.........v.	1426.40
	89	300.2	-9.99837E-002	-1.49733E-004	0.00000E+000	-9.99460E-002	0.00000E+000	9	...........	1426.40
	90	300.3	-9.99842E-002	-1.09104E-004	0.00000E+000	-9.99460E-002	0.00000E+000	9	...........	1426.40
	91	300.4	-9.99837E-002	-9.24861E-005	0.00000E+000	-9.99460E-002	0.00000E+000	9	...........	1426.40
	92	300.5	-9.99833E-002	-8.38853E-005	0.00000E+000	-9.99460E-002	0.00000E+000	9	...........	1426.40
	93	300.6	-9.99830E-002	-7.84420E-005	0.00000E+000	-9.99460E-002	0.00000E+000	9	...........	1426.40
	94	300.7	-9.99832E-002	-7.45110E-005	0.00000E+000	-9.99460E-002	0.00000E+000	9	...........	1426.40
	95	300.8	-9.99811E-002	-7.14005E-005	0.00000E+000	-9.99460E-002	0.00000E+000	9	...........	1426.40
	96	300.9	-9.99834E-002	-6.88650E-005	0.00000E+000	-9.99460E-002	0.00000E+000	9	...........	1426.40
	97	301	-9.99822E-002	-6.66471E-005	0.00000E+000	-9.99460E-002	0.00000E+000	9	...........	1426.40
