EXPLAIN
TAG	CHRONOA
TITLE	LABEL	Chronoamperometry Scan	Test Identifier
DATE	LABEL	27/1/2022	Date
TIME	LABEL	17:25:34	Time
NOTES	NOTES	1	Notes...
	
PSTAT	PSTAT	IFC1010-21051	Potentiostat
VPRESTEP	POTEN	-3.00000E-001	F	Pre-step Voltage (V)
TPRESTEP	QUANT	5.00000E-001	Pre-step Delay Time (s)
VSTEP1	POTEN	-4.00000E-001	F	Step 1 Voltage (V)
TSTEP1	QUANT	3.00000E+002	Step 1 Time (s)
VSTEP2	POTEN	-5.00000E-001	F	Step 2 Voltage (V)
TSTEP2	QUANT	1.00000E+000	Step 2 Time (s)
SAMPLETIME	QUANT	1.00000E-001	Sample Period (s)
DECIMATE	TOGGLE	T	Decimate
ILIMIT	QUANT	1.00000E+000	Limit I (mA/cm^2)
IMODE	SELECTOR	1	I/E Range Mode
IRANGE	QUANT	3.00000E-001	Max Current (mA)
EQDELAY	QUANT	5.00000E+000	Equil. Time (s)
SAMPLINGMODE	SELECTOR	1	Sampling Mode
AREA	QUANT	1.00000E+000	Sample Area (cm^2)
IRCOMP	SELECTOR	0	IRComp
PFCOR	QUANT	5.00000E+001	PF Corr. (ohm)
SEQUENCER	TOGGLE	TRUE	Run as Sequence
PSTATMODEL	IQUANT	64	Pstat Model
PSTATSECTION	LABEL	IFC1010-21051	Pstat Section
PSTATSERIALNO	LABEL	21051	Pstat Serial Number
CTRLMODE	IQUANT	1	Control Mode
ELECTROMETER	IQUANT	0	RE=0 or CS=1
IESTAB	IQUANT	0	I/E Stability
CASPEED	IQUANT	4	Control Amp Speed
CONVENTION	IQUANT	1	Current Convention
ICHRANGE	IQUANT	2	Ich Range
ICHRANGEMODE	TOGGLE	T	Ich Auto Range
ICHOFFSETENABLE	TOGGLE	F	Ich Offset Enable
ICHOFFSET	QUANT	0	Ich Offset (V)
ICHFILTER	IQUANT	3	Ich Filter
VCHRANGE	IQUANT	3	Vch Range
VCHRANGEMODE	TOGGLE	T	Vch Auto Range
VCHOFFSETENABLE	TOGGLE	F	Vch Offset Enable
VCHOFFSET	QUANT	0	Vch Offset (V)
VCHFILTER	IQUANT	3	Vch Filter
IERANGELOWERLIMIT	IQUANT	4	I/E Range Lower Limit
IERANGEMODE	TOGGLE	F	I/E AutoRange
IERANGE	IQUANT	9	I/E Range
ACHSELECT	IQUANT	0	Ach Select
ACHRANGE	IQUANT	2	Ach Range
ACHOFFSETENABLE	TOGGLE	F	Ach Offset Enable
ACHOFFSET	QUANT	0	Ach Offset (V)
ACHFILTER	IQUANT	1	Ach Filter
SENSECABLEID	IQUANT	14	Sense Cable ID
PWRCABLEID	IQUANT	14	Power Cable ID
DCCALDATE	LABEL	1/24/2022	DC Calibration Date
ACCALDATE	LABEL	4/2/2018	AC Calibration Date
FRAMEWORKVERSION	QUANT	7.06	Framework Version
INSTRUMENTVERSION	LABEL	4.30	Instrument Version
CURVE	TABLE	98
	Pt	T	Vf	Im	Vu	Sig	Ach	IERange	Over	Temp
	#	s	V vs. Ref.	A	V	V	V	#	bits	deg C
	0	-0.4	-3.01298E-001	-1.07218E-004	0.00000E+000	-3.00011E-001	0.00000E+000	9	...........	1426.13
	1	-0.3	-3.00685E-001	-1.06942E-004	0.00000E+000	-3.00011E-001	0.00000E+000	9	...........	1426.13
	2	-0.2	-3.00688E-001	-1.06719E-004	0.00000E+000	-3.00011E-001	0.00000E+000	9	...........	1426.13
	3	-0.1	-3.00680E-001	-1.06426E-004	0.00000E+000	-3.00011E-001	0.00000E+000	9	...........	1426.13
	4	0	-3.00704E-001	-1.06234E-004	0.00000E+000	-3.00011E-001	0.00000E+000	9	...........	1426.13
	5	0.1	-4.00734E-001	-5.03409E-004	0.00000E+000	-4.00011E-001	0.00000E+000	9	...........	1426.13
	6	0.2	-4.00734E-001	-4.16641E-004	0.00000E+000	-4.00011E-001	0.00000E+000	9	...........	1426.13
	7	0.3	-4.00733E-001	-3.79729E-004	0.00000E+000	-4.00011E-001	0.00000E+000	9	...........	1426.13
	8	0.4	-4.00741E-001	-3.59076E-004	0.00000E+000	-4.00011E-001	0.00000E+000	9	...........	1426.13
	9	0.5	-4.00732E-001	-3.45222E-004	0.00000E+000	-4.00011E-001	0.00000E+000	9	...........	1425.69
	10	0.6	-4.00734E-001	-3.34901E-004	0.00000E+000	-4.00011E-001	0.00000E+000	9	...........	1425.69
	11	0.7	-4.00731E-001	-3.26522E-004	0.00000E+000	-4.00011E-001	0.00000E+000	9	...........	1425.69
	12	0.8	-4.00729E-001	-3.19410E-004	0.00000E+000	-4.00011E-001	0.00000E+000	9	...........	1425.69
	13	0.9	-4.00729E-001	-3.13206E-004	0.00000E+000	-4.00011E-001	0.00000E+000	9	...........	1425.69
	14	1	-4.00733E-001	-3.07676E-004	0.00000E+000	-4.00011E-001	0.00000E+000	9	...........	1425.69
	15	1.1	-4.00733E-001	-3.02664E-004	0.00000E+000	-4.00011E-001	0.00000E+000	9	...........	1425.69
	16	1.2	-4.00729E-001	-2.98109E-004	0.00000E+000	-4.00011E-001	0.00000E+000	9	...........	1425.69
	17	1.3	-4.00732E-001	-2.93829E-004	0.00000E+000	-4.00011E-001	0.00000E+000	9	...........	1425.69
	18	1.4	-4.00733E-001	-2.89869E-004	0.00000E+000	-4.00011E-001	0.00000E+000	9	...........	1425.69
	19	1.5	-4.00736E-001	-2.86202E-004	0.00000E+000	-4.00011E-001	0.00000E+000	9	...........	1426.04
	20	1.6	-4.00749E-001	-2.82726E-004	0.00000E+000	-4.00011E-001	0.00000E+000	9	...........	1426.04
	21	1.7	-4.00739E-001	-2.79459E-004	0.00000E+000	-4.00011E-001	0.00000E+000	9	...........	1426.04
	22	1.8	-4.00722E-001	-2.76336E-004	0.00000E+000	-4.00011E-001	0.00000E+000	9	...........	1426.04
	23	1.9	-4.00738E-001	-2.73400E-004	0.00000E+000	-4.00011E-001	0.00000E+000	9	...........	1426.04
	24	2	-4.00736E-001	-2.70595E-004	0.00000E+000	-4.00011E-001	0.00000E+000	9	...........	1426.04
	25	2.1	-4.00733E-001	-2.67907E-004	0.00000E+000	-4.00011E-001	0.00000E+000	9	...........	1426.04
	26	2.2	-4.00729E-001	-2.65336E-004	0.00000E+000	-4.00011E-001	0.00000E+000	9	...........	1426.04
	27	2.3	-4.00733E-001	-2.62887E-004	0.00000E+000	-4.00011E-001	0.00000E+000	9	...........	1426.04
	28	2.4	-4.00723E-001	-2.60551E-004	0.00000E+000	-4.00011E-001	0.00000E+000	9	...........	1426.04
	29	2.5	-4.00726E-001	-2.58261E-004	0.00000E+000	-4.00011E-001	0.00000E+000	9	...........	1425.60
	30	2.6	-4.00747E-001	-2.56127E-004	0.00000E+000	-4.00011E-001	0.00000E+000	9	...........	1425.60
	31	2.7	-4.00725E-001	-2.53987E-004	0.00000E+000	-4.00011E-001	0.00000E+000	9	...........	1425.60
	32	2.8	-4.00727E-001	-2.51981E-004	0.00000E+000	-4.00011E-001	0.00000E+000	9	...........	1425.60
	33	2.9	-4.00736E-001	-2.50031E-004	0.00000E+000	-4.00011E-001	0.00000E+000	9	...........	1425.60
	34	3	-4.00726E-001	-2.48168E-004	0.00000E+000	-4.00011E-001	0.00000E+000	9	...........	1425.60
	35	3.1	-4.00724E-001	-2.46297E-004	0.00000E+000	-4.00011E-001	0.00000E+000	9	...........	1425.60
	36	3.2	-4.00723E-001	-2.44546E-004	0.00000E+000	-4.00011E-001	0.00000E+000	9	...........	1425.60
	37	3.3	-4.00736E-001	-2.42844E-004	0.00000E+000	-4.00011E-001	0.00000E+000	9	...........	1425.60
	38	3.4	-4.00732E-001	-2.41184E-004	0.00000E+000	-4.00011E-001	0.00000E+000	9	...........	1425.60
	39	3.5	-4.00727E-001	-2.39547E-004	0.00000E+000	-4.00011E-001	0.00000E+000	9	...........	1426.04
	40	3.6	-4.00726E-001	-2.37972E-004	0.00000E+000	-4.00011E-001	0.00000E+000	9	...........	1426.04
	41	3.7	-4.00731E-001	-2.36404E-004	0.00000E+000	-4.00011E-001	0.00000E+000	9	...........	1426.04
	42	3.8	-4.00738E-001	-2.34971E-004	0.00000E+000	-4.00011E-001	0.00000E+000	9	...........	1426.04
	43	3.9	-4.00718E-001	-2.33489E-004	0.00000E+000	-4.00011E-001	0.00000E+000	9	...........	1426.04
	44	4	-4.00711E-001	-2.32051E-004	0.00000E+000	-4.00011E-001	0.00000E+000	9	...........	1426.04
	45	4.1	-4.00727E-001	-2.30722E-004	0.00000E+000	-4.00011E-001	0.00000E+000	9	...........	1426.04
	46	4.2	-4.00735E-001	-2.29373E-004	0.00000E+000	-4.00011E-001	0.00000E+000	9	...........	1426.04
	47	4.3	-4.00728E-001	-2.28061E-004	0.00000E+000	-4.00011E-001	0.00000E+000	9	...........	1426.04
	48	4.4	-4.00736E-001	-2.26806E-004	0.00000E+000	-4.00011E-001	0.00000E+000	9	...........	1426.04
	49	4.5	-4.00725E-001	-2.25520E-004	0.00000E+000	-4.00011E-001	0.00000E+000	9	...........	1425.69
	50	4.6	-4.00738E-001	-2.24302E-004	0.00000E+000	-4.00011E-001	0.00000E+000	9	...........	1425.69
	51	4.7	-4.00734E-001	-2.23119E-004	0.00000E+000	-4.00011E-001	0.00000E+000	9	...........	1425.69
	52	4.8	-4.00730E-001	-2.21951E-004	0.00000E+000	-4.00011E-001	0.00000E+000	9	...........	1425.69
	53	4.9	-4.00746E-001	-2.20856E-004	0.00000E+000	-4.00011E-001	0.00000E+000	9	...........	1425.69
	54	5	-4.00737E-001	-2.19737E-004	0.00000E+000	-4.00011E-001	0.00000E+000	9	...........	1425.69
	55	5.1	-4.00731E-001	-2.18581E-004	0.00000E+000	-4.00011E-001	0.00000E+000	9	...........	1425.69
	56	5.2	-4.00740E-001	-2.17583E-004	0.00000E+000	-4.00011E-001	0.00000E+000	9	...........	1425.69
	57	5.3	-4.00726E-001	-2.16520E-004	0.00000E+000	-4.00011E-001	0.00000E+000	9	...........	1425.69
	58	5.4	-4.00733E-001	-2.15446E-004	0.00000E+000	-4.00011E-001	0.00000E+000	9	...........	1425.69
	59	5.5	-4.00718E-001	-2.14453E-004	0.00000E+000	-4.00011E-001	0.00000E+000	9	...........	1426.04
	60	5.6	-4.00722E-001	-2.13467E-004	0.00000E+000	-4.00011E-001	0.00000E+000	9	...........	1426.04
	61	5.7	-4.00733E-001	-2.12493E-004	0.00000E+000	-4.00011E-001	0.00000E+000	9	...........	1426.04
	62	5.8	-4.00730E-001	-2.11576E-004	0.00000E+000	-4.00011E-001	0.00000E+000	9	...........	1426.04
	63	5.9	-4.00721E-001	-2.10618E-004	0.00000E+000	-4.00011E-001	0.00000E+000	9	...........	1426.04
	64	6	-4.00740E-001	-2.09728E-004	0.00000E+000	-4.00011E-001	0.00000E+000	9	...........	1426.04
	65	6.1	-4.00726E-001	-2.08777E-004	0.00000E+000	-4.00011E-001	0.00000E+000	9	...........	1426.04
	66	7.1	-4.00745E-001	-2.00517E-004	0.00000E+000	-4.00011E-001	0.00000E+000	9	...........	1426.04
	67	8.1	-4.00729E-001	-1.93499E-004	0.00000E+000	-4.00011E-001	0.00000E+000	9	...........	1426.13
	68	9.1	-4.00727E-001	-1.87367E-004	0.00000E+000	-4.00011E-001	0.00000E+000	9	...........	1426.13
	69	10.1	-4.00733E-001	-1.82030E-004	0.00000E+000	-4.00011E-001	0.00000E+000	9	...........	1426.13
	70	11.1	-4.00728E-001	-1.77392E-004	0.00000E+000	-4.00011E-001	0.00000E+000	9	...........	1426.13
	71	12.1	-4.00725E-001	-1.73204E-004	0.00000E+000	-4.00011E-001	0.00000E+000	9	...........	1426.13
	72	13.1	-4.00725E-001	-1.69418E-004	0.00000E+000	-4.00011E-001	0.00000E+000	9	...........	1426.13
	73	14.1	-4.00730E-001	-1.65970E-004	0.00000E+000	-4.00011E-001	0.00000E+000	9	...........	1426.13
	74	15.1	-4.00730E-001	-1.62754E-004	0.00000E+000	-4.00011E-001	0.00000E+000	9	...........	1426.13
	75	16.1	-4.00738E-001	-1.59749E-004	0.00000E+000	-4.00011E-001	0.00000E+000	9	...........	1426.13
	76	26.1	-4.00740E-001	-1.38671E-004	0.00000E+000	-4.00011E-001	0.00000E+000	9	...........	1426.13
	77	36.1	-4.00738E-001	-1.26636E-004	0.00000E+000	-4.00011E-001	0.00000E+000	9	...........	1426.13
	78	46.1	-4.00719E-001	-1.17992E-004	0.00000E+000	-4.00011E-001	0.00000E+000	9	...........	1426.22
	79	56.1	-4.00737E-001	-1.12276E-004	0.00000E+000	-4.00011E-001	0.00000E+000	9	...........	1426.22
	80	66.1	-4.00726E-001	-1.07272E-004	0.00000E+000	-4.00011E-001	0.00000E+000	9	...........	1426.22
	81	76.1	-4.00730E-001	-1.03802E-004	0.00000E+000	-4.00011E-001	0.00000E+000	9	...........	1426.22
	82	86.1	-4.00740E-001	-1.00850E-004	0.00000E+000	-4.00011E-001	0.00000E+000	9	...........	1426.22
	83	96.1	-4.00729E-001	-9.80360E-005	0.00000E+000	-4.00011E-001	0.00000E+000	9	...........	1426.22
	84	106.1	-4.00735E-001	-9.64312E-005	0.00000E+000	-4.00011E-001	0.00000E+000	9	...........	1426.22
	85	116.1	-4.00728E-001	-9.43961E-005	0.00000E+000	-4.00011E-001	0.00000E+000	9	...........	1426.22
	86	216.1	-4.00721E-001	-8.65856E-005	0.00000E+000	-4.00011E-001	0.00000E+000	9	...........	1426.22
	87	300	-4.00731E-001	-8.43444E-005	0.00000E+000	-4.00011E-001	0.00000E+000	9	...........	1426.22
	88	300.1	-5.00740E-001	-4.58181E-004	0.00000E+000	-5.00010E-001	0.00000E+000	9	...........	1426.22
	89	300.2	-5.00739E-001	-3.48296E-004	0.00000E+000	-5.00010E-001	0.00000E+000	9	...........	1426.22
	90	300.3	-5.00729E-001	-2.98019E-004	0.00000E+000	-5.00010E-001	0.00000E+000	9	...........	1426.22
	91	300.4	-5.00731E-001	-2.69323E-004	0.00000E+000	-5.00010E-001	0.00000E+000	9	...........	1426.22
	92	300.5	-5.00734E-001	-2.50488E-004	0.00000E+000	-5.00010E-001	0.00000E+000	9	...........	1426.22
	93	300.6	-5.00724E-001	-2.36831E-004	0.00000E+000	-5.00010E-001	0.00000E+000	9	...........	1426.22
	94	300.7	-5.00727E-001	-2.26567E-004	0.00000E+000	-5.00010E-001	0.00000E+000	9	...........	1426.22
	95	300.8	-5.00737E-001	-2.18346E-004	0.00000E+000	-5.00010E-001	0.00000E+000	9	...........	1426.22
	96	300.9	-5.00746E-001	-2.11517E-004	0.00000E+000	-5.00010E-001	0.00000E+000	9	...........	1426.22
	97	301	-5.00739E-001	-2.05743E-004	0.00000E+000	-5.00010E-001	0.00000E+000	9	...........	1426.22
