EXPLAIN
TAG	CHRONOA
TITLE	LABEL	Chronoamperometry Scan	Test Identifier
DATE	LABEL	27/1/2022	Date
TIME	LABEL	17:04:02	Time
NOTES	NOTES	1	Notes...
	
PSTAT	PSTAT	IFC1010-21051	Potentiostat
VPRESTEP	POTEN	1.00000E-002	F	Pre-step Voltage (V)
TPRESTEP	QUANT	5.00000E-001	Pre-step Delay Time (s)
VSTEP1	POTEN	0.00000E+000	F	Step 1 Voltage (V)
TSTEP1	QUANT	3.00000E+002	Step 1 Time (s)
VSTEP2	POTEN	-1.00000E-001	T	Step 2 Voltage (V)
TSTEP2	QUANT	1.00000E+000	Step 2 Time (s)
SAMPLETIME	QUANT	1.00000E-001	Sample Period (s)
DECIMATE	TOGGLE	T	Decimate
ILIMIT	QUANT	1.00000E+000	Limit I (mA/cm^2)
IMODE	SELECTOR	1	I/E Range Mode
IRANGE	QUANT	3.00000E-001	Max Current (mA)
EQDELAY	QUANT	5.00000E+000	Equil. Time (s)
SAMPLINGMODE	SELECTOR	1	Sampling Mode
AREA	QUANT	1.00000E+000	Sample Area (cm^2)
IRCOMP	SELECTOR	0	IRComp
PFCOR	QUANT	5.00000E+001	PF Corr. (ohm)
SEQUENCER	TOGGLE	TRUE	Run as Sequence
PSTATMODEL	IQUANT	64	Pstat Model
PSTATSECTION	LABEL	IFC1010-21051	Pstat Section
PSTATSERIALNO	LABEL	21051	Pstat Serial Number
CTRLMODE	IQUANT	1	Control Mode
ELECTROMETER	IQUANT	0	RE=0 or CS=1
IESTAB	IQUANT	0	I/E Stability
CASPEED	IQUANT	4	Control Amp Speed
CONVENTION	IQUANT	1	Current Convention
ICHRANGE	IQUANT	2	Ich Range
ICHRANGEMODE	TOGGLE	T	Ich Auto Range
ICHOFFSETENABLE	TOGGLE	F	Ich Offset Enable
ICHOFFSET	QUANT	0	Ich Offset (V)
ICHFILTER	IQUANT	3	Ich Filter
VCHRANGE	IQUANT	3	Vch Range
VCHRANGEMODE	TOGGLE	T	Vch Auto Range
VCHOFFSETENABLE	TOGGLE	F	Vch Offset Enable
VCHOFFSET	QUANT	0	Vch Offset (V)
VCHFILTER	IQUANT	3	Vch Filter
IERANGELOWERLIMIT	IQUANT	4	I/E Range Lower Limit
IERANGEMODE	TOGGLE	F	I/E AutoRange
IERANGE	IQUANT	9	I/E Range
ACHSELECT	IQUANT	0	Ach Select
ACHRANGE	IQUANT	2	Ach Range
ACHOFFSETENABLE	TOGGLE	F	Ach Offset Enable
ACHOFFSET	QUANT	0	Ach Offset (V)
ACHFILTER	IQUANT	1	Ach Filter
SENSECABLEID	IQUANT	14	Sense Cable ID
PWRCABLEID	IQUANT	14	Power Cable ID
DCCALDATE	LABEL	1/24/2022	DC Calibration Date
ACCALDATE	LABEL	4/2/2018	AC Calibration Date
FRAMEWORKVERSION	QUANT	7.06	Framework Version
INSTRUMENTVERSION	LABEL	4.30	Instrument Version
CURVE	TABLE	98
	Pt	T	Vf	Im	Vu	Sig	Ach	IERange	Over	Temp
	#	s	V vs. Ref.	A	V	V	V	#	bits	deg C
	0	-0.4	9.24953E-003	-1.69764E-005	0.00000E+000	1.00559E-002	0.00000E+000	9	...........	1426.13
	1	-0.3	9.88681E-003	-1.68517E-005	0.00000E+000	1.00559E-002	0.00000E+000	9	...........	1426.13
	2	-0.2	1.00361E-002	-1.67219E-005	0.00000E+000	1.00559E-002	0.00000E+000	9	...........	1426.13
	3	-0.1	1.00514E-002	-1.65963E-005	0.00000E+000	1.00559E-002	0.00000E+000	9	...........	1426.13
	4	0	1.00502E-002	-1.64774E-005	0.00000E+000	1.00559E-002	0.00000E+000	9	...........	1426.13
	5	0.1	4.34534E-005	-4.83911E-005	0.00000E+000	5.34840E-005	0.00000E+000	9	...........	1426.13
	6	0.2	4.27055E-005	-3.53684E-005	0.00000E+000	5.34840E-005	0.00000E+000	9	...........	1426.13
	7	0.3	4.33633E-005	-2.91932E-005	0.00000E+000	5.34840E-005	0.00000E+000	9	...........	1426.13
	8	0.4	4.35715E-005	-2.59393E-005	0.00000E+000	5.34840E-005	0.00000E+000	9	...........	1426.13
	9	0.5	4.35385E-005	-2.40455E-005	0.00000E+000	5.34840E-005	0.00000E+000	9	...........	1426.13
	10	0.6	4.33172E-005	-2.28313E-005	0.00000E+000	5.34840E-005	0.00000E+000	9	...........	1426.13
	11	0.7	4.22319E-005	-2.19995E-005	0.00000E+000	5.34840E-005	0.00000E+000	9	...........	1425.78
	12	0.8	4.11285E-005	-2.13870E-005	0.00000E+000	5.34840E-005	0.00000E+000	9	...........	1425.78
	13	0.9	4.19906E-005	-2.09008E-005	0.00000E+000	5.34840E-005	0.00000E+000	9	...........	1425.78
	14	1	4.25052E-005	-2.05001E-005	0.00000E+000	5.34840E-005	0.00000E+000	9	...........	1425.78
	15	1.1	4.23100E-005	-2.01687E-005	0.00000E+000	5.34840E-005	0.00000E+000	9	...........	1425.78
	16	1.2	4.28246E-005	-1.98842E-005	0.00000E+000	5.34840E-005	0.00000E+000	9	...........	1425.78
	17	1.3	4.24952E-005	-1.96364E-005	0.00000E+000	5.34840E-005	0.00000E+000	9	...........	1425.78
	18	1.4	4.31150E-005	-1.93982E-005	0.00000E+000	5.34840E-005	0.00000E+000	9	...........	1425.78
	19	1.5	4.34344E-005	-1.91935E-005	0.00000E+000	5.34840E-005	0.00000E+000	9	...........	1425.78
	20	1.6	4.30139E-005	-1.89926E-005	0.00000E+000	5.34840E-005	0.00000E+000	9	...........	1425.78
	21	1.7	4.23120E-005	-1.88263E-005	0.00000E+000	5.34840E-005	0.00000E+000	9	...........	1426.49
	22	1.8	4.36046E-005	-1.86559E-005	0.00000E+000	5.34840E-005	0.00000E+000	9	...........	1426.49
	23	1.9	4.36116E-005	-1.84936E-005	0.00000E+000	5.34840E-005	0.00000E+000	9	...........	1426.49
	24	2	4.32041E-005	-1.83387E-005	0.00000E+000	5.34840E-005	0.00000E+000	9	...........	1426.49
	25	2.1	4.33042E-005	-1.81978E-005	0.00000E+000	5.34840E-005	0.00000E+000	9	...........	1426.49
	26	2.2	4.22699E-005	-1.80548E-005	0.00000E+000	5.34840E-005	0.00000E+000	9	...........	1426.49
	27	2.3	4.21918E-005	-1.79152E-005	0.00000E+000	5.34840E-005	0.00000E+000	9	...........	1426.49
	28	2.4	4.30669E-005	-1.77885E-005	0.00000E+000	5.34840E-005	0.00000E+000	9	...........	1426.49
	29	2.5	4.34344E-005	-1.76587E-005	0.00000E+000	5.34840E-005	0.00000E+000	9	...........	1426.49
	30	2.6	4.20296E-005	-1.75402E-005	0.00000E+000	5.34840E-005	0.00000E+000	9	...........	1426.49
	31	2.7	4.24321E-005	-1.74246E-005	0.00000E+000	5.34840E-005	0.00000E+000	9	...........	1426.22
	32	2.8	4.24462E-005	-1.73135E-005	0.00000E+000	5.34840E-005	0.00000E+000	9	...........	1426.22
	33	2.9	4.31370E-005	-1.72005E-005	0.00000E+000	5.34840E-005	0.00000E+000	9	...........	1426.22
	34	3	4.29327E-005	-1.70987E-005	0.00000E+000	5.34840E-005	0.00000E+000	9	...........	1426.22
	35	3.1	4.21828E-005	-1.70013E-005	0.00000E+000	5.34840E-005	0.00000E+000	9	...........	1426.22
	36	3.2	4.24502E-005	-1.69001E-005	0.00000E+000	5.34840E-005	0.00000E+000	9	...........	1426.22
	37	3.3	4.35285E-005	-1.67945E-005	0.00000E+000	5.34840E-005	0.00000E+000	9	...........	1426.22
	38	3.4	4.38659E-005	-1.66930E-005	0.00000E+000	5.34840E-005	0.00000E+000	9	...........	1426.22
	39	3.5	4.22789E-005	-1.66009E-005	0.00000E+000	5.34840E-005	0.00000E+000	9	...........	1426.22
	40	3.6	4.22369E-005	-1.64988E-005	0.00000E+000	5.34840E-005	0.00000E+000	9	...........	1426.22
	41	3.7	4.29197E-005	-1.63897E-005	0.00000E+000	5.34840E-005	0.00000E+000	9	...........	1426.49
	42	3.8	4.22179E-005	-1.62918E-005	0.00000E+000	5.34840E-005	0.00000E+000	9	...........	1426.49
	43	3.9	4.29458E-005	-1.61905E-005	0.00000E+000	5.34840E-005	0.00000E+000	9	...........	1426.49
	44	4	4.20386E-005	-1.60924E-005	0.00000E+000	5.34840E-005	0.00000E+000	9	...........	1426.49
	45	4.1	4.31200E-005	-1.59923E-005	0.00000E+000	5.34840E-005	0.00000E+000	9	...........	1426.49
	46	4.2	4.30088E-005	-1.59031E-005	0.00000E+000	5.34840E-005	0.00000E+000	9	...........	1426.49
	47	4.3	4.33372E-005	-1.58110E-005	0.00000E+000	5.34840E-005	0.00000E+000	9	...........	1426.49
	48	4.4	4.21127E-005	-1.57203E-005	0.00000E+000	5.34840E-005	0.00000E+000	9	...........	1426.49
	49	4.5	4.35375E-005	-1.56266E-005	0.00000E+000	5.34840E-005	0.00000E+000	9	...........	1426.49
	50	4.6	4.27775E-005	-1.55451E-005	0.00000E+000	5.34840E-005	0.00000E+000	9	...........	1426.49
	51	4.7	4.39560E-005	-1.54553E-005	0.00000E+000	5.34840E-005	0.00000E+000	9	...........	1425.95
	52	4.8	4.25853E-005	-1.53816E-005	0.00000E+000	5.34840E-005	0.00000E+000	9	...........	1425.95
	53	4.9	4.32892E-005	-1.53071E-005	0.00000E+000	5.34840E-005	0.00000E+000	9	...........	1425.95
	54	5	4.22018E-005	-1.52378E-005	0.00000E+000	5.34840E-005	0.00000E+000	9	...........	1425.95
	55	5.1	4.30909E-005	-1.51616E-005	0.00000E+000	5.34840E-005	0.00000E+000	9	...........	1425.95
	56	5.2	4.28256E-005	-1.50835E-005	0.00000E+000	5.34840E-005	0.00000E+000	9	...........	1425.95
	57	5.3	4.22239E-005	-1.50037E-005	0.00000E+000	5.34840E-005	0.00000E+000	9	...........	1425.95
	58	5.4	4.38559E-005	-1.49243E-005	0.00000E+000	5.34840E-005	0.00000E+000	9	...........	1425.95
	59	5.5	4.33212E-005	-1.48379E-005	0.00000E+000	5.34840E-005	0.00000E+000	9	...........	1425.95
	60	5.6	4.31540E-005	-1.47588E-005	0.00000E+000	5.34840E-005	0.00000E+000	9	...........	1425.95
	61	5.7	4.29528E-005	-1.46771E-005	0.00000E+000	5.34840E-005	0.00000E+000	9	...........	1426.40
	62	5.8	4.44356E-005	-1.46010E-005	0.00000E+000	5.34840E-005	0.00000E+000	9	...........	1426.40
	63	5.9	4.45257E-005	-1.45277E-005	0.00000E+000	5.34840E-005	0.00000E+000	9	...........	1426.40
	64	6	4.33162E-005	-1.44848E-005	0.00000E+000	5.34840E-005	0.00000E+000	9	...........	1426.40
	65	6.1	4.27315E-005	-1.44310E-005	0.00000E+000	5.34840E-005	0.00000E+000	9	...........	1426.40
	66	7.1	4.43695E-005	-1.39282E-005	0.00000E+000	5.34840E-005	0.00000E+000	9	...........	1426.04
	67	8.1	4.29307E-005	-1.35766E-005	0.00000E+000	5.34840E-005	0.00000E+000	9	...........	1426.49
	68	9.1	4.41022E-005	-1.31516E-005	0.00000E+000	5.34840E-005	0.00000E+000	9	...........	1426.49
	69	10.1	4.35094E-005	-1.27991E-005	0.00000E+000	5.34840E-005	0.00000E+000	9	...........	1426.49
	70	11.1	4.19045E-005	-1.26195E-005	0.00000E+000	5.34840E-005	0.00000E+000	9	...........	1426.49
	71	12.1	4.41332E-005	-1.24675E-005	0.00000E+000	5.34840E-005	0.00000E+000	9	...........	1426.49
	72	13.1	4.37608E-005	-1.22988E-005	0.00000E+000	5.34840E-005	0.00000E+000	9	...........	1426.49
	73	14.1	4.38939E-005	-1.20821E-005	0.00000E+000	5.34840E-005	0.00000E+000	9	...........	1426.49
	74	15.1	4.35665E-005	-1.17952E-005	0.00000E+000	5.34840E-005	0.00000E+000	9	...........	1426.49
	75	16.1	4.26384E-005	-1.16588E-005	0.00000E+000	5.34840E-005	0.00000E+000	9	...........	1426.49
	76	26.1	4.39920E-005	-1.04655E-005	0.00000E+000	5.34840E-005	0.00000E+000	9	...........	1426.49
	77	36.1	4.29638E-005	-9.79492E-006	0.00000E+000	5.34840E-005	0.00000E+000	9	...........	1426.49
	78	46.1	4.43925E-005	-9.41473E-006	0.00000E+000	5.34840E-005	0.00000E+000	9	...........	1426.40
	79	56.1	4.31090E-005	-9.15570E-006	0.00000E+000	5.34840E-005	0.00000E+000	9	...........	1426.40
	80	66.1	4.25673E-005	-8.98466E-006	0.00000E+000	5.34840E-005	0.00000E+000	9	...........	1426.49
	81	76.1	4.00752E-005	-8.87274E-006	0.00000E+000	5.34840E-005	0.00000E+000	9	...........	1426.49
	82	86.1	4.35545E-005	-8.77994E-006	0.00000E+000	5.34840E-005	0.00000E+000	9	...........	1426.49
	83	96.1	4.26234E-005	-8.73019E-006	0.00000E+000	5.34840E-005	0.00000E+000	9	...........	1426.49
	84	106.1	4.32561E-005	-8.66252E-006	0.00000E+000	5.34840E-005	0.00000E+000	9	...........	1426.49
	85	116.1	4.16812E-005	-8.61811E-006	0.00000E+000	5.34840E-005	0.00000E+000	9	...........	1426.49
	86	216.1	4.32972E-005	-7.83907E-006	0.00000E+000	5.34840E-005	0.00000E+000	9	...........	1426.49
	87	300	4.24832E-005	-7.96794E-006	0.00000E+000	5.34840E-005	0.00000E+000	9	...........	1426.49
	88	300.1	-3.29270E-002	-3.00793E-004	0.00000E+000	-9.99460E-002	0.00000E+000	9	.........v.	1426.49
	89	300.2	-9.99841E-002	-1.78439E-004	0.00000E+000	-9.99460E-002	0.00000E+000	9	...........	1426.49
	90	300.3	-9.99827E-002	-1.29351E-004	0.00000E+000	-9.99460E-002	0.00000E+000	9	...........	1426.49
	91	300.4	-9.99822E-002	-1.06022E-004	0.00000E+000	-9.99460E-002	0.00000E+000	9	...........	1426.49
	92	300.5	-9.99821E-002	-9.30624E-005	0.00000E+000	-9.99460E-002	0.00000E+000	9	...........	1426.49
	93	300.6	-9.99832E-002	-8.48400E-005	0.00000E+000	-9.99460E-002	0.00000E+000	9	...........	1426.49
	94	300.7	-9.99835E-002	-7.90293E-005	0.00000E+000	-9.99460E-002	0.00000E+000	9	...........	1426.49
	95	300.8	-9.99833E-002	-7.46136E-005	0.00000E+000	-9.99460E-002	0.00000E+000	9	...........	1426.49
	96	300.9	-9.99833E-002	-7.10831E-005	0.00000E+000	-9.99460E-002	0.00000E+000	9	...........	1426.49
	97	301	-9.99811E-002	-6.81346E-005	0.00000E+000	-9.99460E-002	0.00000E+000	9	...........	1426.49
