EXPLAIN
TAG	CHRONOA
TITLE	LABEL	Chronoamperometry Scan	Test Identifier
DATE	LABEL	27/1/2022	Date
TIME	LABEL	16:41:38	Time
NOTES	NOTES	1	Notes...
	
PSTAT	PSTAT	IFC1010-21051	Potentiostat
VPRESTEP	POTEN	-3.00000E-001	F	Pre-step Voltage (V)
TPRESTEP	QUANT	5.00000E-001	Pre-step Delay Time (s)
VSTEP1	POTEN	-4.00000E-001	F	Step 1 Voltage (V)
TSTEP1	QUANT	3.00000E+002	Step 1 Time (s)
VSTEP2	POTEN	-5.00000E-001	F	Step 2 Voltage (V)
TSTEP2	QUANT	1.00000E+000	Step 2 Time (s)
SAMPLETIME	QUANT	1.00000E-001	Sample Period (s)
DECIMATE	TOGGLE	T	Decimate
ILIMIT	QUANT	1.00000E+000	Limit I (mA/cm^2)
IMODE	SELECTOR	1	I/E Range Mode
IRANGE	QUANT	3.00000E-001	Max Current (mA)
EQDELAY	QUANT	5.00000E+000	Equil. Time (s)
SAMPLINGMODE	SELECTOR	1	Sampling Mode
AREA	QUANT	1.00000E+000	Sample Area (cm^2)
IRCOMP	SELECTOR	0	IRComp
PFCOR	QUANT	5.00000E+001	PF Corr. (ohm)
SEQUENCER	TOGGLE	TRUE	Run as Sequence
PSTATMODEL	IQUANT	64	Pstat Model
PSTATSECTION	LABEL	IFC1010-21051	Pstat Section
PSTATSERIALNO	LABEL	21051	Pstat Serial Number
CTRLMODE	IQUANT	1	Control Mode
ELECTROMETER	IQUANT	0	RE=0 or CS=1
IESTAB	IQUANT	0	I/E Stability
CASPEED	IQUANT	4	Control Amp Speed
CONVENTION	IQUANT	1	Current Convention
ICHRANGE	IQUANT	2	Ich Range
ICHRANGEMODE	TOGGLE	T	Ich Auto Range
ICHOFFSETENABLE	TOGGLE	F	Ich Offset Enable
ICHOFFSET	QUANT	0	Ich Offset (V)
ICHFILTER	IQUANT	3	Ich Filter
VCHRANGE	IQUANT	3	Vch Range
VCHRANGEMODE	TOGGLE	T	Vch Auto Range
VCHOFFSETENABLE	TOGGLE	F	Vch Offset Enable
VCHOFFSET	QUANT	0	Vch Offset (V)
VCHFILTER	IQUANT	3	Vch Filter
IERANGELOWERLIMIT	IQUANT	4	I/E Range Lower Limit
IERANGEMODE	TOGGLE	F	I/E AutoRange
IERANGE	IQUANT	9	I/E Range
ACHSELECT	IQUANT	0	Ach Select
ACHRANGE	IQUANT	2	Ach Range
ACHOFFSETENABLE	TOGGLE	F	Ach Offset Enable
ACHOFFSET	QUANT	0	Ach Offset (V)
ACHFILTER	IQUANT	1	Ach Filter
SENSECABLEID	IQUANT	14	Sense Cable ID
PWRCABLEID	IQUANT	14	Power Cable ID
DCCALDATE	LABEL	1/24/2022	DC Calibration Date
ACCALDATE	LABEL	4/2/2018	AC Calibration Date
FRAMEWORKVERSION	QUANT	7.06	Framework Version
INSTRUMENTVERSION	LABEL	4.30	Instrument Version
CURVE	TABLE	98
	Pt	T	Vf	Im	Vu	Sig	Ach	IERange	Over	Temp
	#	s	V vs. Ref.	A	V	V	V	#	bits	deg C
	0	-0.4	-3.01290E-001	-1.15302E-004	0.00000E+000	-3.00011E-001	0.00000E+000	9	...........	1426.13
	1	-0.3	-3.00683E-001	-1.15035E-004	0.00000E+000	-3.00011E-001	0.00000E+000	9	...........	1426.13
	2	-0.2	-3.00692E-001	-1.14791E-004	0.00000E+000	-3.00011E-001	0.00000E+000	9	...........	1426.13
	3	-0.1	-3.00684E-001	-1.14523E-004	0.00000E+000	-3.00011E-001	0.00000E+000	9	...........	1426.13
	4	0	-3.00694E-001	-1.14288E-004	0.00000E+000	-3.00011E-001	0.00000E+000	9	...........	1426.13
	5	0.1	-4.00727E-001	-5.39241E-004	0.00000E+000	-4.00011E-001	0.00000E+000	9	...........	1426.13
	6	0.2	-4.00740E-001	-4.51805E-004	0.00000E+000	-4.00011E-001	0.00000E+000	9	...........	1426.13
	7	0.3	-4.00737E-001	-4.07348E-004	0.00000E+000	-4.00011E-001	0.00000E+000	9	...........	1426.13
	8	0.4	-4.00739E-001	-3.80511E-004	0.00000E+000	-4.00011E-001	0.00000E+000	9	...........	1426.13
	9	0.5	-4.00732E-001	-3.62267E-004	0.00000E+000	-4.00011E-001	0.00000E+000	9	...........	1426.13
	10	0.6	-4.00744E-001	-3.48755E-004	0.00000E+000	-4.00011E-001	0.00000E+000	9	...........	1426.13
	11	0.7	-4.00741E-001	-3.38164E-004	0.00000E+000	-4.00011E-001	0.00000E+000	9	...........	1426.13
	12	0.8	-4.00731E-001	-3.29355E-004	0.00000E+000	-4.00011E-001	0.00000E+000	9	...........	1426.13
	13	0.9	-4.00739E-001	-3.21870E-004	0.00000E+000	-4.00011E-001	0.00000E+000	9	...........	1426.13
	14	1	-4.00733E-001	-3.15330E-004	0.00000E+000	-4.00011E-001	0.00000E+000	9	...........	1426.13
	15	1.1	-4.00732E-001	-3.09482E-004	0.00000E+000	-4.00011E-001	0.00000E+000	9	...........	1426.01
	16	1.2	-4.00724E-001	-3.04195E-004	0.00000E+000	-4.00011E-001	0.00000E+000	9	...........	1425.78
	17	1.3	-4.00723E-001	-2.99384E-004	0.00000E+000	-4.00011E-001	0.00000E+000	9	...........	1425.78
	18	1.4	-4.00717E-001	-2.94943E-004	0.00000E+000	-4.00011E-001	0.00000E+000	9	...........	1425.78
	19	1.5	-4.00724E-001	-2.90789E-004	0.00000E+000	-4.00011E-001	0.00000E+000	9	...........	1425.78
	20	1.6	-4.00713E-001	-2.86941E-004	0.00000E+000	-4.00011E-001	0.00000E+000	9	...........	1425.78
	21	1.7	-4.00729E-001	-2.83331E-004	0.00000E+000	-4.00011E-001	0.00000E+000	9	...........	1425.78
	22	1.8	-4.00711E-001	-2.79895E-004	0.00000E+000	-4.00011E-001	0.00000E+000	9	...........	1425.78
	23	1.9	-4.00735E-001	-2.76736E-004	0.00000E+000	-4.00011E-001	0.00000E+000	9	...........	1425.78
	24	2	-4.00732E-001	-2.73689E-004	0.00000E+000	-4.00011E-001	0.00000E+000	9	...........	1425.78
	25	2.1	-4.00722E-001	-2.70765E-004	0.00000E+000	-4.00011E-001	0.00000E+000	9	...........	1425.78
	26	2.2	-4.00741E-001	-2.68035E-004	0.00000E+000	-4.00011E-001	0.00000E+000	9	...........	1425.78
	27	2.3	-4.00733E-001	-2.65432E-004	0.00000E+000	-4.00011E-001	0.00000E+000	9	...........	1425.78
	28	2.4	-4.00730E-001	-2.62917E-004	0.00000E+000	-4.00011E-001	0.00000E+000	9	...........	1425.78
	29	2.5	-4.00735E-001	-2.60470E-004	0.00000E+000	-4.00011E-001	0.00000E+000	9	...........	1425.78
	30	2.6	-4.00731E-001	-2.58166E-004	0.00000E+000	-4.00011E-001	0.00000E+000	9	...........	1425.78
	31	2.7	-4.00728E-001	-2.55925E-004	0.00000E+000	-4.00011E-001	0.00000E+000	9	...........	1425.78
	32	2.8	-4.00729E-001	-2.53774E-004	0.00000E+000	-4.00011E-001	0.00000E+000	9	...........	1425.78
	33	2.9	-4.00723E-001	-2.51663E-004	0.00000E+000	-4.00011E-001	0.00000E+000	9	...........	1425.78
	34	3	-4.00739E-001	-2.49666E-004	0.00000E+000	-4.00011E-001	0.00000E+000	9	...........	1425.78
	35	3.1	-4.00730E-001	-2.47767E-004	0.00000E+000	-4.00011E-001	0.00000E+000	9	...........	1425.78
	36	3.2	-4.00733E-001	-2.45879E-004	0.00000E+000	-4.00011E-001	0.00000E+000	9	...........	1425.78
	37	3.3	-4.00730E-001	-2.44071E-004	0.00000E+000	-4.00011E-001	0.00000E+000	9	...........	1425.78
	38	3.4	-4.00721E-001	-2.42268E-004	0.00000E+000	-4.00011E-001	0.00000E+000	9	...........	1425.78
	39	3.5	-4.00723E-001	-2.40569E-004	0.00000E+000	-4.00011E-001	0.00000E+000	9	...........	1425.78
	40	3.6	-4.00738E-001	-2.38884E-004	0.00000E+000	-4.00011E-001	0.00000E+000	9	...........	1425.78
	41	3.7	-4.00746E-001	-2.37264E-004	0.00000E+000	-4.00011E-001	0.00000E+000	9	...........	1425.78
	42	3.8	-4.00731E-001	-2.35651E-004	0.00000E+000	-4.00011E-001	0.00000E+000	9	...........	1425.78
	43	3.9	-4.00738E-001	-2.34127E-004	0.00000E+000	-4.00011E-001	0.00000E+000	9	...........	1425.78
	44	4	-4.00733E-001	-2.32590E-004	0.00000E+000	-4.00011E-001	0.00000E+000	9	...........	1425.78
	45	4.1	-4.00724E-001	-2.31099E-004	0.00000E+000	-4.00011E-001	0.00000E+000	9	...........	1425.84
	46	4.2	-4.00734E-001	-2.29743E-004	0.00000E+000	-4.00011E-001	0.00000E+000	9	...........	1425.95
	47	4.3	-4.00732E-001	-2.28357E-004	0.00000E+000	-4.00011E-001	0.00000E+000	9	...........	1425.95
	48	4.4	-4.00728E-001	-2.27007E-004	0.00000E+000	-4.00011E-001	0.00000E+000	9	...........	1425.95
	49	4.5	-4.00736E-001	-2.25675E-004	0.00000E+000	-4.00011E-001	0.00000E+000	9	...........	1425.95
	50	4.6	-4.00734E-001	-2.24355E-004	0.00000E+000	-4.00011E-001	0.00000E+000	9	...........	1425.95
	51	4.7	-4.00739E-001	-2.23116E-004	0.00000E+000	-4.00011E-001	0.00000E+000	9	...........	1425.95
	52	4.8	-4.00735E-001	-2.21884E-004	0.00000E+000	-4.00011E-001	0.00000E+000	9	...........	1425.95
	53	4.9	-4.00731E-001	-2.20649E-004	0.00000E+000	-4.00011E-001	0.00000E+000	9	...........	1425.95
	54	5	-4.00731E-001	-2.19464E-004	0.00000E+000	-4.00011E-001	0.00000E+000	9	...........	1425.95
	55	5.1	-4.00722E-001	-2.18266E-004	0.00000E+000	-4.00011E-001	0.00000E+000	9	...........	1425.86
	56	5.2	-4.00732E-001	-2.17188E-004	0.00000E+000	-4.00011E-001	0.00000E+000	9	...........	1425.69
	57	5.3	-4.00718E-001	-2.16110E-004	0.00000E+000	-4.00011E-001	0.00000E+000	9	...........	1425.69
	58	5.4	-4.00729E-001	-2.15036E-004	0.00000E+000	-4.00011E-001	0.00000E+000	9	...........	1425.69
	59	5.5	-4.00735E-001	-2.14016E-004	0.00000E+000	-4.00011E-001	0.00000E+000	9	...........	1425.69
	60	5.6	-4.00725E-001	-2.12956E-004	0.00000E+000	-4.00011E-001	0.00000E+000	9	...........	1425.69
	61	5.7	-4.00732E-001	-2.11944E-004	0.00000E+000	-4.00011E-001	0.00000E+000	9	...........	1425.69
	62	5.8	-4.00729E-001	-2.10967E-004	0.00000E+000	-4.00011E-001	0.00000E+000	9	...........	1425.69
	63	5.9	-4.00743E-001	-2.09996E-004	0.00000E+000	-4.00011E-001	0.00000E+000	9	...........	1425.69
	64	6	-4.00724E-001	-2.09026E-004	0.00000E+000	-4.00011E-001	0.00000E+000	9	...........	1425.69
	65	6.1	-4.00738E-001	-2.08110E-004	0.00000E+000	-4.00011E-001	0.00000E+000	9	...........	1425.69
	66	7.1	-4.00729E-001	-1.99675E-004	0.00000E+000	-4.00011E-001	0.00000E+000	9	...........	1425.78
	67	8.1	-4.00725E-001	-1.92475E-004	0.00000E+000	-4.00011E-001	0.00000E+000	9	...........	1425.92
	68	9.1	-4.00746E-001	-1.86361E-004	0.00000E+000	-4.00011E-001	0.00000E+000	9	...........	1425.84
	69	10.1	-4.00739E-001	-1.81062E-004	0.00000E+000	-4.00011E-001	0.00000E+000	9	...........	1425.87
	70	11.1	-4.00737E-001	-1.76185E-004	0.00000E+000	-4.00011E-001	0.00000E+000	9	...........	1425.95
	71	12.1	-4.00732E-001	-1.71661E-004	0.00000E+000	-4.00011E-001	0.00000E+000	9	...........	1425.78
	72	13.1	-4.00738E-001	-1.67790E-004	0.00000E+000	-4.00011E-001	0.00000E+000	9	...........	1425.78
	73	14.1	-4.00729E-001	-1.64150E-004	0.00000E+000	-4.00011E-001	0.00000E+000	9	...........	1425.87
	74	15.1	-4.00710E-001	-1.60730E-004	0.00000E+000	-4.00011E-001	0.00000E+000	9	...........	1425.98
	75	16.1	-4.00727E-001	-1.57601E-004	0.00000E+000	-4.00011E-001	0.00000E+000	9	...........	1425.87
	76	26.1	-4.00729E-001	-1.36991E-004	0.00000E+000	-4.00011E-001	0.00000E+000	9	...........	1426.04
	77	36.1	-4.00731E-001	-1.24435E-004	0.00000E+000	-4.00011E-001	0.00000E+000	9	...........	1426.04
	78	46.1	-4.00731E-001	-1.16479E-004	0.00000E+000	-4.00011E-001	0.00000E+000	9	...........	1426.10
	79	56.1	-4.00735E-001	-1.10427E-004	0.00000E+000	-4.00011E-001	0.00000E+000	9	...........	1426.10
	80	66.1	-4.00735E-001	-1.05788E-004	0.00000E+000	-4.00011E-001	0.00000E+000	9	...........	1426.13
	81	76.1	-4.00731E-001	-1.01737E-004	0.00000E+000	-4.00011E-001	0.00000E+000	9	...........	1426.10
	82	86.1	-4.00730E-001	-9.90621E-005	0.00000E+000	-4.00011E-001	0.00000E+000	9	...........	1426.13
	83	96.1	-4.00734E-001	-9.64309E-005	0.00000E+000	-4.00011E-001	0.00000E+000	9	...........	1426.13
	84	106.1	-4.00749E-001	-9.42756E-005	0.00000E+000	-4.00011E-001	0.00000E+000	9	...........	1426.13
	85	116.1	-4.00732E-001	-9.22859E-005	0.00000E+000	-4.00011E-001	0.00000E+000	9	...........	1426.13
	86	216.1	-4.00723E-001	-8.26677E-005	0.00000E+000	-4.00011E-001	0.00000E+000	9	...........	1426.13
	87	300	-4.00733E-001	-7.92917E-005	0.00000E+000	-4.00011E-001	0.00000E+000	9	...........	1426.13
	88	300.1	-5.00738E-001	-4.62621E-004	0.00000E+000	-5.00010E-001	0.00000E+000	9	...........	1426.13
	89	300.2	-5.00737E-001	-3.51413E-004	0.00000E+000	-5.00010E-001	0.00000E+000	9	...........	1426.13
	90	300.3	-5.00748E-001	-2.94988E-004	0.00000E+000	-5.00010E-001	0.00000E+000	9	...........	1426.13
	91	300.4	-5.00733E-001	-2.61308E-004	0.00000E+000	-5.00010E-001	0.00000E+000	9	...........	1426.13
	92	300.5	-5.00742E-001	-2.39123E-004	0.00000E+000	-5.00010E-001	0.00000E+000	9	...........	1426.13
	93	300.6	-5.00724E-001	-2.23273E-004	0.00000E+000	-5.00010E-001	0.00000E+000	9	...........	1426.13
	94	300.7	-5.00739E-001	-2.11391E-004	0.00000E+000	-5.00010E-001	0.00000E+000	9	...........	1426.13
	95	300.8	-5.00740E-001	-2.02150E-004	0.00000E+000	-5.00010E-001	0.00000E+000	9	...........	1426.13
	96	300.9	-5.00748E-001	-1.94680E-004	0.00000E+000	-5.00010E-001	0.00000E+000	9	...........	1426.13
	97	301	-5.00729E-001	-1.88405E-004	0.00000E+000	-5.00010E-001	0.00000E+000	9	...........	1426.13
