EXPLAIN
TAG	CHRONOA
TITLE	LABEL	Chronoamperometry Scan	Test Identifier
DATE	LABEL	27/1/2022	Date
TIME	LABEL	14:36:41	Time
NOTES	NOTES	1	Notes...
	
PSTAT	PSTAT	IFC1010-21051	Potentiostat
VPRESTEP	POTEN	-3.00000E-001	F	Pre-step Voltage (V)
TPRESTEP	QUANT	5.00000E-001	Pre-step Delay Time (s)
VSTEP1	POTEN	-4.00000E-001	F	Step 1 Voltage (V)
TSTEP1	QUANT	3.00000E+002	Step 1 Time (s)
VSTEP2	POTEN	-5.00000E-001	F	Step 2 Voltage (V)
TSTEP2	QUANT	1.00000E+000	Step 2 Time (s)
SAMPLETIME	QUANT	1.00000E-001	Sample Period (s)
DECIMATE	TOGGLE	T	Decimate
ILIMIT	QUANT	1.00000E+000	Limit I (mA/cm^2)
IMODE	SELECTOR	1	I/E Range Mode
IRANGE	QUANT	3.00000E-001	Max Current (mA)
EQDELAY	QUANT	5.00000E+000	Equil. Time (s)
SAMPLINGMODE	SELECTOR	1	Sampling Mode
AREA	QUANT	1.00000E+000	Sample Area (cm^2)
IRCOMP	SELECTOR	0	IRComp
PFCOR	QUANT	5.00000E+001	PF Corr. (ohm)
SEQUENCER	TOGGLE	TRUE	Run as Sequence
PSTATMODEL	IQUANT	64	Pstat Model
PSTATSECTION	LABEL	IFC1010-21051	Pstat Section
PSTATSERIALNO	LABEL	21051	Pstat Serial Number
CTRLMODE	IQUANT	1	Control Mode
ELECTROMETER	IQUANT	0	RE=0 or CS=1
IESTAB	IQUANT	0	I/E Stability
CASPEED	IQUANT	4	Control Amp Speed
CONVENTION	IQUANT	1	Current Convention
ICHRANGE	IQUANT	2	Ich Range
ICHRANGEMODE	TOGGLE	T	Ich Auto Range
ICHOFFSETENABLE	TOGGLE	F	Ich Offset Enable
ICHOFFSET	QUANT	0	Ich Offset (V)
ICHFILTER	IQUANT	3	Ich Filter
VCHRANGE	IQUANT	3	Vch Range
VCHRANGEMODE	TOGGLE	T	Vch Auto Range
VCHOFFSETENABLE	TOGGLE	F	Vch Offset Enable
VCHOFFSET	QUANT	0	Vch Offset (V)
VCHFILTER	IQUANT	3	Vch Filter
IERANGELOWERLIMIT	IQUANT	4	I/E Range Lower Limit
IERANGEMODE	TOGGLE	F	I/E AutoRange
IERANGE	IQUANT	9	I/E Range
ACHSELECT	IQUANT	0	Ach Select
ACHRANGE	IQUANT	2	Ach Range
ACHOFFSETENABLE	TOGGLE	F	Ach Offset Enable
ACHOFFSET	QUANT	0	Ach Offset (V)
ACHFILTER	IQUANT	1	Ach Filter
SENSECABLEID	IQUANT	14	Sense Cable ID
PWRCABLEID	IQUANT	14	Power Cable ID
DCCALDATE	LABEL	1/24/2022	DC Calibration Date
ACCALDATE	LABEL	4/2/2018	AC Calibration Date
FRAMEWORKVERSION	QUANT	7.06	Framework Version
INSTRUMENTVERSION	LABEL	4.30	Instrument Version
CURVE	TABLE	98
	Pt	T	Vf	Im	Vu	Sig	Ach	IERange	Over	Temp
	#	s	V vs. Ref.	A	V	V	V	#	bits	deg C
	0	-0.4	-3.01286E-001	-1.18576E-004	0.00000E+000	-3.00011E-001	0.00000E+000	9	...........	1425.95
	1	-0.3	-3.00696E-001	-1.18236E-004	0.00000E+000	-3.00011E-001	0.00000E+000	9	...........	1425.95
	2	-0.2	-3.00690E-001	-1.17900E-004	0.00000E+000	-3.00011E-001	0.00000E+000	9	...........	1425.95
	3	-0.1	-3.00681E-001	-1.17550E-004	0.00000E+000	-3.00011E-001	0.00000E+000	9	...........	1425.95
	4	0	-3.00681E-001	-1.17203E-004	0.00000E+000	-3.00011E-001	0.00000E+000	9	...........	1425.95
	5	0.1	-4.00731E-001	-6.11850E-004	0.00000E+000	-4.00011E-001	0.00000E+000	9	...........	1425.95
	6	0.2	-4.00725E-001	-5.34257E-004	0.00000E+000	-4.00011E-001	0.00000E+000	9	...........	1425.95
	7	0.3	-4.00715E-001	-4.79886E-004	0.00000E+000	-4.00011E-001	0.00000E+000	9	...........	1425.95
	8	0.4	-4.00726E-001	-4.39991E-004	0.00000E+000	-4.00011E-001	0.00000E+000	9	...........	1425.95
	9	0.5	-4.00724E-001	-4.09665E-004	0.00000E+000	-4.00011E-001	0.00000E+000	9	...........	1425.95
	10	0.6	-4.00730E-001	-3.85887E-004	0.00000E+000	-4.00011E-001	0.00000E+000	9	...........	1425.95
	11	0.7	-4.00734E-001	-3.66759E-004	0.00000E+000	-4.00011E-001	0.00000E+000	9	...........	1425.95
	12	0.8	-4.00716E-001	-3.51058E-004	0.00000E+000	-4.00011E-001	0.00000E+000	9	...........	1425.95
	13	0.9	-4.00727E-001	-3.37967E-004	0.00000E+000	-4.00011E-001	0.00000E+000	9	...........	1425.95
	14	1	-4.00735E-001	-3.26814E-004	0.00000E+000	-4.00011E-001	0.00000E+000	9	...........	1425.87
	15	1.1	-4.00733E-001	-3.17236E-004	0.00000E+000	-4.00011E-001	0.00000E+000	9	...........	1425.87
	16	1.2	-4.00724E-001	-3.08840E-004	0.00000E+000	-4.00011E-001	0.00000E+000	9	...........	1425.87
	17	1.3	-4.00712E-001	-3.01379E-004	0.00000E+000	-4.00011E-001	0.00000E+000	9	...........	1425.87
	18	1.4	-4.00726E-001	-2.94785E-004	0.00000E+000	-4.00011E-001	0.00000E+000	9	...........	1425.87
	19	1.5	-4.00732E-001	-2.88846E-004	0.00000E+000	-4.00011E-001	0.00000E+000	9	...........	1425.87
	20	1.6	-4.00721E-001	-2.83416E-004	0.00000E+000	-4.00011E-001	0.00000E+000	9	...........	1425.87
	21	1.7	-4.00730E-001	-2.78503E-004	0.00000E+000	-4.00011E-001	0.00000E+000	9	...........	1425.87
	22	1.8	-4.00722E-001	-2.73986E-004	0.00000E+000	-4.00011E-001	0.00000E+000	9	...........	1425.87
	23	1.9	-4.00729E-001	-2.69804E-004	0.00000E+000	-4.00011E-001	0.00000E+000	9	...........	1425.87
	24	2	-4.00719E-001	-2.65925E-004	0.00000E+000	-4.00011E-001	0.00000E+000	9	...........	1425.95
	25	2.1	-4.00720E-001	-2.62321E-004	0.00000E+000	-4.00011E-001	0.00000E+000	9	...........	1425.95
	26	2.2	-4.00725E-001	-2.58941E-004	0.00000E+000	-4.00011E-001	0.00000E+000	9	...........	1425.95
	27	2.3	-4.00735E-001	-2.55735E-004	0.00000E+000	-4.00011E-001	0.00000E+000	9	...........	1425.95
	28	2.4	-4.00720E-001	-2.52728E-004	0.00000E+000	-4.00011E-001	0.00000E+000	9	...........	1425.95
	29	2.5	-4.00728E-001	-2.49891E-004	0.00000E+000	-4.00011E-001	0.00000E+000	9	...........	1425.95
	30	2.6	-4.00726E-001	-2.47184E-004	0.00000E+000	-4.00011E-001	0.00000E+000	9	...........	1425.95
	31	2.7	-4.00720E-001	-2.44671E-004	0.00000E+000	-4.00011E-001	0.00000E+000	9	...........	1425.95
	32	2.8	-4.00722E-001	-2.42240E-004	0.00000E+000	-4.00011E-001	0.00000E+000	9	...........	1425.95
	33	2.9	-4.00725E-001	-2.39914E-004	0.00000E+000	-4.00011E-001	0.00000E+000	9	...........	1425.95
	34	3	-4.00729E-001	-2.37714E-004	0.00000E+000	-4.00011E-001	0.00000E+000	9	...........	1425.87
	35	3.1	-4.00742E-001	-2.35607E-004	0.00000E+000	-4.00011E-001	0.00000E+000	9	...........	1425.87
	36	3.2	-4.00726E-001	-2.33552E-004	0.00000E+000	-4.00011E-001	0.00000E+000	9	...........	1425.87
	37	3.3	-4.00718E-001	-2.31568E-004	0.00000E+000	-4.00011E-001	0.00000E+000	9	...........	1425.87
	38	3.4	-4.00724E-001	-2.29712E-004	0.00000E+000	-4.00011E-001	0.00000E+000	9	...........	1425.87
	39	3.5	-4.00717E-001	-2.27899E-004	0.00000E+000	-4.00011E-001	0.00000E+000	9	...........	1425.87
	40	3.6	-4.00729E-001	-2.26132E-004	0.00000E+000	-4.00011E-001	0.00000E+000	9	...........	1425.87
	41	3.7	-4.00736E-001	-2.24420E-004	0.00000E+000	-4.00011E-001	0.00000E+000	9	...........	1425.87
	42	3.8	-4.00725E-001	-2.22810E-004	0.00000E+000	-4.00011E-001	0.00000E+000	9	...........	1425.87
	43	3.9	-4.00733E-001	-2.21237E-004	0.00000E+000	-4.00011E-001	0.00000E+000	9	...........	1425.87
	44	4	-4.00724E-001	-2.19705E-004	0.00000E+000	-4.00011E-001	0.00000E+000	9	...........	1425.87
	45	4.1	-4.00728E-001	-2.18242E-004	0.00000E+000	-4.00011E-001	0.00000E+000	9	...........	1425.87
	46	4.2	-4.00741E-001	-2.16784E-004	0.00000E+000	-4.00011E-001	0.00000E+000	9	...........	1425.87
	47	4.3	-4.00718E-001	-2.15366E-004	0.00000E+000	-4.00011E-001	0.00000E+000	9	...........	1425.87
	48	4.4	-4.00724E-001	-2.14084E-004	0.00000E+000	-4.00011E-001	0.00000E+000	9	...........	1425.87
	49	4.5	-4.00732E-001	-2.12745E-004	0.00000E+000	-4.00011E-001	0.00000E+000	9	...........	1425.87
	50	4.6	-4.00741E-001	-2.11445E-004	0.00000E+000	-4.00011E-001	0.00000E+000	9	...........	1425.87
	51	4.7	-4.00733E-001	-2.10185E-004	0.00000E+000	-4.00011E-001	0.00000E+000	9	...........	1425.87
	52	4.8	-4.00732E-001	-2.09007E-004	0.00000E+000	-4.00011E-001	0.00000E+000	9	...........	1425.87
	53	4.9	-4.00723E-001	-2.07778E-004	0.00000E+000	-4.00011E-001	0.00000E+000	9	...........	1425.87
	54	5	-4.00729E-001	-2.06677E-004	0.00000E+000	-4.00011E-001	0.00000E+000	9	...........	1425.95
	55	5.1	-4.00722E-001	-2.05495E-004	0.00000E+000	-4.00011E-001	0.00000E+000	9	...........	1425.95
	56	5.2	-4.00730E-001	-2.04463E-004	0.00000E+000	-4.00011E-001	0.00000E+000	9	...........	1425.95
	57	5.3	-4.00723E-001	-2.03390E-004	0.00000E+000	-4.00011E-001	0.00000E+000	9	...........	1425.95
	58	5.4	-4.00723E-001	-2.02347E-004	0.00000E+000	-4.00011E-001	0.00000E+000	9	...........	1425.95
	59	5.5	-4.00702E-001	-2.01230E-004	0.00000E+000	-4.00011E-001	0.00000E+000	9	...........	1425.95
	60	5.6	-4.00733E-001	-2.00307E-004	0.00000E+000	-4.00011E-001	0.00000E+000	9	...........	1425.95
	61	5.7	-4.00736E-001	-1.99315E-004	0.00000E+000	-4.00011E-001	0.00000E+000	9	...........	1425.95
	62	5.8	-4.00723E-001	-1.98362E-004	0.00000E+000	-4.00011E-001	0.00000E+000	9	...........	1425.95
	63	5.9	-4.00730E-001	-1.97437E-004	0.00000E+000	-4.00011E-001	0.00000E+000	9	...........	1425.95
	64	6	-4.00718E-001	-1.96468E-004	0.00000E+000	-4.00011E-001	0.00000E+000	9	...........	1425.95
	65	6.1	-4.00718E-001	-1.95615E-004	0.00000E+000	-4.00011E-001	0.00000E+000	9	...........	1425.95
	66	7.1	-4.00732E-001	-1.87542E-004	0.00000E+000	-4.00011E-001	0.00000E+000	9	...........	1425.95
	67	8.1	-4.00727E-001	-1.80719E-004	0.00000E+000	-4.00011E-001	0.00000E+000	9	...........	1425.95
	68	9.1	-4.00718E-001	-1.74886E-004	0.00000E+000	-4.00011E-001	0.00000E+000	9	...........	1425.95
	69	10.1	-4.00731E-001	-1.69816E-004	0.00000E+000	-4.00011E-001	0.00000E+000	9	...........	1425.95
	70	11.1	-4.00724E-001	-1.65361E-004	0.00000E+000	-4.00011E-001	0.00000E+000	9	...........	1426.04
	71	12.1	-4.00721E-001	-1.61378E-004	0.00000E+000	-4.00011E-001	0.00000E+000	9	...........	1426.04
	72	13.1	-4.00735E-001	-1.57821E-004	0.00000E+000	-4.00011E-001	0.00000E+000	9	...........	1425.95
	73	14.1	-4.00730E-001	-1.54586E-004	0.00000E+000	-4.00011E-001	0.00000E+000	9	...........	1426.04
	74	15.1	-4.00736E-001	-1.51613E-004	0.00000E+000	-4.00011E-001	0.00000E+000	9	...........	1426.04
	75	16.1	-4.00716E-001	-1.48850E-004	0.00000E+000	-4.00011E-001	0.00000E+000	9	...........	1425.95
	76	26.1	-4.00721E-001	-1.30116E-004	0.00000E+000	-4.00011E-001	0.00000E+000	9	...........	1426.04
	77	36.1	-4.00733E-001	-1.19434E-004	0.00000E+000	-4.00011E-001	0.00000E+000	9	...........	1426.04
	78	46.1	-4.00719E-001	-1.11687E-004	0.00000E+000	-4.00011E-001	0.00000E+000	9	...........	1426.04
	79	56.1	-4.00717E-001	-1.06551E-004	0.00000E+000	-4.00011E-001	0.00000E+000	9	...........	1426.04
	80	66.1	-4.00721E-001	-1.02285E-004	0.00000E+000	-4.00011E-001	0.00000E+000	9	...........	1426.04
	81	76.1	-4.00728E-001	-9.86804E-005	0.00000E+000	-4.00011E-001	0.00000E+000	9	...........	1426.04
	82	86.1	-4.00723E-001	-9.59184E-005	0.00000E+000	-4.00011E-001	0.00000E+000	9	...........	1426.04
	83	96.1	-4.00730E-001	-9.35752E-005	0.00000E+000	-4.00011E-001	0.00000E+000	9	...........	1426.04
	84	106.1	-4.00730E-001	-9.14924E-005	0.00000E+000	-4.00011E-001	0.00000E+000	9	...........	1426.13
	85	116.1	-4.00727E-001	-8.98531E-005	0.00000E+000	-4.00011E-001	0.00000E+000	9	...........	1426.13
	86	216.1	-4.00725E-001	-8.09782E-005	0.00000E+000	-4.00011E-001	0.00000E+000	9	...........	1426.04
	87	300	-4.00739E-001	-7.73182E-005	0.00000E+000	-4.00011E-001	0.00000E+000	9	...........	1426.04
	88	300.1	-5.00732E-001	-5.45242E-004	0.00000E+000	-5.00010E-001	0.00000E+000	9	...........	1426.04
	89	300.2	-5.00712E-001	-4.51919E-004	0.00000E+000	-5.00010E-001	0.00000E+000	9	...........	1426.04
	90	300.3	-5.00728E-001	-3.87509E-004	0.00000E+000	-5.00010E-001	0.00000E+000	9	...........	1426.04
	91	300.4	-5.00728E-001	-3.40862E-004	0.00000E+000	-5.00010E-001	0.00000E+000	9	...........	1426.04
	92	300.5	-5.00725E-001	-3.06095E-004	0.00000E+000	-5.00010E-001	0.00000E+000	9	...........	1426.04
	93	300.6	-5.00741E-001	-2.79417E-004	0.00000E+000	-5.00010E-001	0.00000E+000	9	...........	1426.04
	94	300.7	-5.00735E-001	-2.58521E-004	0.00000E+000	-5.00010E-001	0.00000E+000	9	...........	1426.04
	95	300.8	-5.00732E-001	-2.41804E-004	0.00000E+000	-5.00010E-001	0.00000E+000	9	...........	1426.04
	96	300.9	-5.00725E-001	-2.28256E-004	0.00000E+000	-5.00010E-001	0.00000E+000	9	...........	1426.04
	97	301	-5.00735E-001	-2.16952E-004	0.00000E+000	-5.00010E-001	0.00000E+000	9	...........	1426.04
