EXPLAIN
TAG	CHRONOA
TITLE	LABEL	Chronoamperometry Scan	Test Identifier
DATE	LABEL	27/1/2022	Date
TIME	LABEL	15:18:07	Time
NOTES	NOTES	1	Notes...
	
PSTAT	PSTAT	IFC1010-21051	Potentiostat
VPRESTEP	POTEN	-3.00000E-001	F	Pre-step Voltage (V)
TPRESTEP	QUANT	5.00000E-001	Pre-step Delay Time (s)
VSTEP1	POTEN	-4.00000E-001	F	Step 1 Voltage (V)
TSTEP1	QUANT	3.00000E+002	Step 1 Time (s)
VSTEP2	POTEN	-5.00000E-001	F	Step 2 Voltage (V)
TSTEP2	QUANT	1.00000E+000	Step 2 Time (s)
SAMPLETIME	QUANT	1.00000E-001	Sample Period (s)
DECIMATE	TOGGLE	T	Decimate
ILIMIT	QUANT	1.00000E+000	Limit I (mA/cm^2)
IMODE	SELECTOR	1	I/E Range Mode
IRANGE	QUANT	3.00000E-001	Max Current (mA)
EQDELAY	QUANT	5.00000E+000	Equil. Time (s)
SAMPLINGMODE	SELECTOR	1	Sampling Mode
AREA	QUANT	1.00000E+000	Sample Area (cm^2)
IRCOMP	SELECTOR	0	IRComp
PFCOR	QUANT	5.00000E+001	PF Corr. (ohm)
SEQUENCER	TOGGLE	TRUE	Run as Sequence
PSTATMODEL	IQUANT	64	Pstat Model
PSTATSECTION	LABEL	IFC1010-21051	Pstat Section
PSTATSERIALNO	LABEL	21051	Pstat Serial Number
CTRLMODE	IQUANT	1	Control Mode
ELECTROMETER	IQUANT	0	RE=0 or CS=1
IESTAB	IQUANT	0	I/E Stability
CASPEED	IQUANT	4	Control Amp Speed
CONVENTION	IQUANT	1	Current Convention
ICHRANGE	IQUANT	2	Ich Range
ICHRANGEMODE	TOGGLE	T	Ich Auto Range
ICHOFFSETENABLE	TOGGLE	F	Ich Offset Enable
ICHOFFSET	QUANT	0	Ich Offset (V)
ICHFILTER	IQUANT	3	Ich Filter
VCHRANGE	IQUANT	3	Vch Range
VCHRANGEMODE	TOGGLE	T	Vch Auto Range
VCHOFFSETENABLE	TOGGLE	F	Vch Offset Enable
VCHOFFSET	QUANT	0	Vch Offset (V)
VCHFILTER	IQUANT	3	Vch Filter
IERANGELOWERLIMIT	IQUANT	4	I/E Range Lower Limit
IERANGEMODE	TOGGLE	F	I/E AutoRange
IERANGE	IQUANT	9	I/E Range
ACHSELECT	IQUANT	0	Ach Select
ACHRANGE	IQUANT	2	Ach Range
ACHOFFSETENABLE	TOGGLE	F	Ach Offset Enable
ACHOFFSET	QUANT	0	Ach Offset (V)
ACHFILTER	IQUANT	1	Ach Filter
SENSECABLEID	IQUANT	14	Sense Cable ID
PWRCABLEID	IQUANT	14	Power Cable ID
DCCALDATE	LABEL	1/24/2022	DC Calibration Date
ACCALDATE	LABEL	4/2/2018	AC Calibration Date
FRAMEWORKVERSION	QUANT	7.06	Framework Version
INSTRUMENTVERSION	LABEL	4.30	Instrument Version
CURVE	TABLE	98
	Pt	T	Vf	Im	Vu	Sig	Ach	IERange	Over	Temp
	#	s	V vs. Ref.	A	V	V	V	#	bits	deg C
	0	-0.4	-3.01260E-001	-1.20916E-004	0.00000E+000	-3.00011E-001	0.00000E+000	9	...........	1426.04
	1	-0.3	-3.00673E-001	-1.20562E-004	0.00000E+000	-3.00011E-001	0.00000E+000	9	...........	1426.04
	2	-0.2	-3.00671E-001	-1.20186E-004	0.00000E+000	-3.00011E-001	0.00000E+000	9	...........	1426.04
	3	-0.1	-3.00682E-001	-1.19881E-004	0.00000E+000	-3.00011E-001	0.00000E+000	9	...........	1426.04
	4	0	-3.00690E-001	-1.19526E-004	0.00000E+000	-3.00011E-001	0.00000E+000	9	...........	1426.04
	5	0.1	-4.00728E-001	-6.07281E-004	0.00000E+000	-4.00011E-001	0.00000E+000	9	...........	1426.04
	6	0.2	-4.00741E-001	-5.27870E-004	0.00000E+000	-4.00011E-001	0.00000E+000	9	...........	1426.04
	7	0.3	-4.00734E-001	-4.73785E-004	0.00000E+000	-4.00011E-001	0.00000E+000	9	...........	1426.04
	8	0.4	-4.00713E-001	-4.35059E-004	0.00000E+000	-4.00011E-001	0.00000E+000	9	...........	1426.04
	9	0.5	-4.00722E-001	-4.06250E-004	0.00000E+000	-4.00011E-001	0.00000E+000	9	...........	1425.68
	10	0.6	-4.00716E-001	-3.83957E-004	0.00000E+000	-4.00011E-001	0.00000E+000	9	...........	1425.60
	11	0.7	-4.00727E-001	-3.66319E-004	0.00000E+000	-4.00011E-001	0.00000E+000	9	...........	1425.60
	12	0.8	-4.00711E-001	-3.51805E-004	0.00000E+000	-4.00011E-001	0.00000E+000	9	...........	1425.60
	13	0.9	-4.00726E-001	-3.39731E-004	0.00000E+000	-4.00011E-001	0.00000E+000	9	...........	1425.60
	14	1	-4.00726E-001	-3.29520E-004	0.00000E+000	-4.00011E-001	0.00000E+000	9	...........	1425.60
	15	1.1	-4.00725E-001	-3.20648E-004	0.00000E+000	-4.00011E-001	0.00000E+000	9	...........	1425.60
	16	1.2	-4.00717E-001	-3.12876E-004	0.00000E+000	-4.00011E-001	0.00000E+000	9	...........	1425.60
	17	1.3	-4.00720E-001	-3.05971E-004	0.00000E+000	-4.00011E-001	0.00000E+000	9	...........	1425.60
	18	1.4	-4.00721E-001	-2.99815E-004	0.00000E+000	-4.00011E-001	0.00000E+000	9	...........	1425.60
	19	1.5	-4.00723E-001	-2.94265E-004	0.00000E+000	-4.00011E-001	0.00000E+000	9	...........	1425.82
	20	1.6	-4.00724E-001	-2.89183E-004	0.00000E+000	-4.00011E-001	0.00000E+000	9	...........	1425.87
	21	1.7	-4.00717E-001	-2.84489E-004	0.00000E+000	-4.00011E-001	0.00000E+000	9	...........	1425.87
	22	1.8	-4.00723E-001	-2.80179E-004	0.00000E+000	-4.00011E-001	0.00000E+000	9	...........	1425.87
	23	1.9	-4.00719E-001	-2.76163E-004	0.00000E+000	-4.00011E-001	0.00000E+000	9	...........	1425.87
	24	2	-4.00723E-001	-2.72458E-004	0.00000E+000	-4.00011E-001	0.00000E+000	9	...........	1425.87
	25	2.1	-4.00723E-001	-2.68979E-004	0.00000E+000	-4.00011E-001	0.00000E+000	9	...........	1425.87
	26	2.2	-4.00727E-001	-2.65681E-004	0.00000E+000	-4.00011E-001	0.00000E+000	9	...........	1425.87
	27	2.3	-4.00724E-001	-2.62562E-004	0.00000E+000	-4.00011E-001	0.00000E+000	9	...........	1425.87
	28	2.4	-4.00743E-001	-2.59632E-004	0.00000E+000	-4.00011E-001	0.00000E+000	9	...........	1425.87
	29	2.5	-4.00728E-001	-2.56853E-004	0.00000E+000	-4.00011E-001	0.00000E+000	9	...........	1425.87
	30	2.6	-4.00726E-001	-2.54207E-004	0.00000E+000	-4.00011E-001	0.00000E+000	9	...........	1425.87
	31	2.7	-4.00710E-001	-2.51660E-004	0.00000E+000	-4.00011E-001	0.00000E+000	9	...........	1425.87
	32	2.8	-4.00724E-001	-2.49291E-004	0.00000E+000	-4.00011E-001	0.00000E+000	9	...........	1425.87
	33	2.9	-4.00732E-001	-2.47003E-004	0.00000E+000	-4.00011E-001	0.00000E+000	9	...........	1425.87
	34	3	-4.00728E-001	-2.44806E-004	0.00000E+000	-4.00011E-001	0.00000E+000	9	...........	1425.87
	35	3.1	-4.00727E-001	-2.42670E-004	0.00000E+000	-4.00011E-001	0.00000E+000	9	...........	1425.87
	36	3.2	-4.00713E-001	-2.40622E-004	0.00000E+000	-4.00011E-001	0.00000E+000	9	...........	1425.87
	37	3.3	-4.00726E-001	-2.38654E-004	0.00000E+000	-4.00011E-001	0.00000E+000	9	...........	1425.87
	38	3.4	-4.00728E-001	-2.36733E-004	0.00000E+000	-4.00011E-001	0.00000E+000	9	...........	1425.87
	39	3.5	-4.00715E-001	-2.34932E-004	0.00000E+000	-4.00011E-001	0.00000E+000	9	...........	1425.87
	40	3.6	-4.00722E-001	-2.33174E-004	0.00000E+000	-4.00011E-001	0.00000E+000	9	...........	1425.87
	41	3.7	-4.00739E-001	-2.31456E-004	0.00000E+000	-4.00011E-001	0.00000E+000	9	...........	1425.87
	42	3.8	-4.00729E-001	-2.29809E-004	0.00000E+000	-4.00011E-001	0.00000E+000	9	...........	1425.87
	43	3.9	-4.00737E-001	-2.28242E-004	0.00000E+000	-4.00011E-001	0.00000E+000	9	...........	1425.87
	44	4	-4.00726E-001	-2.26671E-004	0.00000E+000	-4.00011E-001	0.00000E+000	9	...........	1425.87
	45	4.1	-4.00735E-001	-2.25163E-004	0.00000E+000	-4.00011E-001	0.00000E+000	9	...........	1425.87
	46	4.2	-4.00728E-001	-2.23733E-004	0.00000E+000	-4.00011E-001	0.00000E+000	9	...........	1425.87
	47	4.3	-4.00720E-001	-2.22281E-004	0.00000E+000	-4.00011E-001	0.00000E+000	9	...........	1425.87
	48	4.4	-4.00741E-001	-2.20929E-004	0.00000E+000	-4.00011E-001	0.00000E+000	9	...........	1425.87
	49	4.5	-4.00742E-001	-2.19584E-004	0.00000E+000	-4.00011E-001	0.00000E+000	9	...........	1425.87
	50	4.6	-4.00724E-001	-2.18278E-004	0.00000E+000	-4.00011E-001	0.00000E+000	9	...........	1425.87
	51	4.7	-4.00716E-001	-2.16956E-004	0.00000E+000	-4.00011E-001	0.00000E+000	9	...........	1425.87
	52	4.8	-4.00718E-001	-2.15714E-004	0.00000E+000	-4.00011E-001	0.00000E+000	9	...........	1425.87
	53	4.9	-4.00728E-001	-2.14543E-004	0.00000E+000	-4.00011E-001	0.00000E+000	9	...........	1425.87
	54	5	-4.00715E-001	-2.13327E-004	0.00000E+000	-4.00011E-001	0.00000E+000	9	...........	1425.87
	55	5.1	-4.00729E-001	-2.12167E-004	0.00000E+000	-4.00011E-001	0.00000E+000	9	...........	1425.87
	56	5.2	-4.00732E-001	-2.11036E-004	0.00000E+000	-4.00011E-001	0.00000E+000	9	...........	1425.87
	57	5.3	-4.00735E-001	-2.09905E-004	0.00000E+000	-4.00011E-001	0.00000E+000	9	...........	1425.87
	58	5.4	-4.00735E-001	-2.08819E-004	0.00000E+000	-4.00011E-001	0.00000E+000	9	...........	1425.87
	59	5.5	-4.00731E-001	-2.07771E-004	0.00000E+000	-4.00011E-001	0.00000E+000	9	...........	1425.87
	60	5.6	-4.00731E-001	-2.06723E-004	0.00000E+000	-4.00011E-001	0.00000E+000	9	...........	1425.87
	61	5.7	-4.00730E-001	-2.05684E-004	0.00000E+000	-4.00011E-001	0.00000E+000	9	...........	1425.87
	62	5.8	-4.00723E-001	-2.04671E-004	0.00000E+000	-4.00011E-001	0.00000E+000	9	...........	1425.87
	63	5.9	-4.00728E-001	-2.03693E-004	0.00000E+000	-4.00011E-001	0.00000E+000	9	...........	1425.87
	64	6	-4.00731E-001	-2.02759E-004	0.00000E+000	-4.00011E-001	0.00000E+000	9	...........	1425.87
	65	6.1	-4.00716E-001	-2.01832E-004	0.00000E+000	-4.00011E-001	0.00000E+000	9	...........	1425.87
	66	7.1	-4.00730E-001	-1.93424E-004	0.00000E+000	-4.00011E-001	0.00000E+000	9	...........	1425.87
	67	8.1	-4.00714E-001	-1.86383E-004	0.00000E+000	-4.00011E-001	0.00000E+000	9	...........	1425.87
	68	9.1	-4.00718E-001	-1.80444E-004	0.00000E+000	-4.00011E-001	0.00000E+000	9	...........	1425.87
	69	10.1	-4.00732E-001	-1.75234E-004	0.00000E+000	-4.00011E-001	0.00000E+000	9	...........	1425.95
	70	11.1	-4.00734E-001	-1.70584E-004	0.00000E+000	-4.00011E-001	0.00000E+000	9	...........	1425.87
	71	12.1	-4.00737E-001	-1.66309E-004	0.00000E+000	-4.00011E-001	0.00000E+000	9	...........	1425.95
	72	13.1	-4.00734E-001	-1.62653E-004	0.00000E+000	-4.00011E-001	0.00000E+000	9	...........	1425.95
	73	14.1	-4.00730E-001	-1.59235E-004	0.00000E+000	-4.00011E-001	0.00000E+000	9	...........	1425.95
	74	15.1	-4.00726E-001	-1.56019E-004	0.00000E+000	-4.00011E-001	0.00000E+000	9	...........	1425.95
	75	16.1	-4.00721E-001	-1.53070E-004	0.00000E+000	-4.00011E-001	0.00000E+000	9	...........	1425.95
	76	26.1	-4.00732E-001	-1.33380E-004	0.00000E+000	-4.00011E-001	0.00000E+000	9	...........	1425.95
	77	36.1	-4.00726E-001	-1.21546E-004	0.00000E+000	-4.00011E-001	0.00000E+000	9	...........	1425.95
	78	46.1	-4.00730E-001	-1.14033E-004	0.00000E+000	-4.00011E-001	0.00000E+000	9	...........	1425.95
	79	56.1	-4.00716E-001	-1.08214E-004	0.00000E+000	-4.00011E-001	0.00000E+000	9	...........	1425.95
	80	66.1	-4.00726E-001	-1.03525E-004	0.00000E+000	-4.00011E-001	0.00000E+000	9	...........	1425.95
	81	76.1	-4.00737E-001	-1.00298E-004	0.00000E+000	-4.00011E-001	0.00000E+000	9	...........	1425.95
	82	86.1	-4.00713E-001	-9.74732E-005	0.00000E+000	-4.00011E-001	0.00000E+000	9	...........	1425.95
	83	96.1	-4.00732E-001	-9.49064E-005	0.00000E+000	-4.00011E-001	0.00000E+000	9	...........	1425.95
	84	106.1	-4.00714E-001	-9.28635E-005	0.00000E+000	-4.00011E-001	0.00000E+000	9	...........	1426.04
	85	116.1	-4.00741E-001	-9.13087E-005	0.00000E+000	-4.00011E-001	0.00000E+000	9	...........	1426.04
	86	216.1	-4.00721E-001	-8.18987E-005	0.00000E+000	-4.00011E-001	0.00000E+000	9	...........	1426.04
	87	300	-4.00732E-001	-7.84591E-005	0.00000E+000	-4.00011E-001	0.00000E+000	9	...........	1426.04
	88	300.1	-5.00727E-001	-5.34844E-004	0.00000E+000	-5.00010E-001	0.00000E+000	9	...........	1426.04
	89	300.2	-5.00721E-001	-4.36622E-004	0.00000E+000	-5.00010E-001	0.00000E+000	9	...........	1426.04
	90	300.3	-5.00725E-001	-3.71020E-004	0.00000E+000	-5.00010E-001	0.00000E+000	9	...........	1426.04
	91	300.4	-5.00735E-001	-3.24921E-004	0.00000E+000	-5.00010E-001	0.00000E+000	9	...........	1426.04
	92	300.5	-5.00742E-001	-2.91257E-004	0.00000E+000	-5.00010E-001	0.00000E+000	9	...........	1426.04
	93	300.6	-5.00724E-001	-2.65937E-004	0.00000E+000	-5.00010E-001	0.00000E+000	9	...........	1426.04
	94	300.7	-5.00728E-001	-2.46327E-004	0.00000E+000	-5.00010E-001	0.00000E+000	9	...........	1426.04
	95	300.8	-5.00727E-001	-2.30845E-004	0.00000E+000	-5.00010E-001	0.00000E+000	9	...........	1426.04
	96	300.9	-5.00724E-001	-2.18268E-004	0.00000E+000	-5.00010E-001	0.00000E+000	9	...........	1426.04
	97	301	-5.00733E-001	-2.07926E-004	0.00000E+000	-5.00010E-001	0.00000E+000	9	...........	1426.04
