EXPLAIN
TAG	CHRONOA
TITLE	LABEL	Chronoamperometry Scan	Test Identifier
DATE	LABEL	27/1/2022	Date
TIME	LABEL	13:16:24	Time
NOTES	NOTES	1	Notes...
	
PSTAT	PSTAT	IFC1010-21051	Potentiostat
VPRESTEP	POTEN	-3.00000E-001	F	Pre-step Voltage (V)
TPRESTEP	QUANT	5.00000E-001	Pre-step Delay Time (s)
VSTEP1	POTEN	-4.00000E-001	F	Step 1 Voltage (V)
TSTEP1	QUANT	3.00000E+002	Step 1 Time (s)
VSTEP2	POTEN	-5.00000E-001	F	Step 2 Voltage (V)
TSTEP2	QUANT	1.00000E+000	Step 2 Time (s)
SAMPLETIME	QUANT	1.00000E-001	Sample Period (s)
DECIMATE	TOGGLE	T	Decimate
ILIMIT	QUANT	1.00000E+000	Limit I (mA/cm^2)
IMODE	SELECTOR	1	I/E Range Mode
IRANGE	QUANT	3.00000E-001	Max Current (mA)
EQDELAY	QUANT	5.00000E+000	Equil. Time (s)
SAMPLINGMODE	SELECTOR	1	Sampling Mode
AREA	QUANT	1.00000E+000	Sample Area (cm^2)
IRCOMP	SELECTOR	0	IRComp
PFCOR	QUANT	5.00000E+001	PF Corr. (ohm)
SEQUENCER	TOGGLE	TRUE	Run as Sequence
PSTATMODEL	IQUANT	64	Pstat Model
PSTATSECTION	LABEL	IFC1010-21051	Pstat Section
PSTATSERIALNO	LABEL	21051	Pstat Serial Number
CTRLMODE	IQUANT	1	Control Mode
ELECTROMETER	IQUANT	0	RE=0 or CS=1
IESTAB	IQUANT	0	I/E Stability
CASPEED	IQUANT	4	Control Amp Speed
CONVENTION	IQUANT	1	Current Convention
ICHRANGE	IQUANT	2	Ich Range
ICHRANGEMODE	TOGGLE	T	Ich Auto Range
ICHOFFSETENABLE	TOGGLE	F	Ich Offset Enable
ICHOFFSET	QUANT	0	Ich Offset (V)
ICHFILTER	IQUANT	3	Ich Filter
VCHRANGE	IQUANT	3	Vch Range
VCHRANGEMODE	TOGGLE	T	Vch Auto Range
VCHOFFSETENABLE	TOGGLE	F	Vch Offset Enable
VCHOFFSET	QUANT	0	Vch Offset (V)
VCHFILTER	IQUANT	3	Vch Filter
IERANGELOWERLIMIT	IQUANT	4	I/E Range Lower Limit
IERANGEMODE	TOGGLE	F	I/E AutoRange
IERANGE	IQUANT	9	I/E Range
ACHSELECT	IQUANT	0	Ach Select
ACHRANGE	IQUANT	2	Ach Range
ACHOFFSETENABLE	TOGGLE	F	Ach Offset Enable
ACHOFFSET	QUANT	0	Ach Offset (V)
ACHFILTER	IQUANT	1	Ach Filter
SENSECABLEID	IQUANT	14	Sense Cable ID
PWRCABLEID	IQUANT	14	Power Cable ID
DCCALDATE	LABEL	1/24/2022	DC Calibration Date
ACCALDATE	LABEL	4/2/2018	AC Calibration Date
FRAMEWORKVERSION	QUANT	7.06	Framework Version
INSTRUMENTVERSION	LABEL	4.30	Instrument Version
CURVE	TABLE	98
	Pt	T	Vf	Im	Vu	Sig	Ach	IERange	Over	Temp
	#	s	V vs. Ref.	A	V	V	V	#	bits	deg C
	0	-0.4	-3.01248E-001	-1.12348E-004	0.00000E+000	-3.00011E-001	0.00000E+000	9	...........	1425.87
	1	-0.3	-3.00676E-001	-1.11940E-004	0.00000E+000	-3.00011E-001	0.00000E+000	9	...........	1425.87
	2	-0.2	-3.00667E-001	-1.11511E-004	0.00000E+000	-3.00011E-001	0.00000E+000	9	...........	1425.87
	3	-0.1	-3.00686E-001	-1.11143E-004	0.00000E+000	-3.00011E-001	0.00000E+000	9	...........	1425.87
	4	0	-3.00686E-001	-1.10739E-004	0.00000E+000	-3.00011E-001	0.00000E+000	9	...........	1425.87
	5	0.1	-4.00726E-001	-6.05464E-004	0.00000E+000	-4.00011E-001	0.00000E+000	9	...........	1425.87
	6	0.2	-4.00728E-001	-5.32300E-004	0.00000E+000	-4.00011E-001	0.00000E+000	9	...........	1425.87
	7	0.3	-4.00727E-001	-4.79507E-004	0.00000E+000	-4.00011E-001	0.00000E+000	9	...........	1425.87
	8	0.4	-4.00710E-001	-4.39662E-004	0.00000E+000	-4.00011E-001	0.00000E+000	9	...........	1425.87
	9	0.5	-4.00717E-001	-4.08766E-004	0.00000E+000	-4.00011E-001	0.00000E+000	9	...........	1425.87
	10	0.6	-4.00722E-001	-3.84030E-004	0.00000E+000	-4.00011E-001	0.00000E+000	9	...........	1425.87
	11	0.7	-4.00716E-001	-3.63909E-004	0.00000E+000	-4.00011E-001	0.00000E+000	9	...........	1425.87
	12	0.8	-4.00726E-001	-3.47208E-004	0.00000E+000	-4.00011E-001	0.00000E+000	9	...........	1425.87
	13	0.9	-4.00714E-001	-3.33136E-004	0.00000E+000	-4.00011E-001	0.00000E+000	9	...........	1425.42
	14	1	-4.00722E-001	-3.21098E-004	0.00000E+000	-4.00011E-001	0.00000E+000	9	...........	1425.42
	15	1.1	-4.00723E-001	-3.10665E-004	0.00000E+000	-4.00011E-001	0.00000E+000	9	...........	1425.42
	16	1.2	-4.00732E-001	-3.01520E-004	0.00000E+000	-4.00011E-001	0.00000E+000	9	...........	1425.42
	17	1.3	-4.00736E-001	-2.93427E-004	0.00000E+000	-4.00011E-001	0.00000E+000	9	...........	1425.42
	18	1.4	-4.00720E-001	-2.86239E-004	0.00000E+000	-4.00011E-001	0.00000E+000	9	...........	1425.42
	19	1.5	-4.00725E-001	-2.79745E-004	0.00000E+000	-4.00011E-001	0.00000E+000	9	...........	1425.42
	20	1.6	-4.00729E-001	-2.73880E-004	0.00000E+000	-4.00011E-001	0.00000E+000	9	...........	1425.42
	21	1.7	-4.00729E-001	-2.68607E-004	0.00000E+000	-4.00011E-001	0.00000E+000	9	...........	1425.42
	22	1.8	-4.00711E-001	-2.63703E-004	0.00000E+000	-4.00011E-001	0.00000E+000	9	...........	1425.42
	23	1.9	-4.00713E-001	-2.59197E-004	0.00000E+000	-4.00011E-001	0.00000E+000	9	...........	1425.42
	24	2	-4.00709E-001	-2.55060E-004	0.00000E+000	-4.00011E-001	0.00000E+000	9	...........	1425.42
	25	2.1	-4.00724E-001	-2.51180E-004	0.00000E+000	-4.00011E-001	0.00000E+000	9	...........	1425.42
	26	2.2	-4.00717E-001	-2.47576E-004	0.00000E+000	-4.00011E-001	0.00000E+000	9	...........	1425.42
	27	2.3	-4.00719E-001	-2.44236E-004	0.00000E+000	-4.00011E-001	0.00000E+000	9	...........	1425.42
	28	2.4	-4.00720E-001	-2.41050E-004	0.00000E+000	-4.00011E-001	0.00000E+000	9	...........	1425.42
	29	2.5	-4.00718E-001	-2.38076E-004	0.00000E+000	-4.00011E-001	0.00000E+000	9	...........	1425.42
	30	2.6	-4.00720E-001	-2.35205E-004	0.00000E+000	-4.00011E-001	0.00000E+000	9	...........	1425.42
	31	2.7	-4.00726E-001	-2.32553E-004	0.00000E+000	-4.00011E-001	0.00000E+000	9	...........	1425.42
	32	2.8	-4.00726E-001	-2.30074E-004	0.00000E+000	-4.00011E-001	0.00000E+000	9	...........	1425.42
	33	2.9	-4.00726E-001	-2.27652E-004	0.00000E+000	-4.00011E-001	0.00000E+000	9	...........	1425.78
	34	3	-4.00722E-001	-2.25337E-004	0.00000E+000	-4.00011E-001	0.00000E+000	9	...........	1425.78
	35	3.1	-4.00721E-001	-2.23176E-004	0.00000E+000	-4.00011E-001	0.00000E+000	9	...........	1425.78
	36	3.2	-4.00714E-001	-2.21076E-004	0.00000E+000	-4.00011E-001	0.00000E+000	9	...........	1425.78
	37	3.3	-4.00725E-001	-2.19056E-004	0.00000E+000	-4.00011E-001	0.00000E+000	9	...........	1425.78
	38	3.4	-4.00716E-001	-2.17185E-004	0.00000E+000	-4.00011E-001	0.00000E+000	9	...........	1425.78
	39	3.5	-4.00726E-001	-2.15329E-004	0.00000E+000	-4.00011E-001	0.00000E+000	9	...........	1425.78
	40	3.6	-4.00720E-001	-2.13528E-004	0.00000E+000	-4.00011E-001	0.00000E+000	9	...........	1425.78
	41	3.7	-4.00712E-001	-2.11803E-004	0.00000E+000	-4.00011E-001	0.00000E+000	9	...........	1425.78
	42	3.8	-4.00721E-001	-2.10162E-004	0.00000E+000	-4.00011E-001	0.00000E+000	9	...........	1425.78
	43	3.9	-4.00718E-001	-2.08619E-004	0.00000E+000	-4.00011E-001	0.00000E+000	9	...........	1425.42
	44	4	-4.00711E-001	-2.07061E-004	0.00000E+000	-4.00011E-001	0.00000E+000	9	...........	1425.42
	45	4.1	-4.00720E-001	-2.05536E-004	0.00000E+000	-4.00011E-001	0.00000E+000	9	...........	1425.42
	46	4.2	-4.00718E-001	-2.04156E-004	0.00000E+000	-4.00011E-001	0.00000E+000	9	...........	1425.42
	47	4.3	-4.00718E-001	-2.02746E-004	0.00000E+000	-4.00011E-001	0.00000E+000	9	...........	1425.42
	48	4.4	-4.00725E-001	-2.01396E-004	0.00000E+000	-4.00011E-001	0.00000E+000	9	...........	1425.42
	49	4.5	-4.00720E-001	-2.00053E-004	0.00000E+000	-4.00011E-001	0.00000E+000	9	...........	1425.42
	50	4.6	-4.00733E-001	-1.98789E-004	0.00000E+000	-4.00011E-001	0.00000E+000	9	...........	1425.42
	51	4.7	-4.00726E-001	-1.97547E-004	0.00000E+000	-4.00011E-001	0.00000E+000	9	...........	1425.42
	52	4.8	-4.00716E-001	-1.96330E-004	0.00000E+000	-4.00011E-001	0.00000E+000	9	...........	1425.42
	53	4.9	-4.00713E-001	-1.95194E-004	0.00000E+000	-4.00011E-001	0.00000E+000	9	...........	1425.78
	54	5	-4.00736E-001	-1.94089E-004	0.00000E+000	-4.00011E-001	0.00000E+000	9	...........	1425.78
	55	5.1	-4.00726E-001	-1.92976E-004	0.00000E+000	-4.00011E-001	0.00000E+000	9	...........	1425.78
	56	5.2	-4.00727E-001	-1.91922E-004	0.00000E+000	-4.00011E-001	0.00000E+000	9	...........	1425.78
	57	5.3	-4.00724E-001	-1.90876E-004	0.00000E+000	-4.00011E-001	0.00000E+000	9	...........	1425.78
	58	5.4	-4.00730E-001	-1.89832E-004	0.00000E+000	-4.00011E-001	0.00000E+000	9	...........	1425.78
	59	5.5	-4.00723E-001	-1.88882E-004	0.00000E+000	-4.00011E-001	0.00000E+000	9	...........	1425.78
	60	5.6	-4.00713E-001	-1.87888E-004	0.00000E+000	-4.00011E-001	0.00000E+000	9	...........	1425.78
	61	5.7	-4.00727E-001	-1.86950E-004	0.00000E+000	-4.00011E-001	0.00000E+000	9	...........	1425.78
	62	5.8	-4.00715E-001	-1.85999E-004	0.00000E+000	-4.00011E-001	0.00000E+000	9	...........	1425.78
	63	5.9	-4.00720E-001	-1.85144E-004	0.00000E+000	-4.00011E-001	0.00000E+000	9	...........	1425.42
	64	6	-4.00724E-001	-1.84234E-004	0.00000E+000	-4.00011E-001	0.00000E+000	9	...........	1425.42
	65	6.1	-4.00722E-001	-1.83342E-004	0.00000E+000	-4.00011E-001	0.00000E+000	9	...........	1425.42
	66	7.1	-4.00730E-001	-1.75575E-004	0.00000E+000	-4.00011E-001	0.00000E+000	9	...........	1425.42
	67	8.1	-4.00721E-001	-1.69109E-004	0.00000E+000	-4.00011E-001	0.00000E+000	9	...........	1425.87
	68	9.1	-4.00731E-001	-1.63609E-004	0.00000E+000	-4.00011E-001	0.00000E+000	9	...........	1425.87
	69	10.1	-4.00716E-001	-1.58791E-004	0.00000E+000	-4.00011E-001	0.00000E+000	9	...........	1425.87
	70	11.1	-4.00721E-001	-1.54489E-004	0.00000E+000	-4.00011E-001	0.00000E+000	9	...........	1425.87
	71	12.1	-4.00727E-001	-1.50755E-004	0.00000E+000	-4.00011E-001	0.00000E+000	9	...........	1425.87
	72	13.1	-4.00709E-001	-1.47295E-004	0.00000E+000	-4.00011E-001	0.00000E+000	9	...........	1425.87
	73	14.1	-4.00725E-001	-1.44273E-004	0.00000E+000	-4.00011E-001	0.00000E+000	9	...........	1425.87
	74	15.1	-4.00725E-001	-1.41573E-004	0.00000E+000	-4.00011E-001	0.00000E+000	9	...........	1425.87
	75	16.1	-4.00720E-001	-1.39009E-004	0.00000E+000	-4.00011E-001	0.00000E+000	9	...........	1425.87
	76	26.1	-4.00722E-001	-1.21167E-004	0.00000E+000	-4.00011E-001	0.00000E+000	9	...........	1425.95
	77	36.1	-4.00714E-001	-1.11218E-004	0.00000E+000	-4.00011E-001	0.00000E+000	9	...........	1425.95
	78	46.1	-4.00710E-001	-1.04222E-004	0.00000E+000	-4.00011E-001	0.00000E+000	9	...........	1425.95
	79	56.1	-4.00717E-001	-9.94894E-005	0.00000E+000	-4.00011E-001	0.00000E+000	9	...........	1425.95
	80	66.1	-4.00729E-001	-9.56155E-005	0.00000E+000	-4.00011E-001	0.00000E+000	9	...........	1425.95
	81	76.1	-4.00720E-001	-9.24297E-005	0.00000E+000	-4.00011E-001	0.00000E+000	9	...........	1425.95
	82	86.1	-4.00731E-001	-9.02113E-005	0.00000E+000	-4.00011E-001	0.00000E+000	9	...........	1425.95
	83	96.1	-4.00743E-001	-8.78318E-005	0.00000E+000	-4.00011E-001	0.00000E+000	9	...........	1425.95
	84	106.1	-4.00713E-001	-8.62735E-005	0.00000E+000	-4.00011E-001	0.00000E+000	9	...........	1425.95
	85	116.1	-4.00722E-001	-8.45345E-005	0.00000E+000	-4.00011E-001	0.00000E+000	9	...........	1425.95
	86	216.1	-4.00729E-001	-7.63000E-005	0.00000E+000	-4.00011E-001	0.00000E+000	9	...........	1425.95
	87	300	-4.00712E-001	-7.29681E-005	0.00000E+000	-4.00011E-001	0.00000E+000	9	...........	1425.95
	88	300.1	-5.00724E-001	-5.48737E-004	0.00000E+000	-5.00010E-001	0.00000E+000	9	...........	1425.95
	89	300.2	-5.00726E-001	-4.62869E-004	0.00000E+000	-5.00010E-001	0.00000E+000	9	...........	1425.95
	90	300.3	-5.00730E-001	-4.01392E-004	0.00000E+000	-5.00010E-001	0.00000E+000	9	...........	1425.95
	91	300.4	-5.00736E-001	-3.55519E-004	0.00000E+000	-5.00010E-001	0.00000E+000	9	...........	1425.95
	92	300.5	-5.00715E-001	-3.20369E-004	0.00000E+000	-5.00010E-001	0.00000E+000	9	...........	1425.95
	93	300.6	-5.00731E-001	-2.92955E-004	0.00000E+000	-5.00010E-001	0.00000E+000	9	...........	1425.95
	94	300.7	-5.00722E-001	-2.71142E-004	0.00000E+000	-5.00010E-001	0.00000E+000	9	...........	1425.95
	95	300.8	-5.00732E-001	-2.53480E-004	0.00000E+000	-5.00010E-001	0.00000E+000	9	...........	1425.95
	96	300.9	-5.00734E-001	-2.38989E-004	0.00000E+000	-5.00010E-001	0.00000E+000	9	...........	1425.95
	97	301	-5.00741E-001	-2.26893E-004	0.00000E+000	-5.00010E-001	0.00000E+000	9	...........	1425.95
