EXPLAIN
TAG	CHRONOA
TITLE	LABEL	Chronoamperometry Scan	Test Identifier
DATE	LABEL	20/12/2021	Date
TIME	LABEL	15:13:48	Time
NOTES	NOTES	1	Notes...
	
PSTAT	PSTAT	IFC1010-21051	Potentiostat
VPRESTEP	POTEN	1.00000E-002	F	Pre-step Voltage (V)
TPRESTEP	QUANT	5.00000E-001	Pre-step Delay Time (s)
VSTEP1	POTEN	0.00000E+000	F	Step 1 Voltage (V)
TSTEP1	QUANT	3.00000E+002	Step 1 Time (s)
VSTEP2	POTEN	-1.00000E-001	T	Step 2 Voltage (V)
TSTEP2	QUANT	1.00000E+000	Step 2 Time (s)
SAMPLETIME	QUANT	1.00000E-001	Sample Period (s)
DECIMATE	TOGGLE	T	Decimate
ILIMIT	QUANT	1.00000E+000	Limit I (mA/cm^2)
IMODE	SELECTOR	1	I/E Range Mode
IRANGE	QUANT	3.00000E-001	Max Current (mA)
EQDELAY	QUANT	5.00000E+000	Equil. Time (s)
SAMPLINGMODE	SELECTOR	1	Sampling Mode
AREA	QUANT	1.00000E+000	Sample Area (cm^2)
IRCOMP	SELECTOR	0	IRComp
PFCOR	QUANT	5.00000E+001	PF Corr. (ohm)
SEQUENCER	TOGGLE	TRUE	Run as Sequence
PSTATMODEL	IQUANT	64	Pstat Model
PSTATSECTION	LABEL	IFC1010-21051	Pstat Section
PSTATSERIALNO	LABEL	21051	Pstat Serial Number
CTRLMODE	IQUANT	1	Control Mode
ELECTROMETER	IQUANT	0	RE=0 or CS=1
IESTAB	IQUANT	0	I/E Stability
CASPEED	IQUANT	4	Control Amp Speed
CONVENTION	IQUANT	1	Current Convention
ICHRANGE	IQUANT	2	Ich Range
ICHRANGEMODE	TOGGLE	T	Ich Auto Range
ICHOFFSETENABLE	TOGGLE	F	Ich Offset Enable
ICHOFFSET	QUANT	0	Ich Offset (V)
ICHFILTER	IQUANT	3	Ich Filter
VCHRANGE	IQUANT	3	Vch Range
VCHRANGEMODE	TOGGLE	T	Vch Auto Range
VCHOFFSETENABLE	TOGGLE	F	Vch Offset Enable
VCHOFFSET	QUANT	0	Vch Offset (V)
VCHFILTER	IQUANT	3	Vch Filter
IERANGELOWERLIMIT	IQUANT	4	I/E Range Lower Limit
IERANGEMODE	TOGGLE	F	I/E AutoRange
IERANGE	IQUANT	9	I/E Range
ACHSELECT	IQUANT	0	Ach Select
ACHRANGE	IQUANT	2	Ach Range
ACHOFFSETENABLE	TOGGLE	F	Ach Offset Enable
ACHOFFSET	QUANT	0	Ach Offset (V)
ACHFILTER	IQUANT	1	Ach Filter
SENSECABLEID	IQUANT	14	Sense Cable ID
PWRCABLEID	IQUANT	14	Power Cable ID
DCCALDATE	LABEL	10/1/2020	DC Calibration Date
ACCALDATE	LABEL	4/2/2018	AC Calibration Date
FRAMEWORKVERSION	QUANT	7.06	Framework Version
INSTRUMENTVERSION	LABEL	4.30	Instrument Version
CURVE	TABLE	98
	Pt	T	Vf	Im	Vu	Sig	Ach	IERange	Over	Temp
	#	s	V vs. Ref.	A	V	V	V	#	bits	deg C
	0	-0.4	9.73153E-003	-1.82222E-006	0.00000E+000	1.00559E-002	0.00000E+000	9	...........	1426.04
	1	-0.3	1.00153E-002	-1.80179E-006	0.00000E+000	1.00559E-002	0.00000E+000	9	...........	1426.04
	2	-0.2	1.00745E-002	-1.77397E-006	0.00000E+000	1.00559E-002	0.00000E+000	9	...........	1426.04
	3	-0.1	1.00830E-002	-1.75271E-006	0.00000E+000	1.00559E-002	0.00000E+000	9	...........	1426.04
	4	0	1.00815E-002	-1.72131E-006	0.00000E+000	1.00559E-002	0.00000E+000	9	...........	1426.04
	5	0.1	7.39200E-005	-1.48080E-005	0.00000E+000	5.34840E-005	0.00000E+000	9	...........	1426.04
	6	0.2	7.35656E-005	-5.48683E-006	0.00000E+000	5.34840E-005	0.00000E+000	9	...........	1426.04
	7	0.3	7.34224E-005	-3.56421E-006	0.00000E+000	5.34840E-005	0.00000E+000	9	...........	1425.95
	8	0.4	7.36987E-005	-2.98291E-006	0.00000E+000	5.34840E-005	0.00000E+000	9	...........	1425.95
	9	0.5	7.36256E-005	-2.73212E-006	0.00000E+000	5.34840E-005	0.00000E+000	9	...........	1425.95
	10	0.6	7.44016E-005	-2.56455E-006	0.00000E+000	5.34840E-005	0.00000E+000	9	...........	1425.95
	11	0.7	7.36957E-005	-2.44516E-006	0.00000E+000	5.34840E-005	0.00000E+000	9	...........	1425.95
	12	0.8	7.44006E-005	-2.35950E-006	0.00000E+000	5.34840E-005	0.00000E+000	9	...........	1425.95
	13	0.9	7.36797E-005	-2.27565E-006	0.00000E+000	5.34840E-005	0.00000E+000	9	...........	1425.95
	14	1	7.34645E-005	-2.20121E-006	0.00000E+000	5.34840E-005	0.00000E+000	9	...........	1425.95
	15	1.1	7.45648E-005	-2.14051E-006	0.00000E+000	5.34840E-005	0.00000E+000	9	...........	1425.95
	16	1.2	7.32892E-005	-2.08138E-006	0.00000E+000	5.34840E-005	0.00000E+000	9	...........	1425.95
	17	1.3	7.30710E-005	-2.02913E-006	0.00000E+000	5.34840E-005	0.00000E+000	9	...........	1425.87
	18	1.4	7.33843E-005	-1.97537E-006	0.00000E+000	5.34840E-005	0.00000E+000	9	...........	1425.87
	19	1.5	7.15401E-005	-1.93657E-006	0.00000E+000	5.34840E-005	0.00000E+000	9	...........	1425.87
	20	1.6	7.28447E-005	-1.89759E-006	0.00000E+000	5.34840E-005	0.00000E+000	9	...........	1425.87
	21	1.7	7.33904E-005	-1.86690E-006	0.00000E+000	5.34840E-005	0.00000E+000	9	...........	1425.87
	22	1.8	7.34274E-005	-1.85151E-006	0.00000E+000	5.34840E-005	0.00000E+000	9	...........	1425.87
	23	1.9	7.21308E-005	-1.84087E-006	0.00000E+000	5.34840E-005	0.00000E+000	9	...........	1425.87
	24	2	7.17904E-005	-1.83006E-006	0.00000E+000	5.34840E-005	0.00000E+000	9	...........	1425.87
	25	2.1	7.32882E-005	-1.81454E-006	0.00000E+000	5.34840E-005	0.00000E+000	9	...........	1425.87
	26	2.2	7.32532E-005	-1.79125E-006	0.00000E+000	5.34840E-005	0.00000E+000	9	...........	1425.87
	27	2.3	7.27255E-005	-1.78378E-006	0.00000E+000	5.34840E-005	0.00000E+000	9	...........	1425.87
	28	2.4	7.26495E-005	-1.76449E-006	0.00000E+000	5.34840E-005	0.00000E+000	9	...........	1425.87
	29	2.5	7.21218E-005	-1.75274E-006	0.00000E+000	5.34840E-005	0.00000E+000	9	...........	1425.87
	30	2.6	7.27806E-005	-1.74677E-006	0.00000E+000	5.34840E-005	0.00000E+000	9	...........	1425.87
	31	2.7	7.35165E-005	-1.73126E-006	0.00000E+000	5.34840E-005	0.00000E+000	9	...........	1425.87
	32	2.8	7.39791E-005	-1.73820E-006	0.00000E+000	5.34840E-005	0.00000E+000	9	...........	1425.87
	33	2.9	7.26604E-005	-1.72949E-006	0.00000E+000	5.34840E-005	0.00000E+000	9	...........	1425.87
	34	3	7.29689E-005	-1.71781E-006	0.00000E+000	5.34840E-005	0.00000E+000	9	...........	1425.87
	35	3.1	7.34945E-005	-1.70172E-006	0.00000E+000	5.34840E-005	0.00000E+000	9	...........	1425.87
	36	3.2	7.38859E-005	-1.68427E-006	0.00000E+000	5.34840E-005	0.00000E+000	9	...........	1425.87
	37	3.3	7.27856E-005	-1.69405E-006	0.00000E+000	5.34840E-005	0.00000E+000	9	...........	1425.87
	38	3.4	7.17253E-005	-1.69365E-006	0.00000E+000	5.34840E-005	0.00000E+000	9	...........	1425.87
	39	3.5	7.32912E-005	-1.68965E-006	0.00000E+000	5.34840E-005	0.00000E+000	9	...........	1425.87
	40	3.6	7.28707E-005	-1.69949E-006	0.00000E+000	5.34840E-005	0.00000E+000	9	...........	1425.87
	41	3.7	7.36346E-005	-1.69722E-006	0.00000E+000	5.34840E-005	0.00000E+000	9	...........	1425.87
	42	3.8	7.42684E-005	-1.70733E-006	0.00000E+000	5.34840E-005	0.00000E+000	9	...........	1425.87
	43	3.9	7.29428E-005	-1.71761E-006	0.00000E+000	5.34840E-005	0.00000E+000	9	...........	1425.87
	44	4	7.32482E-005	-1.72158E-006	0.00000E+000	5.34840E-005	0.00000E+000	9	...........	1425.87
	45	4.1	7.32712E-005	-1.71667E-006	0.00000E+000	5.34840E-005	0.00000E+000	9	...........	1425.87
	46	4.2	7.38029E-005	-1.71087E-006	0.00000E+000	5.34840E-005	0.00000E+000	9	...........	1425.87
	47	4.3	7.43195E-005	-1.69475E-006	0.00000E+000	5.34840E-005	0.00000E+000	9	...........	1425.87
	48	4.4	7.42074E-005	-1.68387E-006	0.00000E+000	5.34840E-005	0.00000E+000	9	...........	1425.87
	49	4.5	7.39430E-005	-1.67967E-006	0.00000E+000	5.34840E-005	0.00000E+000	9	...........	1425.87
	50	4.6	7.35866E-005	-1.66849E-006	0.00000E+000	5.34840E-005	0.00000E+000	9	...........	1425.87
	51	4.7	7.28797E-005	-1.65204E-006	0.00000E+000	5.34840E-005	0.00000E+000	9	...........	1425.87
	52	4.8	7.29488E-005	-1.65621E-006	0.00000E+000	5.34840E-005	0.00000E+000	9	...........	1425.87
	53	4.9	7.25653E-005	-1.64183E-006	0.00000E+000	5.34840E-005	0.00000E+000	9	...........	1425.87
	54	5	7.30239E-005	-1.63916E-006	0.00000E+000	5.34840E-005	0.00000E+000	9	...........	1425.87
	55	5.1	7.34394E-005	-1.64086E-006	0.00000E+000	5.34840E-005	0.00000E+000	9	...........	1425.87
	56	5.2	7.34494E-005	-1.63005E-006	0.00000E+000	5.34840E-005	0.00000E+000	9	...........	1425.87
	57	5.3	7.35556E-005	-1.62211E-006	0.00000E+000	5.34840E-005	0.00000E+000	9	...........	1426.22
	58	5.4	7.23961E-005	-1.63606E-006	0.00000E+000	5.34840E-005	0.00000E+000	9	...........	1426.22
	59	5.5	7.41172E-005	-1.61494E-006	0.00000E+000	5.34840E-005	0.00000E+000	9	...........	1426.22
	60	5.6	7.37498E-005	-1.60666E-006	0.00000E+000	5.34840E-005	0.00000E+000	9	...........	1426.22
	61	5.7	7.29899E-005	-1.60556E-006	0.00000E+000	5.34840E-005	0.00000E+000	9	...........	1426.22
	62	5.8	7.33573E-005	-1.59632E-006	0.00000E+000	5.34840E-005	0.00000E+000	9	...........	1426.22
	63	5.9	7.33653E-005	-1.59018E-006	0.00000E+000	5.34840E-005	0.00000E+000	9	...........	1426.22
	64	6	7.27856E-005	-1.58487E-006	0.00000E+000	5.34840E-005	0.00000E+000	9	...........	1426.22
	65	6.1	7.46759E-005	-1.58317E-006	0.00000E+000	5.34840E-005	0.00000E+000	9	...........	1426.22
	66	7.1	7.19255E-005	-1.65988E-006	0.00000E+000	5.34840E-005	0.00000E+000	9	...........	1426.04
	67	8.1	7.31561E-005	-1.76956E-006	0.00000E+000	5.34840E-005	0.00000E+000	9	...........	1426.31
	68	9.1	7.27405E-005	-1.83189E-006	0.00000E+000	5.34840E-005	0.00000E+000	9	...........	1426.31
	69	10.1	7.37448E-005	-1.76846E-006	0.00000E+000	5.34840E-005	0.00000E+000	9	...........	1426.31
	70	11.1	7.42454E-005	-1.66569E-006	0.00000E+000	5.34840E-005	0.00000E+000	9	...........	1426.31
	71	12.1	7.56832E-005	-1.65141E-006	0.00000E+000	5.34840E-005	0.00000E+000	9	...........	1426.31
	72	13.1	7.42284E-005	-1.58284E-006	0.00000E+000	5.34840E-005	0.00000E+000	9	...........	1426.31
	73	14.1	7.52026E-005	-1.40665E-006	0.00000E+000	5.34840E-005	0.00000E+000	9	...........	1426.31
	74	15.1	7.50113E-005	-1.24892E-006	0.00000E+000	5.34840E-005	0.00000E+000	9	...........	1426.31
	75	16.1	7.42164E-005	-1.26928E-006	0.00000E+000	5.34840E-005	0.00000E+000	9	...........	1426.31
	76	26.1	7.32592E-005	-1.28736E-006	0.00000E+000	5.34840E-005	0.00000E+000	9	...........	1426.31
	77	36.1	7.30519E-005	-1.46004E-006	0.00000E+000	5.34840E-005	0.00000E+000	9	...........	1426.31
	78	46.1	7.27976E-005	-1.52191E-006	0.00000E+000	5.34840E-005	0.00000E+000	9	...........	1426.31
	79	56.1	7.21608E-005	-1.25393E-006	0.00000E+000	5.34840E-005	0.00000E+000	9	...........	1426.40
	80	66.1	7.25543E-005	-1.23661E-006	0.00000E+000	5.34840E-005	0.00000E+000	9	...........	1426.31
	81	76.1	7.39561E-005	-1.45470E-006	0.00000E+000	5.34840E-005	0.00000E+000	9	...........	1426.31
	82	86.1	7.30840E-005	-1.35800E-006	0.00000E+000	5.34840E-005	0.00000E+000	9	...........	1426.31
	83	96.1	7.24802E-005	-1.21636E-006	0.00000E+000	5.34840E-005	0.00000E+000	9	...........	1426.31
	84	106.1	7.22349E-005	-1.31499E-006	0.00000E+000	5.34840E-005	0.00000E+000	9	...........	1426.31
	85	116.1	7.28507E-005	-1.30061E-006	0.00000E+000	5.34840E-005	0.00000E+000	9	...........	1426.31
	86	216.1	7.22439E-005	-1.24946E-006	0.00000E+000	5.34840E-005	0.00000E+000	9	...........	1426.40
	87	300	6.99802E-005	-9.39105E-007	0.00000E+000	5.34840E-005	0.00000E+000	9	...........	1426.40
	88	300.1	-3.29021E-002	-1.34992E-004	0.00000E+000	-9.99460E-002	0.00000E+000	9	.........v.	1426.40
	89	300.2	-9.99489E-002	-4.14813E-005	0.00000E+000	-9.99460E-002	0.00000E+000	9	...........	1426.40
	90	300.3	-9.99478E-002	-2.21299E-005	0.00000E+000	-9.99460E-002	0.00000E+000	9	...........	1426.31
	91	300.4	-9.99465E-002	-1.65296E-005	0.00000E+000	-9.99460E-002	0.00000E+000	9	...........	1426.31
	92	300.5	-9.99474E-002	-1.41981E-005	0.00000E+000	-9.99460E-002	0.00000E+000	9	...........	1426.31
	93	300.6	-9.99485E-002	-1.29055E-005	0.00000E+000	-9.99460E-002	0.00000E+000	9	...........	1426.31
	94	300.7	-9.99453E-002	-1.20462E-005	0.00000E+000	-9.99460E-002	0.00000E+000	9	...........	1426.31
	95	300.8	-9.99461E-002	-1.14194E-005	0.00000E+000	-9.99460E-002	0.00000E+000	9	...........	1426.31
	96	300.9	-9.99474E-002	-1.09094E-005	0.00000E+000	-9.99460E-002	0.00000E+000	9	...........	1426.31
	97	301	-9.99459E-002	-1.05296E-005	0.00000E+000	-9.99460E-002	0.00000E+000	9	...........	1426.31
