EXPLAIN
TAG	CHRONOA
TITLE	LABEL	Chronoamperometry Scan	Test Identifier
DATE	LABEL	20/12/2021	Date
TIME	LABEL	12:46:31	Time
NOTES	NOTES	1	Notes...
	
PSTAT	PSTAT	IFC1010-21051	Potentiostat
VPRESTEP	POTEN	3.00000E-001	F	Pre-step Voltage (V)
TPRESTEP	QUANT	5.00000E-001	Pre-step Delay Time (s)
VSTEP1	POTEN	4.00000E-001	F	Step 1 Voltage (V)
TSTEP1	QUANT	3.00000E+002	Step 1 Time (s)
VSTEP2	POTEN	3.00000E-001	F	Step 2 Voltage (V)
TSTEP2	QUANT	1.00000E+000	Step 2 Time (s)
SAMPLETIME	QUANT	1.00000E-001	Sample Period (s)
DECIMATE	TOGGLE	T	Decimate
ILIMIT	QUANT	1.00000E+000	Limit I (mA/cm^2)
IMODE	SELECTOR	1	I/E Range Mode
IRANGE	QUANT	3.00000E-001	Max Current (mA)
EQDELAY	QUANT	5.00000E+000	Equil. Time (s)
SAMPLINGMODE	SELECTOR	1	Sampling Mode
AREA	QUANT	1.00000E+000	Sample Area (cm^2)
IRCOMP	SELECTOR	0	IRComp
PFCOR	QUANT	5.00000E+001	PF Corr. (ohm)
SEQUENCER	TOGGLE	TRUE	Run as Sequence
PSTATMODEL	IQUANT	64	Pstat Model
PSTATSECTION	LABEL	IFC1010-21051	Pstat Section
PSTATSERIALNO	LABEL	21051	Pstat Serial Number
CTRLMODE	IQUANT	1	Control Mode
ELECTROMETER	IQUANT	0	RE=0 or CS=1
IESTAB	IQUANT	0	I/E Stability
CASPEED	IQUANT	4	Control Amp Speed
CONVENTION	IQUANT	1	Current Convention
ICHRANGE	IQUANT	2	Ich Range
ICHRANGEMODE	TOGGLE	T	Ich Auto Range
ICHOFFSETENABLE	TOGGLE	F	Ich Offset Enable
ICHOFFSET	QUANT	0	Ich Offset (V)
ICHFILTER	IQUANT	3	Ich Filter
VCHRANGE	IQUANT	3	Vch Range
VCHRANGEMODE	TOGGLE	T	Vch Auto Range
VCHOFFSETENABLE	TOGGLE	F	Vch Offset Enable
VCHOFFSET	QUANT	0	Vch Offset (V)
VCHFILTER	IQUANT	3	Vch Filter
IERANGELOWERLIMIT	IQUANT	4	I/E Range Lower Limit
IERANGEMODE	TOGGLE	F	I/E AutoRange
IERANGE	IQUANT	9	I/E Range
ACHSELECT	IQUANT	0	Ach Select
ACHRANGE	IQUANT	2	Ach Range
ACHOFFSETENABLE	TOGGLE	F	Ach Offset Enable
ACHOFFSET	QUANT	0	Ach Offset (V)
ACHFILTER	IQUANT	1	Ach Filter
SENSECABLEID	IQUANT	14	Sense Cable ID
PWRCABLEID	IQUANT	14	Power Cable ID
DCCALDATE	LABEL	10/1/2020	DC Calibration Date
ACCALDATE	LABEL	4/2/2018	AC Calibration Date
FRAMEWORKVERSION	QUANT	7.06	Framework Version
INSTRUMENTVERSION	LABEL	4.30	Instrument Version
CURVE	TABLE	98
	Pt	T	Vf	Im	Vu	Sig	Ach	IERange	Over	Temp
	#	s	V vs. Ref.	A	V	V	V	#	bits	deg C
	0	-0.4	3.00109E-001	1.54322E-005	0.00000E+000	3.00072E-001	0.00000E+000	9	...........	1425.78
	1	-0.3	3.00429E-001	1.52943E-005	0.00000E+000	3.00072E-001	0.00000E+000	9	...........	1425.78
	2	-0.2	3.00435E-001	1.51936E-005	0.00000E+000	3.00072E-001	0.00000E+000	9	...........	1425.78
	3	-0.1	3.00447E-001	1.50994E-005	0.00000E+000	3.00072E-001	0.00000E+000	9	...........	1425.78
	4	0	3.00451E-001	1.49733E-005	0.00000E+000	3.00072E-001	0.00000E+000	9	...........	1425.78
	5	0.1	4.00508E-001	3.85445E-004	0.00000E+000	4.00072E-001	0.00000E+000	9	...........	1425.78
	6	0.2	4.00510E-001	3.22872E-004	0.00000E+000	4.00072E-001	0.00000E+000	9	...........	1425.78
	7	0.3	4.00503E-001	2.89845E-004	0.00000E+000	4.00072E-001	0.00000E+000	9	...........	1425.78
	8	0.4	4.00503E-001	2.63894E-004	0.00000E+000	4.00072E-001	0.00000E+000	9	...........	1425.78
	9	0.5	4.00507E-001	2.42167E-004	0.00000E+000	4.00072E-001	0.00000E+000	9	...........	1425.78
	10	0.6	4.00516E-001	2.23991E-004	0.00000E+000	4.00072E-001	0.00000E+000	9	...........	1425.78
	11	0.7	4.00501E-001	2.08730E-004	0.00000E+000	4.00072E-001	0.00000E+000	9	...........	1425.78
	12	0.8	4.00501E-001	1.95756E-004	0.00000E+000	4.00072E-001	0.00000E+000	9	...........	1425.78
	13	0.9	4.00500E-001	1.84538E-004	0.00000E+000	4.00072E-001	0.00000E+000	9	...........	1425.63
	14	1	4.00498E-001	1.74784E-004	0.00000E+000	4.00072E-001	0.00000E+000	9	...........	1425.60
	15	1.1	4.00503E-001	1.66135E-004	0.00000E+000	4.00072E-001	0.00000E+000	9	...........	1425.60
	16	1.2	4.00498E-001	1.58477E-004	0.00000E+000	4.00072E-001	0.00000E+000	9	...........	1425.60
	17	1.3	4.00496E-001	1.51568E-004	0.00000E+000	4.00072E-001	0.00000E+000	9	...........	1425.60
	18	1.4	4.00483E-001	1.45441E-004	0.00000E+000	4.00072E-001	0.00000E+000	9	...........	1425.60
	19	1.5	4.00481E-001	1.39834E-004	0.00000E+000	4.00072E-001	0.00000E+000	9	...........	1425.60
	20	1.6	4.00493E-001	1.34758E-004	0.00000E+000	4.00072E-001	0.00000E+000	9	...........	1425.60
	21	1.7	4.00497E-001	1.30092E-004	0.00000E+000	4.00072E-001	0.00000E+000	9	...........	1425.60
	22	1.8	4.00504E-001	1.25819E-004	0.00000E+000	4.00072E-001	0.00000E+000	9	...........	1425.60
	23	1.9	4.00503E-001	1.21845E-004	0.00000E+000	4.00072E-001	0.00000E+000	9	...........	1425.60
	24	2	4.00503E-001	1.18211E-004	0.00000E+000	4.00072E-001	0.00000E+000	9	...........	1425.60
	25	2.1	4.00499E-001	1.14807E-004	0.00000E+000	4.00072E-001	0.00000E+000	9	...........	1425.60
	26	2.2	4.00493E-001	1.11652E-004	0.00000E+000	4.00072E-001	0.00000E+000	9	...........	1425.60
	27	2.3	4.00496E-001	1.08677E-004	0.00000E+000	4.00072E-001	0.00000E+000	9	...........	1425.60
	28	2.4	4.00500E-001	1.05913E-004	0.00000E+000	4.00072E-001	0.00000E+000	9	...........	1425.60
	29	2.5	4.00500E-001	1.03290E-004	0.00000E+000	4.00072E-001	0.00000E+000	9	...........	1425.60
	30	2.6	4.00496E-001	1.00858E-004	0.00000E+000	4.00072E-001	0.00000E+000	9	...........	1425.60
	31	2.7	4.00503E-001	9.85441E-005	0.00000E+000	4.00072E-001	0.00000E+000	9	...........	1425.60
	32	2.8	4.00499E-001	9.63397E-005	0.00000E+000	4.00072E-001	0.00000E+000	9	...........	1425.60
	33	2.9	4.00503E-001	9.42725E-005	0.00000E+000	4.00072E-001	0.00000E+000	9	...........	1425.60
	34	3	4.00501E-001	9.23053E-005	0.00000E+000	4.00072E-001	0.00000E+000	9	...........	1425.60
	35	3.1	4.00502E-001	9.04906E-005	0.00000E+000	4.00072E-001	0.00000E+000	9	...........	1425.60
	36	3.2	4.00495E-001	8.87187E-005	0.00000E+000	4.00072E-001	0.00000E+000	9	...........	1425.60
	37	3.3	4.00496E-001	8.70290E-005	0.00000E+000	4.00072E-001	0.00000E+000	9	...........	1425.60
	38	3.4	4.00502E-001	8.54329E-005	0.00000E+000	4.00072E-001	0.00000E+000	9	...........	1425.60
	39	3.5	4.00510E-001	8.38850E-005	0.00000E+000	4.00072E-001	0.00000E+000	9	...........	1425.60
	40	3.6	4.00510E-001	8.24311E-005	0.00000E+000	4.00072E-001	0.00000E+000	9	...........	1425.60
	41	3.7	4.00505E-001	8.10464E-005	0.00000E+000	4.00072E-001	0.00000E+000	9	...........	1425.60
	42	3.8	4.00505E-001	7.97179E-005	0.00000E+000	4.00072E-001	0.00000E+000	9	...........	1425.60
	43	3.9	4.00502E-001	7.84476E-005	0.00000E+000	4.00072E-001	0.00000E+000	9	...........	1425.60
	44	4	4.00509E-001	7.71960E-005	0.00000E+000	4.00072E-001	0.00000E+000	9	...........	1425.60
	45	4.1	4.00496E-001	7.60604E-005	0.00000E+000	4.00072E-001	0.00000E+000	9	...........	1425.60
	46	4.2	4.00479E-001	7.49539E-005	0.00000E+000	4.00072E-001	0.00000E+000	9	...........	1425.60
	47	4.3	4.00491E-001	7.38860E-005	0.00000E+000	4.00072E-001	0.00000E+000	9	...........	1425.60
	48	4.4	4.00503E-001	7.28494E-005	0.00000E+000	4.00072E-001	0.00000E+000	9	...........	1425.60
	49	4.5	4.00506E-001	7.18271E-005	0.00000E+000	4.00072E-001	0.00000E+000	9	...........	1425.60
	50	4.6	4.00492E-001	7.08756E-005	0.00000E+000	4.00072E-001	0.00000E+000	9	...........	1425.60
	51	4.7	4.00489E-001	6.99584E-005	0.00000E+000	4.00072E-001	0.00000E+000	9	...........	1425.60
	52	4.8	4.00485E-001	6.90593E-005	0.00000E+000	4.00072E-001	0.00000E+000	9	...........	1425.60
	53	4.9	4.00495E-001	6.82028E-005	0.00000E+000	4.00072E-001	0.00000E+000	9	...........	1425.60
	54	5	4.00490E-001	6.73834E-005	0.00000E+000	4.00072E-001	0.00000E+000	9	...........	1425.60
	55	5.1	4.00493E-001	6.65926E-005	0.00000E+000	4.00072E-001	0.00000E+000	9	...........	1425.60
	56	5.2	4.00501E-001	6.57780E-005	0.00000E+000	4.00072E-001	0.00000E+000	9	...........	1425.60
	57	5.3	4.00500E-001	6.50302E-005	0.00000E+000	4.00072E-001	0.00000E+000	9	...........	1425.60
	58	5.4	4.00497E-001	6.43092E-005	0.00000E+000	4.00072E-001	0.00000E+000	9	...........	1425.60
	59	5.5	4.00496E-001	6.36069E-005	0.00000E+000	4.00072E-001	0.00000E+000	9	...........	1425.60
	60	5.6	4.00491E-001	6.29191E-005	0.00000E+000	4.00072E-001	0.00000E+000	9	...........	1425.60
	61	5.7	4.00494E-001	6.22562E-005	0.00000E+000	4.00072E-001	0.00000E+000	9	...........	1425.60
	62	5.8	4.00488E-001	6.16264E-005	0.00000E+000	4.00072E-001	0.00000E+000	9	...........	1425.60
	63	5.9	4.00497E-001	6.10082E-005	0.00000E+000	4.00072E-001	0.00000E+000	9	...........	1425.60
	64	6	4.00485E-001	6.03693E-005	0.00000E+000	4.00072E-001	0.00000E+000	9	...........	1425.60
	65	6.1	4.00488E-001	5.98067E-005	0.00000E+000	4.00072E-001	0.00000E+000	9	...........	1425.60
	66	7.1	4.00491E-001	5.47058E-005	0.00000E+000	4.00072E-001	0.00000E+000	9	...........	1425.60
	67	8.1	4.00503E-001	5.06709E-005	0.00000E+000	4.00072E-001	0.00000E+000	9	...........	1425.69
	68	9.1	4.00493E-001	4.74123E-005	0.00000E+000	4.00072E-001	0.00000E+000	9	...........	1425.69
	69	10.1	4.00493E-001	4.47136E-005	0.00000E+000	4.00072E-001	0.00000E+000	9	...........	1425.69
	70	11.1	4.00507E-001	4.24349E-005	0.00000E+000	4.00072E-001	0.00000E+000	9	...........	1425.69
	71	12.1	4.00502E-001	4.04696E-005	0.00000E+000	4.00072E-001	0.00000E+000	9	...........	1425.69
	72	13.1	4.00497E-001	3.87514E-005	0.00000E+000	4.00072E-001	0.00000E+000	9	...........	1425.69
	73	14.1	4.00495E-001	3.72570E-005	0.00000E+000	4.00072E-001	0.00000E+000	9	...........	1425.60
	74	15.1	4.00493E-001	3.59142E-005	0.00000E+000	4.00072E-001	0.00000E+000	9	...........	1425.69
	75	16.1	4.00513E-001	3.46926E-005	0.00000E+000	4.00072E-001	0.00000E+000	9	...........	1425.69
	76	26.1	4.00490E-001	2.69937E-005	0.00000E+000	4.00072E-001	0.00000E+000	9	...........	1425.69
	77	36.1	4.00488E-001	2.34855E-005	0.00000E+000	4.00072E-001	0.00000E+000	9	...........	1425.69
	78	46.1	4.00496E-001	2.13917E-005	0.00000E+000	4.00072E-001	0.00000E+000	9	...........	1425.69
	79	56.1	4.00499E-001	1.96800E-005	0.00000E+000	4.00072E-001	0.00000E+000	9	...........	1425.69
	80	66.1	4.00507E-001	1.85031E-005	0.00000E+000	4.00072E-001	0.00000E+000	9	...........	1425.69
	81	76.1	4.00491E-001	1.80700E-005	0.00000E+000	4.00072E-001	0.00000E+000	9	...........	1425.69
	82	86.1	4.00484E-001	1.75186E-005	0.00000E+000	4.00072E-001	0.00000E+000	9	...........	1425.69
	83	96.1	4.00489E-001	1.68524E-005	0.00000E+000	4.00072E-001	0.00000E+000	9	...........	1425.69
	84	106.1	4.00491E-001	1.64345E-005	0.00000E+000	4.00072E-001	0.00000E+000	9	...........	1425.69
	85	116.1	4.00492E-001	1.60315E-005	0.00000E+000	4.00072E-001	0.00000E+000	9	...........	1425.69
	86	216.1	4.00499E-001	1.46056E-005	0.00000E+000	4.00072E-001	0.00000E+000	9	...........	1425.69
	87	300	4.00491E-001	1.35410E-005	0.00000E+000	4.00072E-001	0.00000E+000	9	...........	1425.69
	88	300.1	3.00441E-001	-3.61737E-004	0.00000E+000	3.00072E-001	0.00000E+000	9	...........	1425.69
	89	300.2	3.00457E-001	-2.72586E-004	0.00000E+000	3.00072E-001	0.00000E+000	9	...........	1425.69
	90	300.3	3.00450E-001	-2.16041E-004	0.00000E+000	3.00072E-001	0.00000E+000	9	...........	1425.69
	91	300.4	3.00454E-001	-1.77064E-004	0.00000E+000	3.00072E-001	0.00000E+000	9	...........	1425.69
	92	300.5	3.00469E-001	-1.49099E-004	0.00000E+000	3.00072E-001	0.00000E+000	9	...........	1425.69
	93	300.6	3.00459E-001	-1.28421E-004	0.00000E+000	3.00072E-001	0.00000E+000	9	...........	1425.69
	94	300.7	3.00450E-001	-1.12731E-004	0.00000E+000	3.00072E-001	0.00000E+000	9	...........	1425.69
	95	300.8	3.00452E-001	-1.00553E-004	0.00000E+000	3.00072E-001	0.00000E+000	9	...........	1425.69
	96	300.9	3.00454E-001	-9.09389E-005	0.00000E+000	3.00072E-001	0.00000E+000	9	...........	1425.69
	97	301	3.00452E-001	-8.31236E-005	0.00000E+000	3.00072E-001	0.00000E+000	9	...........	1425.69
