EXPLAIN
TAG	CHRONOA
TITLE	LABEL	Chronoamperometry Scan	Test Identifier
DATE	LABEL	20/12/2021	Date
TIME	LABEL	14:04:24	Time
NOTES	NOTES	1	Notes...
	
PSTAT	PSTAT	IFC1010-21051	Potentiostat
VPRESTEP	POTEN	3.00000E-001	F	Pre-step Voltage (V)
TPRESTEP	QUANT	5.00000E-001	Pre-step Delay Time (s)
VSTEP1	POTEN	4.00000E-001	F	Step 1 Voltage (V)
TSTEP1	QUANT	3.00000E+002	Step 1 Time (s)
VSTEP2	POTEN	3.00000E-001	F	Step 2 Voltage (V)
TSTEP2	QUANT	1.00000E+000	Step 2 Time (s)
SAMPLETIME	QUANT	1.00000E-001	Sample Period (s)
DECIMATE	TOGGLE	T	Decimate
ILIMIT	QUANT	1.00000E+000	Limit I (mA/cm^2)
IMODE	SELECTOR	1	I/E Range Mode
IRANGE	QUANT	3.00000E-001	Max Current (mA)
EQDELAY	QUANT	5.00000E+000	Equil. Time (s)
SAMPLINGMODE	SELECTOR	1	Sampling Mode
AREA	QUANT	1.00000E+000	Sample Area (cm^2)
IRCOMP	SELECTOR	0	IRComp
PFCOR	QUANT	5.00000E+001	PF Corr. (ohm)
SEQUENCER	TOGGLE	TRUE	Run as Sequence
PSTATMODEL	IQUANT	64	Pstat Model
PSTATSECTION	LABEL	IFC1010-21051	Pstat Section
PSTATSERIALNO	LABEL	21051	Pstat Serial Number
CTRLMODE	IQUANT	1	Control Mode
ELECTROMETER	IQUANT	0	RE=0 or CS=1
IESTAB	IQUANT	0	I/E Stability
CASPEED	IQUANT	4	Control Amp Speed
CONVENTION	IQUANT	1	Current Convention
ICHRANGE	IQUANT	2	Ich Range
ICHRANGEMODE	TOGGLE	T	Ich Auto Range
ICHOFFSETENABLE	TOGGLE	F	Ich Offset Enable
ICHOFFSET	QUANT	0	Ich Offset (V)
ICHFILTER	IQUANT	3	Ich Filter
VCHRANGE	IQUANT	3	Vch Range
VCHRANGEMODE	TOGGLE	T	Vch Auto Range
VCHOFFSETENABLE	TOGGLE	F	Vch Offset Enable
VCHOFFSET	QUANT	0	Vch Offset (V)
VCHFILTER	IQUANT	3	Vch Filter
IERANGELOWERLIMIT	IQUANT	4	I/E Range Lower Limit
IERANGEMODE	TOGGLE	F	I/E AutoRange
IERANGE	IQUANT	9	I/E Range
ACHSELECT	IQUANT	0	Ach Select
ACHRANGE	IQUANT	2	Ach Range
ACHOFFSETENABLE	TOGGLE	F	Ach Offset Enable
ACHOFFSET	QUANT	0	Ach Offset (V)
ACHFILTER	IQUANT	1	Ach Filter
SENSECABLEID	IQUANT	14	Sense Cable ID
PWRCABLEID	IQUANT	14	Power Cable ID
DCCALDATE	LABEL	10/1/2020	DC Calibration Date
ACCALDATE	LABEL	4/2/2018	AC Calibration Date
FRAMEWORKVERSION	QUANT	7.06	Framework Version
INSTRUMENTVERSION	LABEL	4.30	Instrument Version
CURVE	TABLE	98
	Pt	T	Vf	Im	Vu	Sig	Ach	IERange	Over	Temp
	#	s	V vs. Ref.	A	V	V	V	#	bits	deg C
	0	-0.4	3.00110E-001	1.92527E-005	0.00000E+000	3.00072E-001	0.00000E+000	9	...........	1425.87
	1	-0.3	3.00453E-001	1.90686E-005	0.00000E+000	3.00072E-001	0.00000E+000	9	...........	1425.87
	2	-0.2	3.00445E-001	1.89206E-005	0.00000E+000	3.00072E-001	0.00000E+000	9	...........	1425.87
	3	-0.1	3.00447E-001	1.87530E-005	0.00000E+000	3.00072E-001	0.00000E+000	9	...........	1425.87
	4	0	3.00458E-001	1.86296E-005	0.00000E+000	3.00072E-001	0.00000E+000	9	...........	1425.87
	5	0.1	4.00491E-001	4.11782E-004	0.00000E+000	4.00072E-001	0.00000E+000	9	...........	1425.87
	6	0.2	4.00499E-001	3.52370E-004	0.00000E+000	4.00072E-001	0.00000E+000	9	...........	1425.87
	7	0.3	4.00487E-001	3.15527E-004	0.00000E+000	4.00072E-001	0.00000E+000	9	...........	1425.87
	8	0.4	4.00502E-001	2.87117E-004	0.00000E+000	4.00072E-001	0.00000E+000	9	...........	1425.87
	9	0.5	4.00491E-001	2.64410E-004	0.00000E+000	4.00072E-001	0.00000E+000	9	...........	1425.87
	10	0.6	4.00503E-001	2.45766E-004	0.00000E+000	4.00072E-001	0.00000E+000	9	...........	1425.78
	11	0.7	4.00491E-001	2.30150E-004	0.00000E+000	4.00072E-001	0.00000E+000	9	...........	1425.78
	12	0.8	4.00500E-001	2.16842E-004	0.00000E+000	4.00072E-001	0.00000E+000	9	...........	1425.78
	13	0.9	4.00502E-001	2.05262E-004	0.00000E+000	4.00072E-001	0.00000E+000	9	...........	1425.78
	14	1	4.00495E-001	1.95142E-004	0.00000E+000	4.00072E-001	0.00000E+000	9	...........	1425.78
	15	1.1	4.00498E-001	1.86155E-004	0.00000E+000	4.00072E-001	0.00000E+000	9	...........	1425.78
	16	1.2	4.00500E-001	1.78183E-004	0.00000E+000	4.00072E-001	0.00000E+000	9	...........	1425.78
	17	1.3	4.00485E-001	1.70966E-004	0.00000E+000	4.00072E-001	0.00000E+000	9	...........	1425.78
	18	1.4	4.00497E-001	1.64439E-004	0.00000E+000	4.00072E-001	0.00000E+000	9	...........	1425.78
	19	1.5	4.00493E-001	1.58515E-004	0.00000E+000	4.00072E-001	0.00000E+000	9	...........	1425.78
	20	1.6	4.00493E-001	1.53100E-004	0.00000E+000	4.00072E-001	0.00000E+000	9	...........	1425.78
	21	1.7	4.00493E-001	1.48081E-004	0.00000E+000	4.00072E-001	0.00000E+000	9	...........	1425.78
	22	1.8	4.00493E-001	1.43473E-004	0.00000E+000	4.00072E-001	0.00000E+000	9	...........	1425.78
	23	1.9	4.00491E-001	1.39203E-004	0.00000E+000	4.00072E-001	0.00000E+000	9	...........	1425.78
	24	2	4.00493E-001	1.35228E-004	0.00000E+000	4.00072E-001	0.00000E+000	9	...........	1425.78
	25	2.1	4.00498E-001	1.31503E-004	0.00000E+000	4.00072E-001	0.00000E+000	9	...........	1425.78
	26	2.2	4.00491E-001	1.28073E-004	0.00000E+000	4.00072E-001	0.00000E+000	9	...........	1425.78
	27	2.3	4.00488E-001	1.24786E-004	0.00000E+000	4.00072E-001	0.00000E+000	9	...........	1425.78
	28	2.4	4.00486E-001	1.21682E-004	0.00000E+000	4.00072E-001	0.00000E+000	9	...........	1425.78
	29	2.5	4.00479E-001	1.18825E-004	0.00000E+000	4.00072E-001	0.00000E+000	9	...........	1425.78
	30	2.6	4.00492E-001	1.16099E-004	0.00000E+000	4.00072E-001	0.00000E+000	9	...........	1425.69
	31	2.7	4.00487E-001	1.13535E-004	0.00000E+000	4.00072E-001	0.00000E+000	9	...........	1425.69
	32	2.8	4.00503E-001	1.11092E-004	0.00000E+000	4.00072E-001	0.00000E+000	9	...........	1425.69
	33	2.9	4.00495E-001	1.08800E-004	0.00000E+000	4.00072E-001	0.00000E+000	9	...........	1425.69
	34	3	4.00513E-001	1.06613E-004	0.00000E+000	4.00072E-001	0.00000E+000	9	...........	1425.69
	35	3.1	4.00500E-001	1.04568E-004	0.00000E+000	4.00072E-001	0.00000E+000	9	...........	1425.69
	36	3.2	4.00496E-001	1.02623E-004	0.00000E+000	4.00072E-001	0.00000E+000	9	...........	1425.69
	37	3.3	4.00501E-001	1.00759E-004	0.00000E+000	4.00072E-001	0.00000E+000	9	...........	1425.69
	38	3.4	4.00501E-001	9.89444E-005	0.00000E+000	4.00072E-001	0.00000E+000	9	...........	1425.69
	39	3.5	4.00496E-001	9.72342E-005	0.00000E+000	4.00072E-001	0.00000E+000	9	...........	1425.69
	40	3.6	4.00498E-001	9.56046E-005	0.00000E+000	4.00072E-001	0.00000E+000	9	...........	1425.69
	41	3.7	4.00487E-001	9.40543E-005	0.00000E+000	4.00072E-001	0.00000E+000	9	...........	1425.69
	42	3.8	4.00481E-001	9.25588E-005	0.00000E+000	4.00072E-001	0.00000E+000	9	...........	1425.69
	43	3.9	4.00489E-001	9.11337E-005	0.00000E+000	4.00072E-001	0.00000E+000	9	...........	1425.69
	44	4	4.00493E-001	8.97523E-005	0.00000E+000	4.00072E-001	0.00000E+000	9	...........	1425.69
	45	4.1	4.00495E-001	8.83987E-005	0.00000E+000	4.00072E-001	0.00000E+000	9	...........	1425.69
	46	4.2	4.00496E-001	8.71364E-005	0.00000E+000	4.00072E-001	0.00000E+000	9	...........	1425.69
	47	4.3	4.00492E-001	8.58770E-005	0.00000E+000	4.00072E-001	0.00000E+000	9	...........	1425.69
	48	4.4	4.00491E-001	8.46817E-005	0.00000E+000	4.00072E-001	0.00000E+000	9	...........	1425.69
	49	4.5	4.00487E-001	8.35275E-005	0.00000E+000	4.00072E-001	0.00000E+000	9	...........	1425.69
	50	4.6	4.00488E-001	8.24434E-005	0.00000E+000	4.00072E-001	0.00000E+000	9	...........	1425.69
	51	4.7	4.00494E-001	8.13498E-005	0.00000E+000	4.00072E-001	0.00000E+000	9	...........	1425.69
	52	4.8	4.00495E-001	8.03126E-005	0.00000E+000	4.00072E-001	0.00000E+000	9	...........	1425.69
	53	4.9	4.00497E-001	7.92996E-005	0.00000E+000	4.00072E-001	0.00000E+000	9	...........	1425.69
	54	5	4.00497E-001	7.83532E-005	0.00000E+000	4.00072E-001	0.00000E+000	9	...........	1425.69
	55	5.1	4.00510E-001	7.73928E-005	0.00000E+000	4.00072E-001	0.00000E+000	9	...........	1425.69
	56	5.2	4.00494E-001	7.65262E-005	0.00000E+000	4.00072E-001	0.00000E+000	9	...........	1425.69
	57	5.3	4.00495E-001	7.56141E-005	0.00000E+000	4.00072E-001	0.00000E+000	9	...........	1425.69
	58	5.4	4.00493E-001	7.47533E-005	0.00000E+000	4.00072E-001	0.00000E+000	9	...........	1425.69
	59	5.5	4.00483E-001	7.39044E-005	0.00000E+000	4.00072E-001	0.00000E+000	9	...........	1425.69
	60	5.6	4.00481E-001	7.30885E-005	0.00000E+000	4.00072E-001	0.00000E+000	9	...........	1425.69
	61	5.7	4.00487E-001	7.23273E-005	0.00000E+000	4.00072E-001	0.00000E+000	9	...........	1425.69
	62	5.8	4.00479E-001	7.15785E-005	0.00000E+000	4.00072E-001	0.00000E+000	9	...........	1425.69
	63	5.9	4.00496E-001	7.08644E-005	0.00000E+000	4.00072E-001	0.00000E+000	9	...........	1425.69
	64	6	4.00512E-001	7.01082E-005	0.00000E+000	4.00072E-001	0.00000E+000	9	...........	1425.69
	65	6.1	4.00491E-001	6.94824E-005	0.00000E+000	4.00072E-001	0.00000E+000	9	...........	1425.69
	66	7.1	4.00482E-001	6.36094E-005	0.00000E+000	4.00072E-001	0.00000E+000	9	...........	1425.60
	67	8.1	4.00489E-001	5.88876E-005	0.00000E+000	4.00072E-001	0.00000E+000	9	...........	1425.69
	68	9.1	4.00509E-001	5.51052E-005	0.00000E+000	4.00072E-001	0.00000E+000	9	...........	1425.78
	69	10.1	4.00514E-001	5.20467E-005	0.00000E+000	4.00072E-001	0.00000E+000	9	...........	1425.78
	70	11.1	4.00499E-001	4.93771E-005	0.00000E+000	4.00072E-001	0.00000E+000	9	...........	1425.78
	71	12.1	4.00497E-001	4.68994E-005	0.00000E+000	4.00072E-001	0.00000E+000	9	...........	1425.78
	72	13.1	4.00496E-001	4.48032E-005	0.00000E+000	4.00072E-001	0.00000E+000	9	...........	1425.78
	73	14.1	4.00496E-001	4.29445E-005	0.00000E+000	4.00072E-001	0.00000E+000	9	...........	1425.78
	74	15.1	4.00482E-001	4.12182E-005	0.00000E+000	4.00072E-001	0.00000E+000	9	...........	1425.78
	75	16.1	4.00489E-001	3.96813E-005	0.00000E+000	4.00072E-001	0.00000E+000	9	...........	1425.69
	76	26.1	4.00497E-001	3.06497E-005	0.00000E+000	4.00072E-001	0.00000E+000	9	...........	1425.78
	77	36.1	4.00495E-001	2.64819E-005	0.00000E+000	4.00072E-001	0.00000E+000	9	...........	1425.78
	78	46.1	4.00497E-001	2.38588E-005	0.00000E+000	4.00072E-001	0.00000E+000	9	...........	1425.78
	79	56.1	4.00496E-001	2.19309E-005	0.00000E+000	4.00072E-001	0.00000E+000	9	...........	1425.78
	80	66.1	4.00502E-001	2.07049E-005	0.00000E+000	4.00072E-001	0.00000E+000	9	...........	1425.78
	81	76.1	4.00499E-001	1.97950E-005	0.00000E+000	4.00072E-001	0.00000E+000	9	...........	1425.78
	82	86.1	4.00487E-001	1.90675E-005	0.00000E+000	4.00072E-001	0.00000E+000	9	...........	1425.78
	83	96.1	4.00487E-001	1.84627E-005	0.00000E+000	4.00072E-001	0.00000E+000	9	...........	1425.78
	84	106.1	4.00508E-001	1.78512E-005	0.00000E+000	4.00072E-001	0.00000E+000	9	...........	1425.78
	85	116.1	4.00503E-001	1.72309E-005	0.00000E+000	4.00072E-001	0.00000E+000	9	...........	1425.78
	86	216.1	4.00505E-001	1.50501E-005	0.00000E+000	4.00072E-001	0.00000E+000	9	...........	1425.78
	87	300	4.00493E-001	1.41730E-005	0.00000E+000	4.00072E-001	0.00000E+000	9	...........	1425.87
	88	300.1	3.00450E-001	-3.40799E-004	0.00000E+000	3.00072E-001	0.00000E+000	9	...........	1425.87
	89	300.2	3.00448E-001	-2.53542E-004	0.00000E+000	3.00072E-001	0.00000E+000	9	...........	1425.87
	90	300.3	3.00450E-001	-2.01820E-004	0.00000E+000	3.00072E-001	0.00000E+000	9	...........	1425.87
	91	300.4	3.00438E-001	-1.67537E-004	0.00000E+000	3.00072E-001	0.00000E+000	9	...........	1425.87
	92	300.5	3.00448E-001	-1.43414E-004	0.00000E+000	3.00072E-001	0.00000E+000	9	...........	1425.87
	93	300.6	3.00453E-001	-1.25666E-004	0.00000E+000	3.00072E-001	0.00000E+000	9	...........	1425.78
	94	300.7	3.00458E-001	-1.12136E-004	0.00000E+000	3.00072E-001	0.00000E+000	9	...........	1425.78
	95	300.8	3.00458E-001	-1.01505E-004	0.00000E+000	3.00072E-001	0.00000E+000	9	...........	1425.78
	96	300.9	3.00455E-001	-9.29790E-005	0.00000E+000	3.00072E-001	0.00000E+000	9	...........	1425.78
	97	301	3.00451E-001	-8.59582E-005	0.00000E+000	3.00072E-001	0.00000E+000	9	...........	1425.78
