EXPLAIN
TAG	CHRONOA
TITLE	LABEL	Chronoamperometry Scan	Test Identifier
DATE	LABEL	20/12/2021	Date
TIME	LABEL	12:36:17	Time
NOTES	NOTES	1	Notes...
	
PSTAT	PSTAT	IFC1010-21051	Potentiostat
VPRESTEP	POTEN	1.00000E-002	F	Pre-step Voltage (V)
TPRESTEP	QUANT	5.00000E-001	Pre-step Delay Time (s)
VSTEP1	POTEN	0.00000E+000	F	Step 1 Voltage (V)
TSTEP1	QUANT	3.00000E+002	Step 1 Time (s)
VSTEP2	POTEN	-1.00000E-001	T	Step 2 Voltage (V)
TSTEP2	QUANT	1.00000E+000	Step 2 Time (s)
SAMPLETIME	QUANT	1.00000E-001	Sample Period (s)
DECIMATE	TOGGLE	T	Decimate
ILIMIT	QUANT	1.00000E+000	Limit I (mA/cm^2)
IMODE	SELECTOR	1	I/E Range Mode
IRANGE	QUANT	3.00000E-001	Max Current (mA)
EQDELAY	QUANT	5.00000E+000	Equil. Time (s)
SAMPLINGMODE	SELECTOR	1	Sampling Mode
AREA	QUANT	1.00000E+000	Sample Area (cm^2)
IRCOMP	SELECTOR	0	IRComp
PFCOR	QUANT	5.00000E+001	PF Corr. (ohm)
SEQUENCER	TOGGLE	TRUE	Run as Sequence
PSTATMODEL	IQUANT	64	Pstat Model
PSTATSECTION	LABEL	IFC1010-21051	Pstat Section
PSTATSERIALNO	LABEL	21051	Pstat Serial Number
CTRLMODE	IQUANT	1	Control Mode
ELECTROMETER	IQUANT	0	RE=0 or CS=1
IESTAB	IQUANT	0	I/E Stability
CASPEED	IQUANT	4	Control Amp Speed
CONVENTION	IQUANT	1	Current Convention
ICHRANGE	IQUANT	2	Ich Range
ICHRANGEMODE	TOGGLE	T	Ich Auto Range
ICHOFFSETENABLE	TOGGLE	F	Ich Offset Enable
ICHOFFSET	QUANT	0	Ich Offset (V)
ICHFILTER	IQUANT	3	Ich Filter
VCHRANGE	IQUANT	3	Vch Range
VCHRANGEMODE	TOGGLE	T	Vch Auto Range
VCHOFFSETENABLE	TOGGLE	F	Vch Offset Enable
VCHOFFSET	QUANT	0	Vch Offset (V)
VCHFILTER	IQUANT	3	Vch Filter
IERANGELOWERLIMIT	IQUANT	4	I/E Range Lower Limit
IERANGEMODE	TOGGLE	F	I/E AutoRange
IERANGE	IQUANT	9	I/E Range
ACHSELECT	IQUANT	0	Ach Select
ACHRANGE	IQUANT	2	Ach Range
ACHOFFSETENABLE	TOGGLE	F	Ach Offset Enable
ACHOFFSET	QUANT	0	Ach Offset (V)
ACHFILTER	IQUANT	1	Ach Filter
SENSECABLEID	IQUANT	14	Sense Cable ID
PWRCABLEID	IQUANT	14	Power Cable ID
DCCALDATE	LABEL	10/1/2020	DC Calibration Date
ACCALDATE	LABEL	4/2/2018	AC Calibration Date
FRAMEWORKVERSION	QUANT	7.06	Framework Version
INSTRUMENTVERSION	LABEL	4.30	Instrument Version
CURVE	TABLE	98
	Pt	T	Vf	Im	Vu	Sig	Ach	IERange	Over	Temp
	#	s	V vs. Ref.	A	V	V	V	#	bits	deg C
	0	-0.4	9.77637E-003	-1.68891E-006	0.00000E+000	1.00559E-002	0.00000E+000	9	...........	1425.78
	1	-0.3	1.00367E-002	-1.67473E-006	0.00000E+000	1.00559E-002	0.00000E+000	9	...........	1425.78
	2	-0.2	1.00792E-002	-1.66509E-006	0.00000E+000	1.00559E-002	0.00000E+000	9	...........	1425.78
	3	-0.1	1.00865E-002	-1.65511E-006	0.00000E+000	1.00559E-002	0.00000E+000	9	...........	1425.78
	4	0	1.00863E-002	-1.64967E-006	0.00000E+000	1.00559E-002	0.00000E+000	9	...........	1425.78
	5	0.1	7.87870E-005	-1.80947E-005	0.00000E+000	5.34840E-005	0.00000E+000	9	...........	1425.78
	6	0.2	7.80321E-005	-6.93416E-006	0.00000E+000	5.34840E-005	0.00000E+000	9	...........	1425.78
	7	0.3	7.77958E-005	-4.02766E-006	0.00000E+000	5.34840E-005	0.00000E+000	9	...........	1425.78
	8	0.4	7.78208E-005	-3.12409E-006	0.00000E+000	5.34840E-005	0.00000E+000	9	...........	1425.78
	9	0.5	7.79329E-005	-2.75898E-006	0.00000E+000	5.34840E-005	0.00000E+000	9	...........	1425.78
	10	0.6	7.73222E-005	-2.57933E-006	0.00000E+000	5.34840E-005	0.00000E+000	9	...........	1425.78
	11	0.7	7.63410E-005	-2.46885E-006	0.00000E+000	5.34840E-005	0.00000E+000	9	...........	1425.78
	12	0.8	7.82103E-005	-2.38299E-006	0.00000E+000	5.34840E-005	0.00000E+000	9	...........	1425.78
	13	0.9	7.64301E-005	-2.31316E-006	0.00000E+000	5.34840E-005	0.00000E+000	9	...........	1425.78
	14	1	7.76456E-005	-2.26774E-006	0.00000E+000	5.34840E-005	0.00000E+000	9	...........	1425.78
	15	1.1	7.66233E-005	-2.23040E-006	0.00000E+000	5.34840E-005	0.00000E+000	9	...........	1425.78
	16	1.2	7.67315E-005	-2.19170E-006	0.00000E+000	5.34840E-005	0.00000E+000	9	...........	1426.13
	17	1.3	7.66073E-005	-2.14275E-006	0.00000E+000	5.34840E-005	0.00000E+000	9	...........	1426.13
	18	1.4	7.63440E-005	-2.12540E-006	0.00000E+000	5.34840E-005	0.00000E+000	9	...........	1426.13
	19	1.5	7.76776E-005	-2.09783E-006	0.00000E+000	5.34840E-005	0.00000E+000	9	...........	1426.13
	20	1.6	7.60436E-005	-2.08075E-006	0.00000E+000	5.34840E-005	0.00000E+000	9	...........	1426.13
	21	1.7	7.74083E-005	-2.06116E-006	0.00000E+000	5.34840E-005	0.00000E+000	9	...........	1426.13
	22	1.8	7.74113E-005	-2.03947E-006	0.00000E+000	5.34840E-005	0.00000E+000	9	...........	1426.13
	23	1.9	7.58033E-005	-2.02609E-006	0.00000E+000	5.34840E-005	0.00000E+000	9	...........	1426.13
	24	2	7.62679E-005	-2.01074E-006	0.00000E+000	5.34840E-005	0.00000E+000	9	...........	1426.13
	25	2.1	7.68376E-005	-1.99186E-006	0.00000E+000	5.34840E-005	0.00000E+000	9	...........	1426.13
	26	2.2	7.61698E-005	-1.97838E-006	0.00000E+000	5.34840E-005	0.00000E+000	9	...........	1426.04
	27	2.3	7.62419E-005	-1.96977E-006	0.00000E+000	5.34840E-005	0.00000E+000	9	...........	1426.04
	28	2.4	7.62909E-005	-1.94975E-006	0.00000E+000	5.34840E-005	0.00000E+000	9	...........	1426.04
	29	2.5	7.71139E-005	-1.94194E-006	0.00000E+000	5.34840E-005	0.00000E+000	9	...........	1426.04
	30	2.6	7.72030E-005	-1.93326E-006	0.00000E+000	5.34840E-005	0.00000E+000	9	...........	1426.04
	31	2.7	7.71129E-005	-1.91878E-006	0.00000E+000	5.34840E-005	0.00000E+000	9	...........	1426.04
	32	2.8	7.71009E-005	-1.90710E-006	0.00000E+000	5.34840E-005	0.00000E+000	9	...........	1426.04
	33	2.9	7.50364E-005	-1.90350E-006	0.00000E+000	5.34840E-005	0.00000E+000	9	...........	1426.04
	34	3	7.59855E-005	-1.88738E-006	0.00000E+000	5.34840E-005	0.00000E+000	9	...........	1426.04
	35	3.1	7.56531E-005	-1.88388E-006	0.00000E+000	5.34840E-005	0.00000E+000	9	...........	1426.04
	36	3.2	7.71049E-005	-1.85915E-006	0.00000E+000	5.34840E-005	0.00000E+000	9	...........	1425.87
	37	3.3	7.80951E-005	-1.84621E-006	0.00000E+000	5.34840E-005	0.00000E+000	9	...........	1425.87
	38	3.4	7.67605E-005	-1.83740E-006	0.00000E+000	5.34840E-005	0.00000E+000	9	...........	1425.87
	39	3.5	7.69237E-005	-1.82856E-006	0.00000E+000	5.34840E-005	0.00000E+000	9	...........	1425.87
	40	3.6	7.68356E-005	-1.80807E-006	0.00000E+000	5.34840E-005	0.00000E+000	9	...........	1425.87
	41	3.7	7.71009E-005	-1.79772E-006	0.00000E+000	5.34840E-005	0.00000E+000	9	...........	1425.87
	42	3.8	7.62579E-005	-1.78621E-006	0.00000E+000	5.34840E-005	0.00000E+000	9	...........	1425.87
	43	3.9	7.71009E-005	-1.76816E-006	0.00000E+000	5.34840E-005	0.00000E+000	9	...........	1425.87
	44	4	7.68476E-005	-1.76969E-006	0.00000E+000	5.34840E-005	0.00000E+000	9	...........	1425.87
	45	4.1	7.79239E-005	-1.75204E-006	0.00000E+000	5.34840E-005	0.00000E+000	9	...........	1425.87
	46	4.2	7.76336E-005	-1.73679E-006	0.00000E+000	5.34840E-005	0.00000E+000	9	...........	1426.04
	47	4.3	7.69237E-005	-1.72725E-006	0.00000E+000	5.34840E-005	0.00000E+000	9	...........	1426.04
	48	4.4	7.74654E-005	-1.72054E-006	0.00000E+000	5.34840E-005	0.00000E+000	9	...........	1426.04
	49	4.5	7.90863E-005	-1.71491E-006	0.00000E+000	5.34840E-005	0.00000E+000	9	...........	1426.04
	50	4.6	7.73793E-005	-1.70076E-006	0.00000E+000	5.34840E-005	0.00000E+000	9	...........	1426.04
	51	4.7	7.71850E-005	-1.69025E-006	0.00000E+000	5.34840E-005	0.00000E+000	9	...........	1426.04
	52	4.8	7.81632E-005	-1.67613E-006	0.00000E+000	5.34840E-005	0.00000E+000	9	...........	1426.04
	53	4.9	7.85757E-005	-1.66872E-006	0.00000E+000	5.34840E-005	0.00000E+000	9	...........	1426.04
	54	5	7.94678E-005	-1.65171E-006	0.00000E+000	5.34840E-005	0.00000E+000	9	...........	1426.04
	55	5.1	7.73803E-005	-1.65147E-006	0.00000E+000	5.34840E-005	0.00000E+000	9	...........	1426.04
	56	5.2	7.81472E-005	-1.63512E-006	0.00000E+000	5.34840E-005	0.00000E+000	9	...........	1425.95
	57	5.3	7.91855E-005	-1.62645E-006	0.00000E+000	5.34840E-005	0.00000E+000	9	...........	1425.95
	58	5.4	7.74784E-005	-1.61831E-006	0.00000E+000	5.34840E-005	0.00000E+000	9	...........	1425.95
	59	5.5	7.80060E-005	-1.60739E-006	0.00000E+000	5.34840E-005	0.00000E+000	9	...........	1425.95
	60	5.6	7.86268E-005	-1.59161E-006	0.00000E+000	5.34840E-005	0.00000E+000	9	...........	1425.95
	61	5.7	7.80581E-005	-1.58654E-006	0.00000E+000	5.34840E-005	0.00000E+000	9	...........	1425.95
	62	5.8	7.92075E-005	-1.56458E-006	0.00000E+000	5.34840E-005	0.00000E+000	9	...........	1425.95
	63	5.9	7.85577E-005	-1.57182E-006	0.00000E+000	5.34840E-005	0.00000E+000	9	...........	1425.95
	64	6	7.79780E-005	-1.57229E-006	0.00000E+000	5.34840E-005	0.00000E+000	9	...........	1425.95
	65	6.1	7.85617E-005	-1.56368E-006	0.00000E+000	5.34840E-005	0.00000E+000	9	...........	1425.95
	66	7.1	7.90453E-005	-1.49281E-006	0.00000E+000	5.34840E-005	0.00000E+000	9	...........	1426.04
	67	8.1	7.80691E-005	-1.41443E-006	0.00000E+000	5.34840E-005	0.00000E+000	9	...........	1426.04
	68	9.1	7.79700E-005	-1.33958E-006	0.00000E+000	5.34840E-005	0.00000E+000	9	...........	1426.13
	69	10.1	7.69087E-005	-1.33571E-006	0.00000E+000	5.34840E-005	0.00000E+000	9	...........	1426.13
	70	11.1	7.77427E-005	-1.31322E-006	0.00000E+000	5.34840E-005	0.00000E+000	9	...........	1426.13
	71	12.1	7.81252E-005	-1.30118E-006	0.00000E+000	5.34840E-005	0.00000E+000	9	...........	1426.04
	72	13.1	7.77878E-005	-1.29130E-006	0.00000E+000	5.34840E-005	0.00000E+000	9	...........	1426.13
	73	14.1	7.75024E-005	-1.28149E-006	0.00000E+000	5.34840E-005	0.00000E+000	9	...........	1426.13
	74	15.1	7.72321E-005	-1.27368E-006	0.00000E+000	5.34840E-005	0.00000E+000	9	...........	1426.13
	75	16.1	7.75605E-005	-1.26167E-006	0.00000E+000	5.34840E-005	0.00000E+000	9	...........	1426.13
	76	26.1	7.64471E-005	-1.21632E-006	0.00000E+000	5.34840E-005	0.00000E+000	9	...........	1426.13
	77	36.1	7.68977E-005	-1.25954E-006	0.00000E+000	5.34840E-005	0.00000E+000	9	...........	1426.13
	78	46.1	7.58184E-005	-1.22196E-006	0.00000E+000	5.34840E-005	0.00000E+000	9	...........	1426.13
	79	56.1	7.79620E-005	-1.38316E-006	0.00000E+000	5.34840E-005	0.00000E+000	9	...........	1426.13
	80	66.1	7.91234E-005	-1.40735E-006	0.00000E+000	5.34840E-005	0.00000E+000	9	...........	1426.13
	81	76.1	7.81352E-005	-1.35096E-006	0.00000E+000	5.34840E-005	0.00000E+000	9	...........	1426.13
	82	86.1	7.74874E-005	-1.33812E-006	0.00000E+000	5.34840E-005	0.00000E+000	9	...........	1426.13
	83	96.1	7.83404E-005	-1.34883E-006	0.00000E+000	5.34840E-005	0.00000E+000	9	...........	1426.13
	84	106.1	7.76836E-005	-1.36675E-006	0.00000E+000	5.34840E-005	0.00000E+000	9	...........	1426.13
	85	116.1	7.96360E-005	-1.09567E-006	0.00000E+000	5.34840E-005	0.00000E+000	9	...........	1426.13
	86	216.1	7.58854E-005	-1.17168E-006	0.00000E+000	5.34840E-005	0.00000E+000	9	...........	1426.13
	87	300	7.55961E-005	-1.30698E-006	0.00000E+000	5.34840E-005	0.00000E+000	9	...........	1426.13
	88	300.1	-3.29021E-002	-1.66148E-004	0.00000E+000	-9.99460E-002	0.00000E+000	9	.........v.	1426.13
	89	300.2	-9.99398E-002	-5.55709E-005	0.00000E+000	-9.99460E-002	0.00000E+000	9	...........	1426.13
	90	300.3	-9.99396E-002	-2.66840E-005	0.00000E+000	-9.99460E-002	0.00000E+000	9	...........	1426.13
	91	300.4	-9.99404E-002	-1.77482E-005	0.00000E+000	-9.99460E-002	0.00000E+000	9	...........	1426.13
	92	300.5	-9.99409E-002	-1.43104E-005	0.00000E+000	-9.99460E-002	0.00000E+000	9	...........	1426.13
	93	300.6	-9.99407E-002	-1.26291E-005	0.00000E+000	-9.99460E-002	0.00000E+000	9	...........	1426.13
	94	300.7	-9.99407E-002	-1.16479E-005	0.00000E+000	-9.99460E-002	0.00000E+000	9	...........	1426.13
	95	300.8	-9.99403E-002	-1.09747E-005	0.00000E+000	-9.99460E-002	0.00000E+000	9	...........	1426.13
	96	300.9	-9.99408E-002	-1.04788E-005	0.00000E+000	-9.99460E-002	0.00000E+000	9	...........	1426.13
	97	301	-9.99403E-002	-1.00921E-005	0.00000E+000	-9.99460E-002	0.00000E+000	9	...........	1426.13
