EXPLAIN
TAG	CHRONOA
TITLE	LABEL	Chronoamperometry Scan	Test Identifier
DATE	LABEL	20/12/2021	Date
TIME	LABEL	13:36:50	Time
NOTES	NOTES	1	Notes...
	
PSTAT	PSTAT	IFC1010-21051	Potentiostat
VPRESTEP	POTEN	-3.00000E-001	F	Pre-step Voltage (V)
TPRESTEP	QUANT	5.00000E-001	Pre-step Delay Time (s)
VSTEP1	POTEN	-4.00000E-001	F	Step 1 Voltage (V)
TSTEP1	QUANT	3.00000E+002	Step 1 Time (s)
VSTEP2	POTEN	-5.00000E-001	F	Step 2 Voltage (V)
TSTEP2	QUANT	1.00000E+000	Step 2 Time (s)
SAMPLETIME	QUANT	1.00000E-001	Sample Period (s)
DECIMATE	TOGGLE	T	Decimate
ILIMIT	QUANT	1.00000E+000	Limit I (mA/cm^2)
IMODE	SELECTOR	1	I/E Range Mode
IRANGE	QUANT	3.00000E-001	Max Current (mA)
EQDELAY	QUANT	5.00000E+000	Equil. Time (s)
SAMPLINGMODE	SELECTOR	1	Sampling Mode
AREA	QUANT	1.00000E+000	Sample Area (cm^2)
IRCOMP	SELECTOR	0	IRComp
PFCOR	QUANT	5.00000E+001	PF Corr. (ohm)
SEQUENCER	TOGGLE	TRUE	Run as Sequence
PSTATMODEL	IQUANT	64	Pstat Model
PSTATSECTION	LABEL	IFC1010-21051	Pstat Section
PSTATSERIALNO	LABEL	21051	Pstat Serial Number
CTRLMODE	IQUANT	1	Control Mode
ELECTROMETER	IQUANT	0	RE=0 or CS=1
IESTAB	IQUANT	0	I/E Stability
CASPEED	IQUANT	4	Control Amp Speed
CONVENTION	IQUANT	1	Current Convention
ICHRANGE	IQUANT	2	Ich Range
ICHRANGEMODE	TOGGLE	T	Ich Auto Range
ICHOFFSETENABLE	TOGGLE	F	Ich Offset Enable
ICHOFFSET	QUANT	0	Ich Offset (V)
ICHFILTER	IQUANT	3	Ich Filter
VCHRANGE	IQUANT	3	Vch Range
VCHRANGEMODE	TOGGLE	T	Vch Auto Range
VCHOFFSETENABLE	TOGGLE	F	Vch Offset Enable
VCHOFFSET	QUANT	0	Vch Offset (V)
VCHFILTER	IQUANT	3	Vch Filter
IERANGELOWERLIMIT	IQUANT	4	I/E Range Lower Limit
IERANGEMODE	TOGGLE	F	I/E AutoRange
IERANGE	IQUANT	9	I/E Range
ACHSELECT	IQUANT	0	Ach Select
ACHRANGE	IQUANT	2	Ach Range
ACHOFFSETENABLE	TOGGLE	F	Ach Offset Enable
ACHOFFSET	QUANT	0	Ach Offset (V)
ACHFILTER	IQUANT	1	Ach Filter
SENSECABLEID	IQUANT	14	Sense Cable ID
PWRCABLEID	IQUANT	14	Power Cable ID
DCCALDATE	LABEL	10/1/2020	DC Calibration Date
ACCALDATE	LABEL	4/2/2018	AC Calibration Date
FRAMEWORKVERSION	QUANT	7.06	Framework Version
INSTRUMENTVERSION	LABEL	4.30	Instrument Version
CURVE	TABLE	98
	Pt	T	Vf	Im	Vu	Sig	Ach	IERange	Over	Temp
	#	s	V vs. Ref.	A	V	V	V	#	bits	deg C
	0	-0.4	-3.00722E-001	-4.55658E-005	0.00000E+000	-3.00011E-001	0.00000E+000	9	...........	1425.87
	1	-0.3	-3.00543E-001	-4.54119E-005	0.00000E+000	-3.00011E-001	0.00000E+000	9	...........	1425.87
	2	-0.2	-3.00549E-001	-4.52420E-005	0.00000E+000	-3.00011E-001	0.00000E+000	9	...........	1425.87
	3	-0.1	-3.00544E-001	-4.50919E-005	0.00000E+000	-3.00011E-001	0.00000E+000	9	...........	1425.87
	4	0	-3.00535E-001	-4.49268E-005	0.00000E+000	-3.00011E-001	0.00000E+000	9	...........	1425.87
	5	0.1	-4.00582E-001	-3.30787E-004	0.00000E+000	-4.00011E-001	0.00000E+000	9	...........	1425.87
	6	0.2	-4.00568E-001	-2.41899E-004	0.00000E+000	-4.00011E-001	0.00000E+000	9	...........	1425.87
	7	0.3	-4.00581E-001	-2.11676E-004	0.00000E+000	-4.00011E-001	0.00000E+000	9	...........	1425.87
	8	0.4	-4.00569E-001	-1.96400E-004	0.00000E+000	-4.00011E-001	0.00000E+000	9	...........	1425.87
	9	0.5	-4.00580E-001	-1.86842E-004	0.00000E+000	-4.00011E-001	0.00000E+000	9	...........	1425.87
	10	0.6	-4.00577E-001	-1.79873E-004	0.00000E+000	-4.00011E-001	0.00000E+000	9	...........	1425.87
	11	0.7	-4.00576E-001	-1.74470E-004	0.00000E+000	-4.00011E-001	0.00000E+000	9	...........	1425.87
	12	0.8	-4.00555E-001	-1.69963E-004	0.00000E+000	-4.00011E-001	0.00000E+000	9	...........	1425.87
	13	0.9	-4.00571E-001	-1.66229E-004	0.00000E+000	-4.00011E-001	0.00000E+000	9	...........	1425.69
	14	1	-4.00592E-001	-1.63018E-004	0.00000E+000	-4.00011E-001	0.00000E+000	9	...........	1425.69
	15	1.1	-4.00594E-001	-1.60153E-004	0.00000E+000	-4.00011E-001	0.00000E+000	9	...........	1425.69
	16	1.2	-4.00582E-001	-1.57567E-004	0.00000E+000	-4.00011E-001	0.00000E+000	9	...........	1425.69
	17	1.3	-4.00577E-001	-1.55279E-004	0.00000E+000	-4.00011E-001	0.00000E+000	9	...........	1425.69
	18	1.4	-4.00583E-001	-1.53175E-004	0.00000E+000	-4.00011E-001	0.00000E+000	9	...........	1425.69
	19	1.5	-4.00579E-001	-1.51233E-004	0.00000E+000	-4.00011E-001	0.00000E+000	9	...........	1425.69
	20	1.6	-4.00584E-001	-1.49455E-004	0.00000E+000	-4.00011E-001	0.00000E+000	9	...........	1425.69
	21	1.7	-4.00576E-001	-1.47801E-004	0.00000E+000	-4.00011E-001	0.00000E+000	9	...........	1425.69
	22	1.8	-4.00583E-001	-1.46273E-004	0.00000E+000	-4.00011E-001	0.00000E+000	9	...........	1425.69
	23	1.9	-4.00571E-001	-1.44761E-004	0.00000E+000	-4.00011E-001	0.00000E+000	9	...........	1425.34
	24	2	-4.00580E-001	-1.43436E-004	0.00000E+000	-4.00011E-001	0.00000E+000	9	...........	1425.34
	25	2.1	-4.00573E-001	-1.42144E-004	0.00000E+000	-4.00011E-001	0.00000E+000	9	...........	1425.34
	26	2.2	-4.00578E-001	-1.40956E-004	0.00000E+000	-4.00011E-001	0.00000E+000	9	...........	1425.34
	27	2.3	-4.00584E-001	-1.39781E-004	0.00000E+000	-4.00011E-001	0.00000E+000	9	...........	1425.34
	28	2.4	-4.00585E-001	-1.38708E-004	0.00000E+000	-4.00011E-001	0.00000E+000	9	...........	1425.34
	29	2.5	-4.00586E-001	-1.37635E-004	0.00000E+000	-4.00011E-001	0.00000E+000	9	...........	1425.34
	30	2.6	-4.00576E-001	-1.36634E-004	0.00000E+000	-4.00011E-001	0.00000E+000	9	...........	1425.34
	31	2.7	-4.00586E-001	-1.35682E-004	0.00000E+000	-4.00011E-001	0.00000E+000	9	...........	1425.34
	32	2.8	-4.00576E-001	-1.34693E-004	0.00000E+000	-4.00011E-001	0.00000E+000	9	...........	1425.34
	33	2.9	-4.00587E-001	-1.33784E-004	0.00000E+000	-4.00011E-001	0.00000E+000	9	...........	1425.78
	34	3	-4.00580E-001	-1.32988E-004	0.00000E+000	-4.00011E-001	0.00000E+000	9	...........	1425.78
	35	3.1	-4.00582E-001	-1.32145E-004	0.00000E+000	-4.00011E-001	0.00000E+000	9	...........	1425.78
	36	3.2	-4.00577E-001	-1.31349E-004	0.00000E+000	-4.00011E-001	0.00000E+000	9	...........	1425.78
	37	3.3	-4.00582E-001	-1.30589E-004	0.00000E+000	-4.00011E-001	0.00000E+000	9	...........	1425.78
	38	3.4	-4.00570E-001	-1.29856E-004	0.00000E+000	-4.00011E-001	0.00000E+000	9	...........	1425.78
	39	3.5	-4.00576E-001	-1.29107E-004	0.00000E+000	-4.00011E-001	0.00000E+000	9	...........	1425.78
	40	3.6	-4.00582E-001	-1.28455E-004	0.00000E+000	-4.00011E-001	0.00000E+000	9	...........	1425.78
	41	3.7	-4.00573E-001	-1.27737E-004	0.00000E+000	-4.00011E-001	0.00000E+000	9	...........	1425.78
	42	3.8	-4.00579E-001	-1.27073E-004	0.00000E+000	-4.00011E-001	0.00000E+000	9	...........	1425.78
	43	3.9	-4.00570E-001	-1.26364E-004	0.00000E+000	-4.00011E-001	0.00000E+000	9	...........	1425.42
	44	4	-4.00572E-001	-1.25749E-004	0.00000E+000	-4.00011E-001	0.00000E+000	9	...........	1425.42
	45	4.1	-4.00582E-001	-1.25149E-004	0.00000E+000	-4.00011E-001	0.00000E+000	9	...........	1425.42
	46	4.2	-4.00579E-001	-1.24542E-004	0.00000E+000	-4.00011E-001	0.00000E+000	9	...........	1425.42
	47	4.3	-4.00576E-001	-1.23962E-004	0.00000E+000	-4.00011E-001	0.00000E+000	9	...........	1425.42
	48	4.4	-4.00580E-001	-1.23314E-004	0.00000E+000	-4.00011E-001	0.00000E+000	9	...........	1425.42
	49	4.5	-4.00582E-001	-1.22789E-004	0.00000E+000	-4.00011E-001	0.00000E+000	9	...........	1425.42
	50	4.6	-4.00580E-001	-1.22237E-004	0.00000E+000	-4.00011E-001	0.00000E+000	9	...........	1425.42
	51	4.7	-4.00575E-001	-1.21694E-004	0.00000E+000	-4.00011E-001	0.00000E+000	9	...........	1425.42
	52	4.8	-4.00581E-001	-1.21169E-004	0.00000E+000	-4.00011E-001	0.00000E+000	9	...........	1425.42
	53	4.9	-4.00573E-001	-1.20609E-004	0.00000E+000	-4.00011E-001	0.00000E+000	9	...........	1425.78
	54	5	-4.00600E-001	-1.20142E-004	0.00000E+000	-4.00011E-001	0.00000E+000	9	...........	1425.78
	55	5.1	-4.00597E-001	-1.19648E-004	0.00000E+000	-4.00011E-001	0.00000E+000	9	...........	1425.78
	56	5.2	-4.00585E-001	-1.19138E-004	0.00000E+000	-4.00011E-001	0.00000E+000	9	...........	1425.78
	57	5.3	-4.00583E-001	-1.18639E-004	0.00000E+000	-4.00011E-001	0.00000E+000	9	...........	1425.78
	58	5.4	-4.00571E-001	-1.18141E-004	0.00000E+000	-4.00011E-001	0.00000E+000	9	...........	1425.78
	59	5.5	-4.00566E-001	-1.17669E-004	0.00000E+000	-4.00011E-001	0.00000E+000	9	...........	1425.78
	60	5.6	-4.00578E-001	-1.17231E-004	0.00000E+000	-4.00011E-001	0.00000E+000	9	...........	1425.78
	61	5.7	-4.00592E-001	-1.16810E-004	0.00000E+000	-4.00011E-001	0.00000E+000	9	...........	1425.78
	62	5.8	-4.00579E-001	-1.16353E-004	0.00000E+000	-4.00011E-001	0.00000E+000	9	...........	1425.78
	63	5.9	-4.00585E-001	-1.15944E-004	0.00000E+000	-4.00011E-001	0.00000E+000	9	...........	1425.34
	64	6	-4.00574E-001	-1.15533E-004	0.00000E+000	-4.00011E-001	0.00000E+000	9	...........	1425.34
	65	6.1	-4.00579E-001	-1.15126E-004	0.00000E+000	-4.00011E-001	0.00000E+000	9	...........	1425.34
	66	7.1	-4.00582E-001	-1.11460E-004	0.00000E+000	-4.00011E-001	0.00000E+000	9	...........	1425.78
	67	8.1	-4.00587E-001	-1.08192E-004	0.00000E+000	-4.00011E-001	0.00000E+000	9	...........	1425.87
	68	9.1	-4.00584E-001	-1.05215E-004	0.00000E+000	-4.00011E-001	0.00000E+000	9	...........	1425.87
	69	10.1	-4.00593E-001	-1.02708E-004	0.00000E+000	-4.00011E-001	0.00000E+000	9	...........	1425.87
	70	11.1	-4.00575E-001	-1.00590E-004	0.00000E+000	-4.00011E-001	0.00000E+000	9	...........	1425.87
	71	12.1	-4.00590E-001	-9.86657E-005	0.00000E+000	-4.00011E-001	0.00000E+000	9	...........	1425.87
	72	13.1	-4.00591E-001	-9.69022E-005	0.00000E+000	-4.00011E-001	0.00000E+000	9	...........	1425.87
	73	14.1	-4.00567E-001	-9.54353E-005	0.00000E+000	-4.00011E-001	0.00000E+000	9	...........	1425.87
	74	15.1	-4.00582E-001	-9.41491E-005	0.00000E+000	-4.00011E-001	0.00000E+000	9	...........	1425.87
	75	16.1	-4.00577E-001	-9.27293E-005	0.00000E+000	-4.00011E-001	0.00000E+000	9	...........	1425.87
	76	26.1	-4.00576E-001	-8.27707E-005	0.00000E+000	-4.00011E-001	0.00000E+000	9	...........	1425.95
	77	36.1	-4.00580E-001	-7.64568E-005	0.00000E+000	-4.00011E-001	0.00000E+000	9	...........	1425.87
	78	46.1	-4.00572E-001	-7.20927E-005	0.00000E+000	-4.00011E-001	0.00000E+000	9	...........	1425.95
	79	56.1	-4.00578E-001	-6.88502E-005	0.00000E+000	-4.00011E-001	0.00000E+000	9	...........	1425.95
	80	66.1	-4.00585E-001	-6.65428E-005	0.00000E+000	-4.00011E-001	0.00000E+000	9	...........	1425.95
	81	76.1	-4.00581E-001	-6.42745E-005	0.00000E+000	-4.00011E-001	0.00000E+000	9	...........	1425.95
	82	86.1	-4.00581E-001	-6.27316E-005	0.00000E+000	-4.00011E-001	0.00000E+000	9	...........	1425.95
	83	96.1	-4.00574E-001	-6.12711E-005	0.00000E+000	-4.00011E-001	0.00000E+000	9	...........	1425.95
	84	106.1	-4.00580E-001	-6.00300E-005	0.00000E+000	-4.00011E-001	0.00000E+000	9	...........	1425.95
	85	116.1	-4.00588E-001	-5.90291E-005	0.00000E+000	-4.00011E-001	0.00000E+000	9	...........	1425.95
	86	216.1	-4.00570E-001	-5.37133E-005	0.00000E+000	-4.00011E-001	0.00000E+000	9	...........	1425.95
	87	300	-4.00580E-001	-5.16529E-005	0.00000E+000	-4.00011E-001	0.00000E+000	9	...........	1425.95
	88	300.1	-5.00585E-001	-3.55816E-004	0.00000E+000	-5.00010E-001	0.00000E+000	9	...........	1425.95
	89	300.2	-5.00575E-001	-2.59028E-004	0.00000E+000	-5.00010E-001	0.00000E+000	9	...........	1425.95
	90	300.3	-5.00577E-001	-2.30420E-004	0.00000E+000	-5.00010E-001	0.00000E+000	9	...........	1425.95
	91	300.4	-5.00585E-001	-2.19030E-004	0.00000E+000	-5.00010E-001	0.00000E+000	9	...........	1425.95
	92	300.5	-5.00582E-001	-2.12732E-004	0.00000E+000	-5.00010E-001	0.00000E+000	9	...........	1425.95
	93	300.6	-5.00590E-001	-2.08393E-004	0.00000E+000	-5.00010E-001	0.00000E+000	9	...........	1425.95
	94	300.7	-5.00586E-001	-2.04960E-004	0.00000E+000	-5.00010E-001	0.00000E+000	9	...........	1425.95
	95	300.8	-5.00575E-001	-2.01969E-004	0.00000E+000	-5.00010E-001	0.00000E+000	9	...........	1425.95
	96	300.9	-5.00583E-001	-1.99495E-004	0.00000E+000	-5.00010E-001	0.00000E+000	9	...........	1425.95
	97	301	-5.00589E-001	-1.97187E-004	0.00000E+000	-5.00010E-001	0.00000E+000	9	...........	1425.95
