EXPLAIN
TAG	CHRONOA
TITLE	LABEL	Chronoamperometry Scan	Test Identifier
DATE	LABEL	20/12/2021	Date
TIME	LABEL	13:15:17	Time
NOTES	NOTES	1	Notes...
	
PSTAT	PSTAT	IFC1010-21051	Potentiostat
VPRESTEP	POTEN	1.00000E-002	F	Pre-step Voltage (V)
TPRESTEP	QUANT	5.00000E-001	Pre-step Delay Time (s)
VSTEP1	POTEN	0.00000E+000	F	Step 1 Voltage (V)
TSTEP1	QUANT	3.00000E+002	Step 1 Time (s)
VSTEP2	POTEN	-1.00000E-001	T	Step 2 Voltage (V)
TSTEP2	QUANT	1.00000E+000	Step 2 Time (s)
SAMPLETIME	QUANT	1.00000E-001	Sample Period (s)
DECIMATE	TOGGLE	T	Decimate
ILIMIT	QUANT	1.00000E+000	Limit I (mA/cm^2)
IMODE	SELECTOR	1	I/E Range Mode
IRANGE	QUANT	3.00000E-001	Max Current (mA)
EQDELAY	QUANT	5.00000E+000	Equil. Time (s)
SAMPLINGMODE	SELECTOR	1	Sampling Mode
AREA	QUANT	1.00000E+000	Sample Area (cm^2)
IRCOMP	SELECTOR	0	IRComp
PFCOR	QUANT	5.00000E+001	PF Corr. (ohm)
SEQUENCER	TOGGLE	TRUE	Run as Sequence
PSTATMODEL	IQUANT	64	Pstat Model
PSTATSECTION	LABEL	IFC1010-21051	Pstat Section
PSTATSERIALNO	LABEL	21051	Pstat Serial Number
CTRLMODE	IQUANT	1	Control Mode
ELECTROMETER	IQUANT	0	RE=0 or CS=1
IESTAB	IQUANT	0	I/E Stability
CASPEED	IQUANT	4	Control Amp Speed
CONVENTION	IQUANT	1	Current Convention
ICHRANGE	IQUANT	2	Ich Range
ICHRANGEMODE	TOGGLE	T	Ich Auto Range
ICHOFFSETENABLE	TOGGLE	F	Ich Offset Enable
ICHOFFSET	QUANT	0	Ich Offset (V)
ICHFILTER	IQUANT	3	Ich Filter
VCHRANGE	IQUANT	3	Vch Range
VCHRANGEMODE	TOGGLE	T	Vch Auto Range
VCHOFFSETENABLE	TOGGLE	F	Vch Offset Enable
VCHOFFSET	QUANT	0	Vch Offset (V)
VCHFILTER	IQUANT	3	Vch Filter
IERANGELOWERLIMIT	IQUANT	4	I/E Range Lower Limit
IERANGEMODE	TOGGLE	F	I/E AutoRange
IERANGE	IQUANT	9	I/E Range
ACHSELECT	IQUANT	0	Ach Select
ACHRANGE	IQUANT	2	Ach Range
ACHOFFSETENABLE	TOGGLE	F	Ach Offset Enable
ACHOFFSET	QUANT	0	Ach Offset (V)
ACHFILTER	IQUANT	1	Ach Filter
SENSECABLEID	IQUANT	14	Sense Cable ID
PWRCABLEID	IQUANT	14	Power Cable ID
DCCALDATE	LABEL	10/1/2020	DC Calibration Date
ACCALDATE	LABEL	4/2/2018	AC Calibration Date
FRAMEWORKVERSION	QUANT	7.06	Framework Version
INSTRUMENTVERSION	LABEL	4.30	Instrument Version
CURVE	TABLE	98
	Pt	T	Vf	Im	Vu	Sig	Ach	IERange	Over	Temp
	#	s	V vs. Ref.	A	V	V	V	#	bits	deg C
	0	-0.4	9.73633E-003	-9.42441E-007	0.00000E+000	1.00559E-002	0.00000E+000	9	...........	1425.87
	1	-0.3	1.00162E-002	-9.37570E-007	0.00000E+000	1.00559E-002	0.00000E+000	9	...........	1425.87
	2	-0.2	1.00807E-002	-9.42008E-007	0.00000E+000	1.00559E-002	0.00000E+000	9	...........	1425.87
	3	-0.1	1.00883E-002	-9.29995E-007	0.00000E+000	1.00559E-002	0.00000E+000	9	...........	1425.87
	4	0	1.00882E-002	-9.30896E-007	0.00000E+000	1.00559E-002	0.00000E+000	9	...........	1425.87
	5	0.1	8.05942E-005	-1.73419E-005	0.00000E+000	5.34840E-005	0.00000E+000	9	...........	1425.87
	6	0.2	7.91785E-005	-6.15856E-006	0.00000E+000	5.34840E-005	0.00000E+000	9	...........	1425.87
	7	0.3	7.98143E-005	-3.21685E-006	0.00000E+000	5.34840E-005	0.00000E+000	9	...........	1425.87
	8	0.4	8.08616E-005	-2.29327E-006	0.00000E+000	5.34840E-005	0.00000E+000	9	...........	1425.87
	9	0.5	7.99875E-005	-1.93370E-006	0.00000E+000	5.34840E-005	0.00000E+000	9	...........	1425.87
	10	0.6	8.08836E-005	-1.75655E-006	0.00000E+000	5.34840E-005	0.00000E+000	9	...........	1425.87
	11	0.7	8.04561E-005	-1.64029E-006	0.00000E+000	5.34840E-005	0.00000E+000	9	...........	1425.87
	12	0.8	7.97071E-005	-1.56045E-006	0.00000E+000	5.34840E-005	0.00000E+000	9	...........	1425.87
	13	0.9	7.92626E-005	-1.50212E-006	0.00000E+000	5.34840E-005	0.00000E+000	9	...........	1425.87
	14	1	7.91925E-005	-1.45604E-006	0.00000E+000	5.34840E-005	0.00000E+000	9	...........	1425.87
	15	1.1	8.01867E-005	-1.40882E-006	0.00000E+000	5.34840E-005	0.00000E+000	9	...........	1426.22
	16	1.2	7.99124E-005	-1.37906E-006	0.00000E+000	5.34840E-005	0.00000E+000	9	...........	1426.22
	17	1.3	7.99614E-005	-1.34896E-006	0.00000E+000	5.34840E-005	0.00000E+000	9	...........	1426.22
	18	1.4	7.93917E-005	-1.31776E-006	0.00000E+000	5.34840E-005	0.00000E+000	9	...........	1426.22
	19	1.5	7.77818E-005	-1.30328E-006	0.00000E+000	5.34840E-005	0.00000E+000	9	...........	1426.22
	20	1.6	7.90473E-005	-1.27175E-006	0.00000E+000	5.34840E-005	0.00000E+000	9	...........	1426.22
	21	1.7	7.89372E-005	-1.26194E-006	0.00000E+000	5.34840E-005	0.00000E+000	9	...........	1426.22
	22	1.8	7.82874E-005	-1.24078E-006	0.00000E+000	5.34840E-005	0.00000E+000	9	...........	1426.22
	23	1.9	7.79750E-005	-1.23027E-006	0.00000E+000	5.34840E-005	0.00000E+000	9	...........	1426.22
	24	2	7.82834E-005	-1.22003E-006	0.00000E+000	5.34840E-005	0.00000E+000	9	...........	1426.22
	25	2.1	7.82443E-005	-1.19667E-006	0.00000E+000	5.34840E-005	0.00000E+000	9	...........	1426.22
	26	2.2	7.75615E-005	-1.18686E-006	0.00000E+000	5.34840E-005	0.00000E+000	9	...........	1426.22
	27	2.3	7.90944E-005	-1.17245E-006	0.00000E+000	5.34840E-005	0.00000E+000	9	...........	1426.22
	28	2.4	7.84155E-005	-1.16067E-006	0.00000E+000	5.34840E-005	0.00000E+000	9	...........	1426.22
	29	2.5	7.77878E-005	-1.14849E-006	0.00000E+000	5.34840E-005	0.00000E+000	9	...........	1426.22
	30	2.6	7.82583E-005	-1.13758E-006	0.00000E+000	5.34840E-005	0.00000E+000	9	...........	1426.22
	31	2.7	7.90693E-005	-1.11579E-006	0.00000E+000	5.34840E-005	0.00000E+000	9	...........	1426.22
	32	2.8	7.84756E-005	-1.10541E-006	0.00000E+000	5.34840E-005	0.00000E+000	9	...........	1426.22
	33	2.9	7.87339E-005	-1.09603E-006	0.00000E+000	5.34840E-005	0.00000E+000	9	...........	1426.22
	34	3	7.87349E-005	-1.07798E-006	0.00000E+000	5.34840E-005	0.00000E+000	9	...........	1426.22
	35	3.1	7.88511E-005	-1.06921E-006	0.00000E+000	5.34840E-005	0.00000E+000	9	...........	1426.22
	36	3.2	7.88260E-005	-1.05603E-006	0.00000E+000	5.34840E-005	0.00000E+000	9	...........	1426.22
	37	3.3	7.96330E-005	-1.05045E-006	0.00000E+000	5.34840E-005	0.00000E+000	9	...........	1426.22
	38	3.4	7.89512E-005	-1.04525E-006	0.00000E+000	5.34840E-005	0.00000E+000	9	...........	1426.22
	39	3.5	7.85987E-005	-1.04048E-006	0.00000E+000	5.34840E-005	0.00000E+000	9	...........	1426.22
	40	3.6	8.04971E-005	-1.02683E-006	0.00000E+000	5.34840E-005	0.00000E+000	9	...........	1426.22
	41	3.7	7.85577E-005	-1.03641E-006	0.00000E+000	5.34840E-005	0.00000E+000	9	...........	1426.22
	42	3.8	7.90623E-005	-1.02172E-006	0.00000E+000	5.34840E-005	0.00000E+000	9	...........	1426.22
	43	3.9	7.97472E-005	-1.02129E-006	0.00000E+000	5.34840E-005	0.00000E+000	9	...........	1426.22
	44	4	7.90573E-005	-1.01475E-006	0.00000E+000	5.34840E-005	0.00000E+000	9	...........	1426.22
	45	4.1	7.92456E-005	-1.00547E-006	0.00000E+000	5.34840E-005	0.00000E+000	9	...........	1426.04
	46	4.2	7.89041E-005	-1.00911E-006	0.00000E+000	5.34840E-005	0.00000E+000	9	...........	1426.04
	47	4.3	7.93417E-005	-9.87421E-007	0.00000E+000	5.34840E-005	0.00000E+000	9	...........	1426.04
	48	4.4	7.94158E-005	-9.83951E-007	0.00000E+000	5.34840E-005	0.00000E+000	9	...........	1426.04
	49	4.5	7.89962E-005	-9.73173E-007	0.00000E+000	5.34840E-005	0.00000E+000	9	...........	1426.04
	50	4.6	7.93907E-005	-9.61728E-007	0.00000E+000	5.34840E-005	0.00000E+000	9	...........	1426.04
	51	4.7	7.82944E-005	-9.58992E-007	0.00000E+000	5.34840E-005	0.00000E+000	9	...........	1426.04
	52	4.8	7.96270E-005	-9.45678E-007	0.00000E+000	5.34840E-005	0.00000E+000	9	...........	1426.04
	53	4.9	7.96691E-005	-9.33299E-007	0.00000E+000	5.34840E-005	0.00000E+000	9	...........	1426.04
	54	5	7.90203E-005	-9.20552E-007	0.00000E+000	5.34840E-005	0.00000E+000	9	...........	1426.04
	55	5.1	7.87299E-005	-9.12143E-007	0.00000E+000	5.34840E-005	0.00000E+000	9	...........	1426.04
	56	5.2	7.88180E-005	-9.03468E-007	0.00000E+000	5.34840E-005	0.00000E+000	9	...........	1426.04
	57	5.3	7.76766E-005	-8.95927E-007	0.00000E+000	5.34840E-005	0.00000E+000	9	...........	1426.04
	58	5.4	7.86178E-005	-8.79910E-007	0.00000E+000	5.34840E-005	0.00000E+000	9	...........	1426.04
	59	5.5	7.77828E-005	-8.80711E-007	0.00000E+000	5.34840E-005	0.00000E+000	9	...........	1426.04
	60	5.6	7.84506E-005	-8.72236E-007	0.00000E+000	5.34840E-005	0.00000E+000	9	...........	1426.04
	61	5.7	7.88901E-005	-8.68031E-007	0.00000E+000	5.34840E-005	0.00000E+000	9	...........	1426.04
	62	5.8	7.90653E-005	-8.71668E-007	0.00000E+000	5.34840E-005	0.00000E+000	9	...........	1426.04
	63	5.9	7.87519E-005	-8.69633E-007	0.00000E+000	5.34840E-005	0.00000E+000	9	...........	1426.04
	64	6	7.92636E-005	-8.66997E-007	0.00000E+000	5.34840E-005	0.00000E+000	9	...........	1426.04
	65	6.1	7.82253E-005	-8.77808E-007	0.00000E+000	5.34840E-005	0.00000E+000	9	...........	1426.13
	66	7.1	7.82934E-005	-8.71268E-007	0.00000E+000	5.34840E-005	0.00000E+000	9	...........	1426.13
	67	8.1	7.82323E-005	-8.89720E-007	0.00000E+000	5.34840E-005	0.00000E+000	9	...........	1426.22
	68	9.1	7.87620E-005	-9.01099E-007	0.00000E+000	5.34840E-005	0.00000E+000	9	...........	1426.22
	69	10.1	7.87169E-005	-9.65098E-007	0.00000E+000	5.34840E-005	0.00000E+000	9	...........	1426.22
	70	11.1	7.83655E-005	-9.73774E-007	0.00000E+000	5.34840E-005	0.00000E+000	9	...........	1426.22
	71	12.1	7.76065E-005	-9.67901E-007	0.00000E+000	5.34840E-005	0.00000E+000	9	...........	1426.22
	72	13.1	7.84356E-005	-9.66066E-007	0.00000E+000	5.34840E-005	0.00000E+000	9	...........	1426.22
	73	14.1	7.95740E-005	-9.63330E-007	0.00000E+000	5.34840E-005	0.00000E+000	9	...........	1426.22
	74	15.1	7.86018E-005	-9.78345E-007	0.00000E+000	5.34840E-005	0.00000E+000	9	...........	1426.22
	75	16.1	7.92696E-005	-1.02379E-006	0.00000E+000	5.34840E-005	0.00000E+000	9	...........	1426.13
	76	26.1	7.75675E-005	-1.29450E-006	0.00000E+000	5.34840E-005	0.00000E+000	9	...........	1426.22
	77	36.1	7.91274E-005	-1.19227E-006	0.00000E+000	5.34840E-005	0.00000E+000	9	...........	1426.13
	78	46.1	7.78398E-005	-1.13421E-006	0.00000E+000	5.34840E-005	0.00000E+000	9	...........	1426.13
	79	56.1	7.78278E-005	-9.04002E-007	0.00000E+000	5.34840E-005	0.00000E+000	9	...........	1426.22
	80	66.1	7.86879E-005	-1.02349E-006	0.00000E+000	5.34840E-005	0.00000E+000	9	...........	1426.13
	81	76.1	7.70699E-005	-1.19447E-006	0.00000E+000	5.34840E-005	0.00000E+000	9	...........	1426.22
	82	86.1	7.79319E-005	-1.01542E-006	0.00000E+000	5.34840E-005	0.00000E+000	9	...........	1426.22
	83	96.1	7.74153E-005	-8.87785E-007	0.00000E+000	5.34840E-005	0.00000E+000	9	...........	1426.13
	84	106.1	7.87319E-005	-9.72172E-007	0.00000E+000	5.34840E-005	0.00000E+000	9	...........	1426.22
	85	116.1	7.78959E-005	-1.17448E-006	0.00000E+000	5.34840E-005	0.00000E+000	9	...........	1426.22
	86	216.1	7.78388E-005	-9.91859E-007	0.00000E+000	5.34840E-005	0.00000E+000	9	...........	1426.22
	87	300	7.64311E-005	-9.98566E-007	0.00000E+000	5.34840E-005	0.00000E+000	9	...........	1426.22
	88	300.1	-3.29021E-002	-1.58887E-004	0.00000E+000	-9.99460E-002	0.00000E+000	9	.........v.	1426.22
	89	300.2	-9.99417E-002	-5.05739E-005	0.00000E+000	-9.99460E-002	0.00000E+000	9	...........	1426.22
	90	300.3	-9.99418E-002	-2.38168E-005	0.00000E+000	-9.99460E-002	0.00000E+000	9	...........	1426.22
	91	300.4	-9.99418E-002	-1.58696E-005	0.00000E+000	-9.99460E-002	0.00000E+000	9	...........	1426.22
	92	300.5	-9.99399E-002	-1.28335E-005	0.00000E+000	-9.99460E-002	0.00000E+000	9	...........	1426.22
	93	300.6	-9.99399E-002	-1.13493E-005	0.00000E+000	-9.99460E-002	0.00000E+000	9	...........	1426.22
	94	300.7	-9.99401E-002	-1.04297E-005	0.00000E+000	-9.99460E-002	0.00000E+000	9	...........	1426.22
	95	300.8	-9.99397E-002	-9.78660E-006	0.00000E+000	-9.99460E-002	0.00000E+000	9	...........	1426.22
	96	300.9	-9.99396E-002	-9.31625E-006	0.00000E+000	-9.99460E-002	0.00000E+000	9	...........	1426.22
	97	301	-9.99382E-002	-8.91457E-006	0.00000E+000	-9.99460E-002	0.00000E+000	9	...........	1426.22
