EXPLAIN
TAG	CHRONOA
TITLE	LABEL	Chronoamperometry Scan	Test Identifier
DATE	LABEL	20/12/2021	Date
TIME	LABEL	12:18:40	Time
NOTES	NOTES	1	Notes...
	
PSTAT	PSTAT	IFC1010-21051	Potentiostat
VPRESTEP	POTEN	-3.00000E-001	F	Pre-step Voltage (V)
TPRESTEP	QUANT	5.00000E-001	Pre-step Delay Time (s)
VSTEP1	POTEN	-4.00000E-001	F	Step 1 Voltage (V)
TSTEP1	QUANT	3.00000E+002	Step 1 Time (s)
VSTEP2	POTEN	-5.00000E-001	F	Step 2 Voltage (V)
TSTEP2	QUANT	1.00000E+000	Step 2 Time (s)
SAMPLETIME	QUANT	1.00000E-001	Sample Period (s)
DECIMATE	TOGGLE	T	Decimate
ILIMIT	QUANT	1.00000E+000	Limit I (mA/cm^2)
IMODE	SELECTOR	1	I/E Range Mode
IRANGE	QUANT	3.00000E-001	Max Current (mA)
EQDELAY	QUANT	5.00000E+000	Equil. Time (s)
SAMPLINGMODE	SELECTOR	1	Sampling Mode
AREA	QUANT	1.00000E+000	Sample Area (cm^2)
IRCOMP	SELECTOR	0	IRComp
PFCOR	QUANT	5.00000E+001	PF Corr. (ohm)
SEQUENCER	TOGGLE	TRUE	Run as Sequence
PSTATMODEL	IQUANT	64	Pstat Model
PSTATSECTION	LABEL	IFC1010-21051	Pstat Section
PSTATSERIALNO	LABEL	21051	Pstat Serial Number
CTRLMODE	IQUANT	1	Control Mode
ELECTROMETER	IQUANT	0	RE=0 or CS=1
IESTAB	IQUANT	0	I/E Stability
CASPEED	IQUANT	4	Control Amp Speed
CONVENTION	IQUANT	1	Current Convention
ICHRANGE	IQUANT	2	Ich Range
ICHRANGEMODE	TOGGLE	T	Ich Auto Range
ICHOFFSETENABLE	TOGGLE	F	Ich Offset Enable
ICHOFFSET	QUANT	0	Ich Offset (V)
ICHFILTER	IQUANT	3	Ich Filter
VCHRANGE	IQUANT	3	Vch Range
VCHRANGEMODE	TOGGLE	T	Vch Auto Range
VCHOFFSETENABLE	TOGGLE	F	Vch Offset Enable
VCHOFFSET	QUANT	0	Vch Offset (V)
VCHFILTER	IQUANT	3	Vch Filter
IERANGELOWERLIMIT	IQUANT	4	I/E Range Lower Limit
IERANGEMODE	TOGGLE	F	I/E AutoRange
IERANGE	IQUANT	9	I/E Range
ACHSELECT	IQUANT	0	Ach Select
ACHRANGE	IQUANT	2	Ach Range
ACHOFFSETENABLE	TOGGLE	F	Ach Offset Enable
ACHOFFSET	QUANT	0	Ach Offset (V)
ACHFILTER	IQUANT	1	Ach Filter
SENSECABLEID	IQUANT	14	Sense Cable ID
PWRCABLEID	IQUANT	14	Power Cable ID
DCCALDATE	LABEL	10/1/2020	DC Calibration Date
ACCALDATE	LABEL	4/2/2018	AC Calibration Date
FRAMEWORKVERSION	QUANT	7.06	Framework Version
INSTRUMENTVERSION	LABEL	4.30	Instrument Version
CURVE	TABLE	98
	Pt	T	Vf	Im	Vu	Sig	Ach	IERange	Over	Temp
	#	s	V vs. Ref.	A	V	V	V	#	bits	deg C
	0	-0.4	-3.00711E-001	-4.19521E-005	0.00000E+000	-3.00011E-001	0.00000E+000	9	...........	1425.78
	1	-0.3	-3.00525E-001	-4.18115E-005	0.00000E+000	-3.00011E-001	0.00000E+000	9	...........	1425.78
	2	-0.2	-3.00535E-001	-4.16687E-005	0.00000E+000	-3.00011E-001	0.00000E+000	9	...........	1425.78
	3	-0.1	-3.00537E-001	-4.15257E-005	0.00000E+000	-3.00011E-001	0.00000E+000	9	...........	1425.69
	4	0	-3.00537E-001	-4.14227E-005	0.00000E+000	-3.00011E-001	0.00000E+000	9	...........	1425.69
	5	0.1	-4.00574E-001	-3.39849E-004	0.00000E+000	-4.00011E-001	0.00000E+000	9	...........	1425.69
	6	0.2	-4.00576E-001	-2.44725E-004	0.00000E+000	-4.00011E-001	0.00000E+000	9	...........	1425.69
	7	0.3	-4.00567E-001	-2.09637E-004	0.00000E+000	-4.00011E-001	0.00000E+000	9	...........	1425.69
	8	0.4	-4.00573E-001	-1.91673E-004	0.00000E+000	-4.00011E-001	0.00000E+000	9	...........	1425.69
	9	0.5	-4.00579E-001	-1.80385E-004	0.00000E+000	-4.00011E-001	0.00000E+000	9	...........	1425.69
	10	0.6	-4.00567E-001	-1.72330E-004	0.00000E+000	-4.00011E-001	0.00000E+000	9	...........	1425.69
	11	0.7	-4.00571E-001	-1.66212E-004	0.00000E+000	-4.00011E-001	0.00000E+000	9	...........	1425.69
	12	0.8	-4.00577E-001	-1.61265E-004	0.00000E+000	-4.00011E-001	0.00000E+000	9	...........	1425.69
	13	0.9	-4.00579E-001	-1.57123E-004	0.00000E+000	-4.00011E-001	0.00000E+000	9	...........	1425.42
	14	1	-4.00571E-001	-1.53564E-004	0.00000E+000	-4.00011E-001	0.00000E+000	9	...........	1425.42
	15	1.1	-4.00586E-001	-1.50511E-004	0.00000E+000	-4.00011E-001	0.00000E+000	9	...........	1425.42
	16	1.2	-4.00575E-001	-1.47741E-004	0.00000E+000	-4.00011E-001	0.00000E+000	9	...........	1425.42
	17	1.3	-4.00575E-001	-1.45264E-004	0.00000E+000	-4.00011E-001	0.00000E+000	9	...........	1425.42
	18	1.4	-4.00579E-001	-1.43046E-004	0.00000E+000	-4.00011E-001	0.00000E+000	9	...........	1425.42
	19	1.5	-4.00572E-001	-1.41002E-004	0.00000E+000	-4.00011E-001	0.00000E+000	9	...........	1425.42
	20	1.6	-4.00574E-001	-1.39092E-004	0.00000E+000	-4.00011E-001	0.00000E+000	9	...........	1425.42
	21	1.7	-4.00580E-001	-1.37370E-004	0.00000E+000	-4.00011E-001	0.00000E+000	9	...........	1425.42
	22	1.8	-4.00573E-001	-1.35750E-004	0.00000E+000	-4.00011E-001	0.00000E+000	9	...........	1425.42
	23	1.9	-4.00568E-001	-1.34206E-004	0.00000E+000	-4.00011E-001	0.00000E+000	9	...........	1425.25
	24	2	-4.00575E-001	-1.32777E-004	0.00000E+000	-4.00011E-001	0.00000E+000	9	...........	1425.25
	25	2.1	-4.00581E-001	-1.31451E-004	0.00000E+000	-4.00011E-001	0.00000E+000	9	...........	1425.25
	26	2.2	-4.00582E-001	-1.30205E-004	0.00000E+000	-4.00011E-001	0.00000E+000	9	...........	1425.25
	27	2.3	-4.00570E-001	-1.28965E-004	0.00000E+000	-4.00011E-001	0.00000E+000	9	...........	1425.25
	28	2.4	-4.00579E-001	-1.27857E-004	0.00000E+000	-4.00011E-001	0.00000E+000	9	...........	1425.25
	29	2.5	-4.00571E-001	-1.26793E-004	0.00000E+000	-4.00011E-001	0.00000E+000	9	...........	1425.25
	30	2.6	-4.00583E-001	-1.25788E-004	0.00000E+000	-4.00011E-001	0.00000E+000	9	...........	1425.25
	31	2.7	-4.00575E-001	-1.24775E-004	0.00000E+000	-4.00011E-001	0.00000E+000	9	...........	1425.25
	32	2.8	-4.00568E-001	-1.23797E-004	0.00000E+000	-4.00011E-001	0.00000E+000	9	...........	1425.25
	33	2.9	-4.00568E-001	-1.22967E-004	0.00000E+000	-4.00011E-001	0.00000E+000	9	...........	1425.60
	34	3	-4.00574E-001	-1.22117E-004	0.00000E+000	-4.00011E-001	0.00000E+000	9	...........	1425.60
	35	3.1	-4.00581E-001	-1.21269E-004	0.00000E+000	-4.00011E-001	0.00000E+000	9	...........	1425.60
	36	3.2	-4.00574E-001	-1.20457E-004	0.00000E+000	-4.00011E-001	0.00000E+000	9	...........	1425.60
	37	3.3	-4.00571E-001	-1.19661E-004	0.00000E+000	-4.00011E-001	0.00000E+000	9	...........	1425.60
	38	3.4	-4.00569E-001	-1.18932E-004	0.00000E+000	-4.00011E-001	0.00000E+000	9	...........	1425.60
	39	3.5	-4.00565E-001	-1.18177E-004	0.00000E+000	-4.00011E-001	0.00000E+000	9	...........	1425.60
	40	3.6	-4.00580E-001	-1.17540E-004	0.00000E+000	-4.00011E-001	0.00000E+000	9	...........	1425.60
	41	3.7	-4.00578E-001	-1.16862E-004	0.00000E+000	-4.00011E-001	0.00000E+000	9	...........	1425.60
	42	3.8	-4.00583E-001	-1.16161E-004	0.00000E+000	-4.00011E-001	0.00000E+000	9	...........	1425.60
	43	3.9	-4.00577E-001	-1.15538E-004	0.00000E+000	-4.00011E-001	0.00000E+000	9	...........	1425.25
	44	4	-4.00569E-001	-1.14949E-004	0.00000E+000	-4.00011E-001	0.00000E+000	9	...........	1425.25
	45	4.1	-4.00579E-001	-1.14342E-004	0.00000E+000	-4.00011E-001	0.00000E+000	9	...........	1425.25
	46	4.2	-4.00563E-001	-1.13725E-004	0.00000E+000	-4.00011E-001	0.00000E+000	9	...........	1425.25
	47	4.3	-4.00580E-001	-1.13191E-004	0.00000E+000	-4.00011E-001	0.00000E+000	9	...........	1425.25
	48	4.4	-4.00577E-001	-1.12634E-004	0.00000E+000	-4.00011E-001	0.00000E+000	9	...........	1425.25
	49	4.5	-4.00578E-001	-1.12073E-004	0.00000E+000	-4.00011E-001	0.00000E+000	9	...........	1425.25
	50	4.6	-4.00575E-001	-1.11549E-004	0.00000E+000	-4.00011E-001	0.00000E+000	9	...........	1425.25
	51	4.7	-4.00567E-001	-1.10995E-004	0.00000E+000	-4.00011E-001	0.00000E+000	9	...........	1425.25
	52	4.8	-4.00573E-001	-1.10509E-004	0.00000E+000	-4.00011E-001	0.00000E+000	9	...........	1425.25
	53	4.9	-4.00576E-001	-1.09971E-004	0.00000E+000	-4.00011E-001	0.00000E+000	9	...........	1425.25
	54	5	-4.00574E-001	-1.09522E-004	0.00000E+000	-4.00011E-001	0.00000E+000	9	...........	1425.25
	55	5.1	-4.00572E-001	-1.09024E-004	0.00000E+000	-4.00011E-001	0.00000E+000	9	...........	1425.25
	56	5.2	-4.00582E-001	-1.08574E-004	0.00000E+000	-4.00011E-001	0.00000E+000	9	...........	1425.25
	57	5.3	-4.00572E-001	-1.08089E-004	0.00000E+000	-4.00011E-001	0.00000E+000	9	...........	1425.25
	58	5.4	-4.00578E-001	-1.07637E-004	0.00000E+000	-4.00011E-001	0.00000E+000	9	...........	1425.25
	59	5.5	-4.00565E-001	-1.07169E-004	0.00000E+000	-4.00011E-001	0.00000E+000	9	...........	1425.25
	60	5.6	-4.00567E-001	-1.06719E-004	0.00000E+000	-4.00011E-001	0.00000E+000	9	...........	1425.25
	61	5.7	-4.00571E-001	-1.06316E-004	0.00000E+000	-4.00011E-001	0.00000E+000	9	...........	1425.25
	62	5.8	-4.00582E-001	-1.05928E-004	0.00000E+000	-4.00011E-001	0.00000E+000	9	...........	1425.25
	63	5.9	-4.00575E-001	-1.05547E-004	0.00000E+000	-4.00011E-001	0.00000E+000	9	...........	1425.25
	64	6	-4.00577E-001	-1.05143E-004	0.00000E+000	-4.00011E-001	0.00000E+000	9	...........	1425.25
	65	6.1	-4.00579E-001	-1.04724E-004	0.00000E+000	-4.00011E-001	0.00000E+000	9	...........	1425.25
	66	7.1	-4.00572E-001	-1.01226E-004	0.00000E+000	-4.00011E-001	0.00000E+000	9	...........	1425.42
	67	8.1	-4.00584E-001	-9.83131E-005	0.00000E+000	-4.00011E-001	0.00000E+000	9	...........	1425.69
	68	9.1	-4.00570E-001	-9.59027E-005	0.00000E+000	-4.00011E-001	0.00000E+000	9	...........	1425.69
	69	10.1	-4.00572E-001	-9.37028E-005	0.00000E+000	-4.00011E-001	0.00000E+000	9	...........	1425.69
	70	11.1	-4.00572E-001	-9.17557E-005	0.00000E+000	-4.00011E-001	0.00000E+000	9	...........	1425.69
	71	12.1	-4.00584E-001	-9.01533E-005	0.00000E+000	-4.00011E-001	0.00000E+000	9	...........	1425.78
	72	13.1	-4.00574E-001	-8.86569E-005	0.00000E+000	-4.00011E-001	0.00000E+000	9	...........	1425.69
	73	14.1	-4.00582E-001	-8.72958E-005	0.00000E+000	-4.00011E-001	0.00000E+000	9	...........	1425.78
	74	15.1	-4.00569E-001	-8.58843E-005	0.00000E+000	-4.00011E-001	0.00000E+000	9	...........	1425.69
	75	16.1	-4.00573E-001	-8.45455E-005	0.00000E+000	-4.00011E-001	0.00000E+000	9	...........	1425.78
	76	26.1	-4.00574E-001	-7.54889E-005	0.00000E+000	-4.00011E-001	0.00000E+000	9	...........	1425.78
	77	36.1	-4.00568E-001	-7.02091E-005	0.00000E+000	-4.00011E-001	0.00000E+000	9	...........	1425.78
	78	46.1	-4.00569E-001	-6.66681E-005	0.00000E+000	-4.00011E-001	0.00000E+000	9	...........	1425.78
	79	56.1	-4.00570E-001	-6.33922E-005	0.00000E+000	-4.00011E-001	0.00000E+000	9	...........	1425.78
	80	66.1	-4.00581E-001	-6.10428E-005	0.00000E+000	-4.00011E-001	0.00000E+000	9	...........	1425.78
	81	76.1	-4.00573E-001	-5.95181E-005	0.00000E+000	-4.00011E-001	0.00000E+000	9	...........	1425.78
	82	86.1	-4.00567E-001	-5.80867E-005	0.00000E+000	-4.00011E-001	0.00000E+000	9	...........	1425.78
	83	96.1	-4.00576E-001	-5.66385E-005	0.00000E+000	-4.00011E-001	0.00000E+000	9	...........	1425.78
	84	106.1	-4.00574E-001	-5.52078E-005	0.00000E+000	-4.00011E-001	0.00000E+000	9	...........	1425.87
	85	116.1	-4.00577E-001	-5.45523E-005	0.00000E+000	-4.00011E-001	0.00000E+000	9	...........	1425.87
	86	216.1	-4.00580E-001	-4.88198E-005	0.00000E+000	-4.00011E-001	0.00000E+000	9	...........	1425.78
	87	300	-4.00581E-001	-4.70500E-005	0.00000E+000	-4.00011E-001	0.00000E+000	9	...........	1425.87
	88	300.1	-5.00582E-001	-3.55835E-004	0.00000E+000	-5.00010E-001	0.00000E+000	9	...........	1425.87
	89	300.2	-5.00586E-001	-2.51160E-004	0.00000E+000	-5.00010E-001	0.00000E+000	9	...........	1425.87
	90	300.3	-5.00580E-001	-2.17888E-004	0.00000E+000	-5.00010E-001	0.00000E+000	9	...........	1425.87
	91	300.4	-5.00578E-001	-2.04560E-004	0.00000E+000	-5.00010E-001	0.00000E+000	9	...........	1425.87
	92	300.5	-5.00573E-001	-1.97811E-004	0.00000E+000	-5.00010E-001	0.00000E+000	9	...........	1425.87
	93	300.6	-5.00562E-001	-1.93375E-004	0.00000E+000	-5.00010E-001	0.00000E+000	9	...........	1425.87
	94	300.7	-5.00580E-001	-1.90182E-004	0.00000E+000	-5.00010E-001	0.00000E+000	9	...........	1425.87
	95	300.8	-5.00571E-001	-1.87482E-004	0.00000E+000	-5.00010E-001	0.00000E+000	9	...........	1425.87
	96	300.9	-5.00579E-001	-1.85214E-004	0.00000E+000	-5.00010E-001	0.00000E+000	9	...........	1425.87
	97	301	-5.00566E-001	-1.83150E-004	0.00000E+000	-5.00010E-001	0.00000E+000	9	...........	1425.87
