EXPLAIN
TAG	CHRONOA
TITLE	LABEL	Chronoamperometry Scan	Test Identifier
DATE	LABEL	21/2/2022	Date
TIME	LABEL	16:04:47	Time
NOTES	NOTES	1	Notes...
	
PSTAT	PSTAT	IFC1010-21051	Potentiostat
VPRESTEP	POTEN	3.00000E-001	F	Pre-step Voltage (V)
TPRESTEP	QUANT	5.00000E-001	Pre-step Delay Time (s)
VSTEP1	POTEN	4.00000E-001	F	Step 1 Voltage (V)
TSTEP1	QUANT	3.00000E+002	Step 1 Time (s)
VSTEP2	POTEN	3.00000E-001	F	Step 2 Voltage (V)
TSTEP2	QUANT	1.00000E+000	Step 2 Time (s)
SAMPLETIME	QUANT	1.00000E-001	Sample Period (s)
DECIMATE	TOGGLE	T	Decimate
ILIMIT	QUANT	1.00000E+000	Limit I (mA/cm^2)
IMODE	SELECTOR	1	I/E Range Mode
IRANGE	QUANT	3.00000E-001	Max Current (mA)
EQDELAY	QUANT	5.00000E+000	Equil. Time (s)
SAMPLINGMODE	SELECTOR	1	Sampling Mode
AREA	QUANT	1.00000E+000	Sample Area (cm^2)
IRCOMP	SELECTOR	0	IRComp
PFCOR	QUANT	5.00000E+001	PF Corr. (ohm)
SEQUENCER	TOGGLE	TRUE	Run as Sequence
PSTATMODEL	IQUANT	64	Pstat Model
PSTATSECTION	LABEL	IFC1010-21051	Pstat Section
PSTATSERIALNO	LABEL	21051	Pstat Serial Number
CTRLMODE	IQUANT	1	Control Mode
ELECTROMETER	IQUANT	0	RE=0 or CS=1
IESTAB	IQUANT	0	I/E Stability
CASPEED	IQUANT	4	Control Amp Speed
CONVENTION	IQUANT	1	Current Convention
ICHRANGE	IQUANT	2	Ich Range
ICHRANGEMODE	TOGGLE	T	Ich Auto Range
ICHOFFSETENABLE	TOGGLE	F	Ich Offset Enable
ICHOFFSET	QUANT	0	Ich Offset (V)
ICHFILTER	IQUANT	3	Ich Filter
VCHRANGE	IQUANT	3	Vch Range
VCHRANGEMODE	TOGGLE	T	Vch Auto Range
VCHOFFSETENABLE	TOGGLE	F	Vch Offset Enable
VCHOFFSET	QUANT	0	Vch Offset (V)
VCHFILTER	IQUANT	3	Vch Filter
IERANGELOWERLIMIT	IQUANT	4	I/E Range Lower Limit
IERANGEMODE	TOGGLE	F	I/E AutoRange
IERANGE	IQUANT	9	I/E Range
ACHSELECT	IQUANT	0	Ach Select
ACHRANGE	IQUANT	2	Ach Range
ACHOFFSETENABLE	TOGGLE	F	Ach Offset Enable
ACHOFFSET	QUANT	0	Ach Offset (V)
ACHFILTER	IQUANT	1	Ach Filter
SENSECABLEID	IQUANT	14	Sense Cable ID
PWRCABLEID	IQUANT	14	Power Cable ID
DCCALDATE	LABEL	1/24/2022	DC Calibration Date
ACCALDATE	LABEL	4/2/2018	AC Calibration Date
FRAMEWORKVERSION	QUANT	7.06	Framework Version
INSTRUMENTVERSION	LABEL	4.30	Instrument Version
CURVE	TABLE	98
	Pt	T	Vf	Im	Vu	Sig	Ach	IERange	Over	Temp
	#	s	V vs. Ref.	A	V	V	V	#	bits	deg C
	0	-0.4	2.99581E-001	1.30218E-005	0.00000E+000	3.00072E-001	0.00000E+000	9	...........	1426.40
	1	-0.3	3.00302E-001	1.29143E-005	0.00000E+000	3.00072E-001	0.00000E+000	9	...........	1426.40
	2	-0.2	3.00305E-001	1.27825E-005	0.00000E+000	3.00072E-001	0.00000E+000	9	...........	1426.40
	3	-0.1	3.00296E-001	1.26515E-005	0.00000E+000	3.00072E-001	0.00000E+000	9	...........	1426.40
	4	0	3.00303E-001	1.25327E-005	0.00000E+000	3.00072E-001	0.00000E+000	9	...........	1426.40
	5	0.1	4.00348E-001	4.76149E-004	0.00000E+000	4.00072E-001	0.00000E+000	9	...........	1426.40
	6	0.2	4.00350E-001	4.10868E-004	0.00000E+000	4.00072E-001	0.00000E+000	9	...........	1426.40
	7	0.3	4.00346E-001	3.68739E-004	0.00000E+000	4.00072E-001	0.00000E+000	9	...........	1426.40
	8	0.4	4.00354E-001	3.38106E-004	0.00000E+000	4.00072E-001	0.00000E+000	9	...........	1426.40
	9	0.5	4.00347E-001	3.14484E-004	0.00000E+000	4.00072E-001	0.00000E+000	9	...........	1426.40
	10	0.6	4.00355E-001	2.95296E-004	0.00000E+000	4.00072E-001	0.00000E+000	9	...........	1426.40
	11	0.7	4.00344E-001	2.79223E-004	0.00000E+000	4.00072E-001	0.00000E+000	9	...........	1425.95
	12	0.8	4.00351E-001	2.65407E-004	0.00000E+000	4.00072E-001	0.00000E+000	9	...........	1425.95
	13	0.9	4.00355E-001	2.53205E-004	0.00000E+000	4.00072E-001	0.00000E+000	9	...........	1425.95
	14	1	4.00348E-001	2.42358E-004	0.00000E+000	4.00072E-001	0.00000E+000	9	...........	1425.95
	15	1.1	4.00341E-001	2.32575E-004	0.00000E+000	4.00072E-001	0.00000E+000	9	...........	1425.95
	16	1.2	4.00341E-001	2.23704E-004	0.00000E+000	4.00072E-001	0.00000E+000	9	...........	1425.95
	17	1.3	4.00331E-001	2.15633E-004	0.00000E+000	4.00072E-001	0.00000E+000	9	...........	1425.95
	18	1.4	4.00343E-001	2.08241E-004	0.00000E+000	4.00072E-001	0.00000E+000	9	...........	1425.95
	19	1.5	4.00341E-001	2.01373E-004	0.00000E+000	4.00072E-001	0.00000E+000	9	...........	1425.95
	20	1.6	4.00337E-001	1.95129E-004	0.00000E+000	4.00072E-001	0.00000E+000	9	...........	1425.95
	21	1.7	4.00346E-001	1.89291E-004	0.00000E+000	4.00072E-001	0.00000E+000	9	...........	1426.04
	22	1.8	4.00339E-001	1.83821E-004	0.00000E+000	4.00072E-001	0.00000E+000	9	...........	1426.04
	23	1.9	4.00342E-001	1.78798E-004	0.00000E+000	4.00072E-001	0.00000E+000	9	...........	1426.04
	24	2	4.00354E-001	1.74034E-004	0.00000E+000	4.00072E-001	0.00000E+000	9	...........	1426.04
	25	2.1	4.00352E-001	1.69588E-004	0.00000E+000	4.00072E-001	0.00000E+000	9	...........	1426.04
	26	2.2	4.00347E-001	1.65367E-004	0.00000E+000	4.00072E-001	0.00000E+000	9	...........	1426.04
	27	2.3	4.00342E-001	1.61338E-004	0.00000E+000	4.00072E-001	0.00000E+000	9	...........	1426.04
	28	2.4	4.00347E-001	1.57643E-004	0.00000E+000	4.00072E-001	0.00000E+000	9	...........	1426.04
	29	2.5	4.00342E-001	1.54062E-004	0.00000E+000	4.00072E-001	0.00000E+000	9	...........	1426.04
	30	2.6	4.00343E-001	1.50655E-004	0.00000E+000	4.00072E-001	0.00000E+000	9	...........	1426.04
	31	2.7	4.00349E-001	1.47413E-004	0.00000E+000	4.00072E-001	0.00000E+000	9	...........	1426.22
	32	2.8	4.00339E-001	1.44368E-004	0.00000E+000	4.00072E-001	0.00000E+000	9	...........	1426.22
	33	2.9	4.00343E-001	1.41429E-004	0.00000E+000	4.00072E-001	0.00000E+000	9	...........	1426.22
	34	3	4.00345E-001	1.38701E-004	0.00000E+000	4.00072E-001	0.00000E+000	9	...........	1426.22
	35	3.1	4.00349E-001	1.36048E-004	0.00000E+000	4.00072E-001	0.00000E+000	9	...........	1426.22
	36	3.2	4.00344E-001	1.33497E-004	0.00000E+000	4.00072E-001	0.00000E+000	9	...........	1426.22
	37	3.3	4.00356E-001	1.31076E-004	0.00000E+000	4.00072E-001	0.00000E+000	9	...........	1426.22
	38	3.4	4.00347E-001	1.28778E-004	0.00000E+000	4.00072E-001	0.00000E+000	9	...........	1426.22
	39	3.5	4.00346E-001	1.26518E-004	0.00000E+000	4.00072E-001	0.00000E+000	9	...........	1426.22
	40	3.6	4.00356E-001	1.24382E-004	0.00000E+000	4.00072E-001	0.00000E+000	9	...........	1426.22
	41	3.7	4.00358E-001	1.22309E-004	0.00000E+000	4.00072E-001	0.00000E+000	9	...........	1426.31
	42	3.8	4.00359E-001	1.20374E-004	0.00000E+000	4.00072E-001	0.00000E+000	9	...........	1426.31
	43	3.9	4.00339E-001	1.18527E-004	0.00000E+000	4.00072E-001	0.00000E+000	9	...........	1426.31
	44	4	4.00346E-001	1.16710E-004	0.00000E+000	4.00072E-001	0.00000E+000	9	...........	1426.31
	45	4.1	4.00338E-001	1.14935E-004	0.00000E+000	4.00072E-001	0.00000E+000	9	...........	1426.31
	46	4.2	4.00348E-001	1.13274E-004	0.00000E+000	4.00072E-001	0.00000E+000	9	...........	1426.31
	47	4.3	4.00349E-001	1.11643E-004	0.00000E+000	4.00072E-001	0.00000E+000	9	...........	1426.31
	48	4.4	4.00352E-001	1.10053E-004	0.00000E+000	4.00072E-001	0.00000E+000	9	...........	1426.31
	49	4.5	4.00354E-001	1.08530E-004	0.00000E+000	4.00072E-001	0.00000E+000	9	...........	1426.31
	50	4.6	4.00358E-001	1.07052E-004	0.00000E+000	4.00072E-001	0.00000E+000	9	...........	1426.31
	51	4.7	4.00354E-001	1.05643E-004	0.00000E+000	4.00072E-001	0.00000E+000	9	...........	1425.87
	52	4.8	4.00358E-001	1.04275E-004	0.00000E+000	4.00072E-001	0.00000E+000	9	...........	1425.87
	53	4.9	4.00350E-001	1.02896E-004	0.00000E+000	4.00072E-001	0.00000E+000	9	...........	1425.87
	54	5	4.00342E-001	1.01623E-004	0.00000E+000	4.00072E-001	0.00000E+000	9	...........	1425.87
	55	5.1	4.00346E-001	1.00335E-004	0.00000E+000	4.00072E-001	0.00000E+000	9	...........	1425.87
	56	5.2	4.00349E-001	9.90937E-005	0.00000E+000	4.00072E-001	0.00000E+000	9	...........	1425.87
	57	5.3	4.00358E-001	9.79447E-005	0.00000E+000	4.00072E-001	0.00000E+000	9	...........	1425.87
	58	5.4	4.00361E-001	9.67713E-005	0.00000E+000	4.00072E-001	0.00000E+000	9	...........	1425.87
	59	5.5	4.00350E-001	9.56119E-005	0.00000E+000	4.00072E-001	0.00000E+000	9	...........	1425.87
	60	5.6	4.00342E-001	9.45454E-005	0.00000E+000	4.00072E-001	0.00000E+000	9	...........	1425.87
	61	5.7	4.00347E-001	9.34765E-005	0.00000E+000	4.00072E-001	0.00000E+000	9	...........	1425.87
	62	5.8	4.00354E-001	9.24273E-005	0.00000E+000	4.00072E-001	0.00000E+000	9	...........	1425.87
	63	5.9	4.00346E-001	9.13732E-005	0.00000E+000	4.00072E-001	0.00000E+000	9	...........	1425.87
	64	6	4.00339E-001	9.04091E-005	0.00000E+000	4.00072E-001	0.00000E+000	9	...........	1425.87
	65	6.1	4.00337E-001	8.94592E-005	0.00000E+000	4.00072E-001	0.00000E+000	9	...........	1425.87
	66	7.1	4.00340E-001	8.10161E-005	0.00000E+000	4.00072E-001	0.00000E+000	9	...........	1425.95
	67	8.1	4.00345E-001	7.43232E-005	0.00000E+000	4.00072E-001	0.00000E+000	9	...........	1426.31
	68	9.1	4.00346E-001	6.87672E-005	0.00000E+000	4.00072E-001	0.00000E+000	9	...........	1426.40
	69	10.1	4.00346E-001	6.40081E-005	0.00000E+000	4.00072E-001	0.00000E+000	9	...........	1426.40
	70	11.1	4.00341E-001	5.99527E-005	0.00000E+000	4.00072E-001	0.00000E+000	9	...........	1426.40
	71	12.1	4.00349E-001	5.64765E-005	0.00000E+000	4.00072E-001	0.00000E+000	9	...........	1426.40
	72	13.1	4.00339E-001	5.33460E-005	0.00000E+000	4.00072E-001	0.00000E+000	9	...........	1426.40
	73	14.1	4.00356E-001	5.05285E-005	0.00000E+000	4.00072E-001	0.00000E+000	9	...........	1426.40
	74	15.1	4.00355E-001	4.80200E-005	0.00000E+000	4.00072E-001	0.00000E+000	9	...........	1426.40
	75	16.1	4.00354E-001	4.58814E-005	0.00000E+000	4.00072E-001	0.00000E+000	9	...........	1426.40
	76	26.1	4.00348E-001	3.27660E-005	0.00000E+000	4.00072E-001	0.00000E+000	9	...........	1426.40
	77	36.1	4.00352E-001	2.71660E-005	0.00000E+000	4.00072E-001	0.00000E+000	9	...........	1426.40
	78	46.1	4.00350E-001	2.41706E-005	0.00000E+000	4.00072E-001	0.00000E+000	9	...........	1426.40
	79	56.1	4.00351E-001	2.21793E-005	0.00000E+000	4.00072E-001	0.00000E+000	9	...........	1426.40
	80	66.1	4.00358E-001	2.08917E-005	0.00000E+000	4.00072E-001	0.00000E+000	9	...........	1426.40
	81	76.1	4.00352E-001	1.99967E-005	0.00000E+000	4.00072E-001	0.00000E+000	9	...........	1426.40
	82	86.1	4.00347E-001	1.95558E-005	0.00000E+000	4.00072E-001	0.00000E+000	9	...........	1426.40
	83	96.1	4.00333E-001	1.91561E-005	0.00000E+000	4.00072E-001	0.00000E+000	9	...........	1426.40
	84	106.1	4.00344E-001	1.85293E-005	0.00000E+000	4.00072E-001	0.00000E+000	9	...........	1426.40
	85	116.1	4.00357E-001	1.81570E-005	0.00000E+000	4.00072E-001	0.00000E+000	9	...........	1426.40
	86	216.1	4.00346E-001	1.69864E-005	0.00000E+000	4.00072E-001	0.00000E+000	9	...........	1426.40
	87	300	4.00344E-001	1.65005E-005	0.00000E+000	4.00072E-001	0.00000E+000	9	...........	1426.40
	88	300.1	3.00306E-001	-3.88746E-004	0.00000E+000	3.00072E-001	0.00000E+000	9	...........	1426.40
	89	300.2	3.00307E-001	-3.06447E-004	0.00000E+000	3.00072E-001	0.00000E+000	9	...........	1426.40
	90	300.3	3.00303E-001	-2.52034E-004	0.00000E+000	3.00072E-001	0.00000E+000	9	...........	1426.40
	91	300.4	3.00315E-001	-2.13032E-004	0.00000E+000	3.00072E-001	0.00000E+000	9	...........	1426.40
	92	300.5	3.00298E-001	-1.83885E-004	0.00000E+000	3.00072E-001	0.00000E+000	9	...........	1426.40
	93	300.6	3.00298E-001	-1.61676E-004	0.00000E+000	3.00072E-001	0.00000E+000	9	...........	1426.40
	94	300.7	3.00295E-001	-1.44376E-004	0.00000E+000	3.00072E-001	0.00000E+000	9	...........	1426.40
	95	300.8	3.00298E-001	-1.30617E-004	0.00000E+000	3.00072E-001	0.00000E+000	9	...........	1426.40
	96	300.9	3.00294E-001	-1.19442E-004	0.00000E+000	3.00072E-001	0.00000E+000	9	...........	1426.40
	97	301	3.00295E-001	-1.10222E-004	0.00000E+000	3.00072E-001	0.00000E+000	9	...........	1426.40
