EXPLAIN
TAG	CHRONOA
TITLE	LABEL	Chronoamperometry Scan	Test Identifier
DATE	LABEL	21/2/2022	Date
TIME	LABEL	14:03:46	Time
NOTES	NOTES	1	Notes...
	
PSTAT	PSTAT	IFC1010-21051	Potentiostat
VPRESTEP	POTEN	3.00000E-001	F	Pre-step Voltage (V)
TPRESTEP	QUANT	5.00000E-001	Pre-step Delay Time (s)
VSTEP1	POTEN	4.00000E-001	F	Step 1 Voltage (V)
TSTEP1	QUANT	3.00000E+002	Step 1 Time (s)
VSTEP2	POTEN	3.00000E-001	F	Step 2 Voltage (V)
TSTEP2	QUANT	1.00000E+000	Step 2 Time (s)
SAMPLETIME	QUANT	1.00000E-001	Sample Period (s)
DECIMATE	TOGGLE	T	Decimate
ILIMIT	QUANT	1.00000E+000	Limit I (mA/cm^2)
IMODE	SELECTOR	1	I/E Range Mode
IRANGE	QUANT	3.00000E-001	Max Current (mA)
EQDELAY	QUANT	5.00000E+000	Equil. Time (s)
SAMPLINGMODE	SELECTOR	1	Sampling Mode
AREA	QUANT	1.00000E+000	Sample Area (cm^2)
IRCOMP	SELECTOR	0	IRComp
PFCOR	QUANT	5.00000E+001	PF Corr. (ohm)
SEQUENCER	TOGGLE	TRUE	Run as Sequence
PSTATMODEL	IQUANT	64	Pstat Model
PSTATSECTION	LABEL	IFC1010-21051	Pstat Section
PSTATSERIALNO	LABEL	21051	Pstat Serial Number
CTRLMODE	IQUANT	1	Control Mode
ELECTROMETER	IQUANT	0	RE=0 or CS=1
IESTAB	IQUANT	0	I/E Stability
CASPEED	IQUANT	4	Control Amp Speed
CONVENTION	IQUANT	1	Current Convention
ICHRANGE	IQUANT	2	Ich Range
ICHRANGEMODE	TOGGLE	T	Ich Auto Range
ICHOFFSETENABLE	TOGGLE	F	Ich Offset Enable
ICHOFFSET	QUANT	0	Ich Offset (V)
ICHFILTER	IQUANT	3	Ich Filter
VCHRANGE	IQUANT	3	Vch Range
VCHRANGEMODE	TOGGLE	T	Vch Auto Range
VCHOFFSETENABLE	TOGGLE	F	Vch Offset Enable
VCHOFFSET	QUANT	0	Vch Offset (V)
VCHFILTER	IQUANT	3	Vch Filter
IERANGELOWERLIMIT	IQUANT	4	I/E Range Lower Limit
IERANGEMODE	TOGGLE	F	I/E AutoRange
IERANGE	IQUANT	9	I/E Range
ACHSELECT	IQUANT	0	Ach Select
ACHRANGE	IQUANT	2	Ach Range
ACHOFFSETENABLE	TOGGLE	F	Ach Offset Enable
ACHOFFSET	QUANT	0	Ach Offset (V)
ACHFILTER	IQUANT	1	Ach Filter
SENSECABLEID	IQUANT	14	Sense Cable ID
PWRCABLEID	IQUANT	14	Power Cable ID
DCCALDATE	LABEL	1/24/2022	DC Calibration Date
ACCALDATE	LABEL	4/2/2018	AC Calibration Date
FRAMEWORKVERSION	QUANT	7.06	Framework Version
INSTRUMENTVERSION	LABEL	4.30	Instrument Version
CURVE	TABLE	98
	Pt	T	Vf	Im	Vu	Sig	Ach	IERange	Over	Temp
	#	s	V vs. Ref.	A	V	V	V	#	bits	deg C
	0	-0.4	2.99532E-001	9.91958E-006	0.00000E+000	3.00072E-001	0.00000E+000	9	...........	1426.31
	1	-0.3	3.00299E-001	9.87244E-006	0.00000E+000	3.00072E-001	0.00000E+000	9	...........	1426.31
	2	-0.2	3.00301E-001	9.79002E-006	0.00000E+000	3.00072E-001	0.00000E+000	9	...........	1426.31
	3	-0.1	3.00307E-001	9.67256E-006	0.00000E+000	3.00072E-001	0.00000E+000	9	...........	1426.31
	4	0	3.00309E-001	9.58284E-006	0.00000E+000	3.00072E-001	0.00000E+000	9	...........	1426.31
	5	0.1	4.00353E-001	4.98199E-004	0.00000E+000	4.00072E-001	0.00000E+000	9	...........	1426.31
	6	0.2	4.00353E-001	4.21357E-004	0.00000E+000	4.00072E-001	0.00000E+000	9	...........	1426.31
	7	0.3	4.00343E-001	3.69830E-004	0.00000E+000	4.00072E-001	0.00000E+000	9	...........	1426.31
	8	0.4	4.00346E-001	3.32527E-004	0.00000E+000	4.00072E-001	0.00000E+000	9	...........	1426.31
	9	0.5	4.00351E-001	3.04085E-004	0.00000E+000	4.00072E-001	0.00000E+000	9	...........	1426.31
	10	0.6	4.00361E-001	2.81518E-004	0.00000E+000	4.00072E-001	0.00000E+000	9	...........	1426.31
	11	0.7	4.00343E-001	2.63089E-004	0.00000E+000	4.00072E-001	0.00000E+000	9	...........	1426.31
	12	0.8	4.00345E-001	2.47665E-004	0.00000E+000	4.00072E-001	0.00000E+000	9	...........	1426.22
	13	0.9	4.00352E-001	2.34462E-004	0.00000E+000	4.00072E-001	0.00000E+000	9	...........	1426.22
	14	1	4.00352E-001	2.23071E-004	0.00000E+000	4.00072E-001	0.00000E+000	9	...........	1426.22
	15	1.1	4.00348E-001	2.13047E-004	0.00000E+000	4.00072E-001	0.00000E+000	9	...........	1426.22
	16	1.2	4.00356E-001	2.04166E-004	0.00000E+000	4.00072E-001	0.00000E+000	9	...........	1426.22
	17	1.3	4.00349E-001	1.96388E-004	0.00000E+000	4.00072E-001	0.00000E+000	9	...........	1426.22
	18	1.4	4.00356E-001	1.89289E-004	0.00000E+000	4.00072E-001	0.00000E+000	9	...........	1426.22
	19	1.5	4.00353E-001	1.82944E-004	0.00000E+000	4.00072E-001	0.00000E+000	9	...........	1426.22
	20	1.6	4.00358E-001	1.77111E-004	0.00000E+000	4.00072E-001	0.00000E+000	9	...........	1426.22
	21	1.7	4.00352E-001	1.71790E-004	0.00000E+000	4.00072E-001	0.00000E+000	9	...........	1426.22
	22	1.8	4.00354E-001	1.66886E-004	0.00000E+000	4.00072E-001	0.00000E+000	9	...........	1426.13
	23	1.9	4.00347E-001	1.62387E-004	0.00000E+000	4.00072E-001	0.00000E+000	9	...........	1426.13
	24	2	4.00352E-001	1.58205E-004	0.00000E+000	4.00072E-001	0.00000E+000	9	...........	1426.13
	25	2.1	4.00346E-001	1.54290E-004	0.00000E+000	4.00072E-001	0.00000E+000	9	...........	1426.13
	26	2.2	4.00348E-001	1.50639E-004	0.00000E+000	4.00072E-001	0.00000E+000	9	...........	1426.13
	27	2.3	4.00340E-001	1.47275E-004	0.00000E+000	4.00072E-001	0.00000E+000	9	...........	1426.13
	28	2.4	4.00339E-001	1.44058E-004	0.00000E+000	4.00072E-001	0.00000E+000	9	...........	1426.13
	29	2.5	4.00342E-001	1.41075E-004	0.00000E+000	4.00072E-001	0.00000E+000	9	...........	1426.13
	30	2.6	4.00347E-001	1.38247E-004	0.00000E+000	4.00072E-001	0.00000E+000	9	...........	1426.13
	31	2.7	4.00348E-001	1.35518E-004	0.00000E+000	4.00072E-001	0.00000E+000	9	...........	1426.13
	32	2.8	4.00354E-001	1.32970E-004	0.00000E+000	4.00072E-001	0.00000E+000	9	...........	1426.13
	33	2.9	4.00350E-001	1.30520E-004	0.00000E+000	4.00072E-001	0.00000E+000	9	...........	1426.13
	34	3	4.00354E-001	1.28187E-004	0.00000E+000	4.00072E-001	0.00000E+000	9	...........	1426.13
	35	3.1	4.00343E-001	1.25969E-004	0.00000E+000	4.00072E-001	0.00000E+000	9	...........	1426.13
	36	3.2	4.00343E-001	1.23859E-004	0.00000E+000	4.00072E-001	0.00000E+000	9	...........	1426.13
	37	3.3	4.00352E-001	1.21809E-004	0.00000E+000	4.00072E-001	0.00000E+000	9	...........	1426.13
	38	3.4	4.00355E-001	1.19943E-004	0.00000E+000	4.00072E-001	0.00000E+000	9	...........	1426.13
	39	3.5	4.00358E-001	1.18075E-004	0.00000E+000	4.00072E-001	0.00000E+000	9	...........	1426.13
	40	3.6	4.00348E-001	1.16260E-004	0.00000E+000	4.00072E-001	0.00000E+000	9	...........	1426.13
	41	3.7	4.00351E-001	1.14567E-004	0.00000E+000	4.00072E-001	0.00000E+000	9	...........	1426.13
	42	3.8	4.00361E-001	1.12901E-004	0.00000E+000	4.00072E-001	0.00000E+000	9	...........	1426.13
	43	3.9	4.00347E-001	1.11282E-004	0.00000E+000	4.00072E-001	0.00000E+000	9	...........	1426.13
	44	4	4.00349E-001	1.09746E-004	0.00000E+000	4.00072E-001	0.00000E+000	9	...........	1426.13
	45	4.1	4.00349E-001	1.08289E-004	0.00000E+000	4.00072E-001	0.00000E+000	9	...........	1426.13
	46	4.2	4.00344E-001	1.06868E-004	0.00000E+000	4.00072E-001	0.00000E+000	9	...........	1426.13
	47	4.3	4.00355E-001	1.05497E-004	0.00000E+000	4.00072E-001	0.00000E+000	9	...........	1426.13
	48	4.4	4.00367E-001	1.04127E-004	0.00000E+000	4.00072E-001	0.00000E+000	9	...........	1426.13
	49	4.5	4.00357E-001	1.02872E-004	0.00000E+000	4.00072E-001	0.00000E+000	9	...........	1426.13
	50	4.6	4.00340E-001	1.01576E-004	0.00000E+000	4.00072E-001	0.00000E+000	9	...........	1426.13
	51	4.7	4.00340E-001	1.00375E-004	0.00000E+000	4.00072E-001	0.00000E+000	9	...........	1426.13
	52	4.8	4.00334E-001	9.92043E-005	0.00000E+000	4.00072E-001	0.00000E+000	9	...........	1426.13
	53	4.9	4.00348E-001	9.80359E-005	0.00000E+000	4.00072E-001	0.00000E+000	9	...........	1426.13
	54	5	4.00360E-001	9.69865E-005	0.00000E+000	4.00072E-001	0.00000E+000	9	...........	1426.13
	55	5.1	4.00350E-001	9.58928E-005	0.00000E+000	4.00072E-001	0.00000E+000	9	...........	1426.13
	56	5.2	4.00350E-001	9.48633E-005	0.00000E+000	4.00072E-001	0.00000E+000	9	...........	1426.13
	57	5.3	4.00347E-001	9.38503E-005	0.00000E+000	4.00072E-001	0.00000E+000	9	...........	1426.13
	58	5.4	4.00355E-001	9.27814E-005	0.00000E+000	4.00072E-001	0.00000E+000	9	...........	1426.13
	59	5.5	4.00335E-001	9.18686E-005	0.00000E+000	4.00072E-001	0.00000E+000	9	...........	1426.13
	60	5.6	4.00335E-001	9.09546E-005	0.00000E+000	4.00072E-001	0.00000E+000	9	...........	1426.13
	61	5.7	4.00348E-001	9.00256E-005	0.00000E+000	4.00072E-001	0.00000E+000	9	...........	1426.13
	62	5.8	4.00347E-001	8.91315E-005	0.00000E+000	4.00072E-001	0.00000E+000	9	...........	1426.13
	63	5.9	4.00337E-001	8.82361E-005	0.00000E+000	4.00072E-001	0.00000E+000	9	...........	1426.13
	64	6	4.00348E-001	8.74113E-005	0.00000E+000	4.00072E-001	0.00000E+000	9	...........	1426.13
	65	6.1	4.00345E-001	8.65425E-005	0.00000E+000	4.00072E-001	0.00000E+000	9	...........	1426.13
	66	7.1	4.00362E-001	7.92802E-005	0.00000E+000	4.00072E-001	0.00000E+000	9	...........	1426.13
	67	8.1	4.00349E-001	7.33157E-005	0.00000E+000	4.00072E-001	0.00000E+000	9	...........	1426.13
	68	9.1	4.00356E-001	6.82594E-005	0.00000E+000	4.00072E-001	0.00000E+000	9	...........	1426.13
	69	10.1	4.00330E-001	6.39402E-005	0.00000E+000	4.00072E-001	0.00000E+000	9	...........	1426.22
	70	11.1	4.00344E-001	6.01534E-005	0.00000E+000	4.00072E-001	0.00000E+000	9	...........	1426.22
	71	12.1	4.00348E-001	5.68994E-005	0.00000E+000	4.00072E-001	0.00000E+000	9	...........	1426.22
	72	13.1	4.00338E-001	5.42041E-005	0.00000E+000	4.00072E-001	0.00000E+000	9	...........	1426.22
	73	14.1	4.00353E-001	5.18612E-005	0.00000E+000	4.00072E-001	0.00000E+000	9	...........	1426.22
	74	15.1	4.00350E-001	4.97147E-005	0.00000E+000	4.00072E-001	0.00000E+000	9	...........	1426.22
	75	16.1	4.00357E-001	4.76584E-005	0.00000E+000	4.00072E-001	0.00000E+000	9	...........	1426.22
	76	26.1	4.00351E-001	3.49305E-005	0.00000E+000	4.00072E-001	0.00000E+000	9	...........	1426.13
	77	36.1	4.00346E-001	2.92819E-005	0.00000E+000	4.00072E-001	0.00000E+000	9	...........	1426.22
	78	46.1	4.00346E-001	2.60693E-005	0.00000E+000	4.00072E-001	0.00000E+000	9	...........	1426.22
	79	56.1	4.00351E-001	2.43492E-005	0.00000E+000	4.00072E-001	0.00000E+000	9	...........	1426.22
	80	66.1	4.00349E-001	2.32192E-005	0.00000E+000	4.00072E-001	0.00000E+000	9	...........	1426.22
	81	76.1	4.00359E-001	2.22394E-005	0.00000E+000	4.00072E-001	0.00000E+000	9	...........	1426.22
	82	86.1	4.00357E-001	2.15635E-005	0.00000E+000	4.00072E-001	0.00000E+000	9	...........	1426.22
	83	96.1	4.00348E-001	2.13839E-005	0.00000E+000	4.00072E-001	0.00000E+000	9	...........	1426.22
	84	106.1	4.00357E-001	2.09899E-005	0.00000E+000	4.00072E-001	0.00000E+000	9	...........	1426.22
	85	116.1	4.00347E-001	2.06860E-005	0.00000E+000	4.00072E-001	0.00000E+000	9	...........	1426.22
	86	216.1	4.00363E-001	1.96222E-005	0.00000E+000	4.00072E-001	0.00000E+000	9	...........	1426.22
	87	300	4.00348E-001	1.92713E-005	0.00000E+000	4.00072E-001	0.00000E+000	9	...........	1426.22
	88	300.1	3.00301E-001	-4.42977E-004	0.00000E+000	3.00072E-001	0.00000E+000	9	...........	1426.22
	89	300.2	3.00317E-001	-3.79714E-004	0.00000E+000	3.00072E-001	0.00000E+000	9	...........	1426.22
	90	300.3	3.00308E-001	-3.30331E-004	0.00000E+000	3.00072E-001	0.00000E+000	9	...........	1426.22
	91	300.4	3.00302E-001	-2.89759E-004	0.00000E+000	3.00072E-001	0.00000E+000	9	...........	1426.22
	92	300.5	3.00293E-001	-2.55872E-004	0.00000E+000	3.00072E-001	0.00000E+000	9	...........	1426.22
	93	300.6	3.00312E-001	-2.27423E-004	0.00000E+000	3.00072E-001	0.00000E+000	9	...........	1426.22
	94	300.7	3.00292E-001	-2.03601E-004	0.00000E+000	3.00072E-001	0.00000E+000	9	...........	1426.22
	95	300.8	3.00299E-001	-1.83650E-004	0.00000E+000	3.00072E-001	0.00000E+000	9	...........	1426.22
	96	300.9	3.00299E-001	-1.66884E-004	0.00000E+000	3.00072E-001	0.00000E+000	9	...........	1426.22
	97	301	3.00311E-001	-1.52792E-004	0.00000E+000	3.00072E-001	0.00000E+000	9	...........	1426.22
