EXPLAIN
TAG	CHRONOA
TITLE	LABEL	Chronoamperometry Scan	Test Identifier
DATE	LABEL	21/2/2022	Date
TIME	LABEL	13:13:28	Time
NOTES	NOTES	1	Notes...
	
PSTAT	PSTAT	IFC1010-21051	Potentiostat
VPRESTEP	POTEN	1.00000E-002	F	Pre-step Voltage (V)
TPRESTEP	QUANT	5.00000E-001	Pre-step Delay Time (s)
VSTEP1	POTEN	0.00000E+000	F	Step 1 Voltage (V)
TSTEP1	QUANT	3.00000E+002	Step 1 Time (s)
VSTEP2	POTEN	-1.00000E-001	F	Step 2 Voltage (V)
TSTEP2	QUANT	1.00000E+000	Step 2 Time (s)
SAMPLETIME	QUANT	1.00000E-001	Sample Period (s)
DECIMATE	TOGGLE	T	Decimate
ILIMIT	QUANT	1.00000E+000	Limit I (mA/cm^2)
IMODE	SELECTOR	1	I/E Range Mode
IRANGE	QUANT	3.00000E-001	Max Current (mA)
EQDELAY	QUANT	5.00000E+000	Equil. Time (s)
SAMPLINGMODE	SELECTOR	1	Sampling Mode
AREA	QUANT	1.00000E+000	Sample Area (cm^2)
IRCOMP	SELECTOR	0	IRComp
PFCOR	QUANT	5.00000E+001	PF Corr. (ohm)
SEQUENCER	TOGGLE	TRUE	Run as Sequence
PSTATMODEL	IQUANT	64	Pstat Model
PSTATSECTION	LABEL	IFC1010-21051	Pstat Section
PSTATSERIALNO	LABEL	21051	Pstat Serial Number
CTRLMODE	IQUANT	1	Control Mode
ELECTROMETER	IQUANT	0	RE=0 or CS=1
IESTAB	IQUANT	0	I/E Stability
CASPEED	IQUANT	4	Control Amp Speed
CONVENTION	IQUANT	1	Current Convention
ICHRANGE	IQUANT	2	Ich Range
ICHRANGEMODE	TOGGLE	T	Ich Auto Range
ICHOFFSETENABLE	TOGGLE	F	Ich Offset Enable
ICHOFFSET	QUANT	0	Ich Offset (V)
ICHFILTER	IQUANT	3	Ich Filter
VCHRANGE	IQUANT	3	Vch Range
VCHRANGEMODE	TOGGLE	T	Vch Auto Range
VCHOFFSETENABLE	TOGGLE	F	Vch Offset Enable
VCHOFFSET	QUANT	0	Vch Offset (V)
VCHFILTER	IQUANT	3	Vch Filter
IERANGELOWERLIMIT	IQUANT	4	I/E Range Lower Limit
IERANGEMODE	TOGGLE	F	I/E AutoRange
IERANGE	IQUANT	9	I/E Range
ACHSELECT	IQUANT	0	Ach Select
ACHRANGE	IQUANT	2	Ach Range
ACHOFFSETENABLE	TOGGLE	F	Ach Offset Enable
ACHOFFSET	QUANT	0	Ach Offset (V)
ACHFILTER	IQUANT	1	Ach Filter
SENSECABLEID	IQUANT	14	Sense Cable ID
PWRCABLEID	IQUANT	14	Power Cable ID
DCCALDATE	LABEL	1/24/2022	DC Calibration Date
ACCALDATE	LABEL	4/2/2018	AC Calibration Date
FRAMEWORKVERSION	QUANT	7.06	Framework Version
INSTRUMENTVERSION	LABEL	4.30	Instrument Version
CURVE	TABLE	98
	Pt	T	Vf	Im	Vu	Sig	Ach	IERange	Over	Temp
	#	s	V vs. Ref.	A	V	V	V	#	bits	deg C
	0	-0.4	9.15704E-003	-2.86071E-005	0.00000E+000	1.00559E-002	0.00000E+000	9	...........	1426.31
	1	-0.3	9.86409E-003	-2.82717E-005	0.00000E+000	1.00559E-002	0.00000E+000	9	...........	1426.31
	2	-0.2	1.00357E-002	-2.79400E-005	0.00000E+000	1.00559E-002	0.00000E+000	9	...........	1426.31
	3	-0.1	1.00521E-002	-2.76358E-005	0.00000E+000	1.00559E-002	0.00000E+000	9	...........	1426.31
	4	0	1.00526E-002	-2.73331E-005	0.00000E+000	1.00559E-002	0.00000E+000	9	...........	1426.31
	5	0.1	4.43685E-005	-6.91041E-005	0.00000E+000	5.34840E-005	0.00000E+000	9	...........	1426.31
	6	0.2	4.37057E-005	-6.02113E-005	0.00000E+000	5.34840E-005	0.00000E+000	9	...........	1426.31
	7	0.3	4.25943E-005	-5.40010E-005	0.00000E+000	5.34840E-005	0.00000E+000	9	...........	1426.31
	8	0.4	4.36086E-005	-4.93622E-005	0.00000E+000	5.34840E-005	0.00000E+000	9	...........	1426.31
	9	0.5	4.40712E-005	-4.57759E-005	0.00000E+000	5.34840E-005	0.00000E+000	9	...........	1426.31
	10	0.6	4.36717E-005	-4.29059E-005	0.00000E+000	5.34840E-005	0.00000E+000	9	...........	1425.78
	11	0.7	4.32001E-005	-4.05757E-005	0.00000E+000	5.34840E-005	0.00000E+000	9	...........	1425.78
	12	0.8	4.38789E-005	-3.86312E-005	0.00000E+000	5.34840E-005	0.00000E+000	9	...........	1425.78
	13	0.9	4.32722E-005	-3.69948E-005	0.00000E+000	5.34840E-005	0.00000E+000	9	...........	1425.78
	14	1	4.26754E-005	-3.55973E-005	0.00000E+000	5.34840E-005	0.00000E+000	9	...........	1425.78
	15	1.1	4.37317E-005	-3.43971E-005	0.00000E+000	5.34840E-005	0.00000E+000	9	...........	1425.78
	16	1.2	4.29698E-005	-3.33553E-005	0.00000E+000	5.34840E-005	0.00000E+000	9	...........	1425.78
	17	1.3	4.21958E-005	-3.24421E-005	0.00000E+000	5.34840E-005	0.00000E+000	9	...........	1425.78
	18	1.4	4.23951E-005	-3.16135E-005	0.00000E+000	5.34840E-005	0.00000E+000	9	...........	1425.78
	19	1.5	4.16422E-005	-3.08798E-005	0.00000E+000	5.34840E-005	0.00000E+000	9	...........	1425.78
	20	1.6	4.25222E-005	-3.02239E-005	0.00000E+000	5.34840E-005	0.00000E+000	9	...........	1426.57
	21	1.7	4.28236E-005	-2.96279E-005	0.00000E+000	5.34840E-005	0.00000E+000	9	...........	1426.57
	22	1.8	4.19035E-005	-2.90958E-005	0.00000E+000	5.34840E-005	0.00000E+000	9	...........	1426.57
	23	1.9	4.29738E-005	-2.85863E-005	0.00000E+000	5.34840E-005	0.00000E+000	9	...........	1426.57
	24	2	4.26013E-005	-2.81339E-005	0.00000E+000	5.34840E-005	0.00000E+000	9	...........	1426.57
	25	2.1	4.20527E-005	-2.77072E-005	0.00000E+000	5.34840E-005	0.00000E+000	9	...........	1426.57
	26	2.2	4.35085E-005	-2.73137E-005	0.00000E+000	5.34840E-005	0.00000E+000	9	...........	1426.57
	27	2.3	4.15731E-005	-2.69587E-005	0.00000E+000	5.34840E-005	0.00000E+000	9	...........	1426.57
	28	2.4	4.27806E-005	-2.66149E-005	0.00000E+000	5.34840E-005	0.00000E+000	9	...........	1426.57
	29	2.5	4.16171E-005	-2.62959E-005	0.00000E+000	5.34840E-005	0.00000E+000	9	...........	1426.57
	30	2.6	4.30309E-005	-2.59848E-005	0.00000E+000	5.34840E-005	0.00000E+000	9	...........	1426.13
	31	2.7	4.28617E-005	-2.57010E-005	0.00000E+000	5.34840E-005	0.00000E+000	9	...........	1426.13
	32	2.8	4.26294E-005	-2.54366E-005	0.00000E+000	5.34840E-005	0.00000E+000	9	...........	1426.13
	33	2.9	4.21688E-005	-2.51976E-005	0.00000E+000	5.34840E-005	0.00000E+000	9	...........	1426.13
	34	3	4.20517E-005	-2.49482E-005	0.00000E+000	5.34840E-005	0.00000E+000	9	...........	1426.13
	35	3.1	4.29037E-005	-2.47118E-005	0.00000E+000	5.34840E-005	0.00000E+000	9	...........	1426.13
	36	3.2	4.24442E-005	-2.44955E-005	0.00000E+000	5.34840E-005	0.00000E+000	9	...........	1426.13
	37	3.3	4.15491E-005	-2.42828E-005	0.00000E+000	5.34840E-005	0.00000E+000	9	...........	1426.13
	38	3.4	4.20477E-005	-2.40813E-005	0.00000E+000	5.34840E-005	0.00000E+000	9	...........	1426.13
	39	3.5	4.18154E-005	-2.38861E-005	0.00000E+000	5.34840E-005	0.00000E+000	9	...........	1426.13
	40	3.6	4.11075E-005	-2.37094E-005	0.00000E+000	5.34840E-005	0.00000E+000	9	...........	1426.57
	41	3.7	4.30879E-005	-2.35225E-005	0.00000E+000	5.34840E-005	0.00000E+000	9	...........	1426.57
	42	3.8	4.16842E-005	-2.33605E-005	0.00000E+000	5.34840E-005	0.00000E+000	9	...........	1426.57
	43	3.9	4.13558E-005	-2.31977E-005	0.00000E+000	5.34840E-005	0.00000E+000	9	...........	1426.57
	44	4	4.27745E-005	-2.30298E-005	0.00000E+000	5.34840E-005	0.00000E+000	9	...........	1426.57
	45	4.1	4.28567E-005	-2.28807E-005	0.00000E+000	5.34840E-005	0.00000E+000	9	...........	1426.57
	46	4.2	4.27675E-005	-2.27389E-005	0.00000E+000	5.34840E-005	0.00000E+000	9	...........	1426.57
	47	4.3	4.24972E-005	-2.25990E-005	0.00000E+000	5.34840E-005	0.00000E+000	9	...........	1426.57
	48	4.4	4.30419E-005	-2.24513E-005	0.00000E+000	5.34840E-005	0.00000E+000	9	...........	1426.57
	49	4.5	4.34384E-005	-2.23268E-005	0.00000E+000	5.34840E-005	0.00000E+000	9	...........	1426.57
	50	4.6	4.19545E-005	-2.21933E-005	0.00000E+000	5.34840E-005	0.00000E+000	9	...........	1426.13
	51	4.7	4.12026E-005	-2.20682E-005	0.00000E+000	5.34840E-005	0.00000E+000	9	...........	1426.13
	52	4.8	4.34644E-005	-2.19412E-005	0.00000E+000	5.34840E-005	0.00000E+000	9	...........	1426.13
	53	4.9	4.13658E-005	-2.18215E-005	0.00000E+000	5.34840E-005	0.00000E+000	9	...........	1426.13
	54	5	4.23100E-005	-2.17036E-005	0.00000E+000	5.34840E-005	0.00000E+000	9	...........	1426.13
	55	5.1	4.22379E-005	-2.15851E-005	0.00000E+000	5.34840E-005	0.00000E+000	9	...........	1426.13
	56	5.2	4.07671E-005	-2.14817E-005	0.00000E+000	5.34840E-005	0.00000E+000	9	...........	1426.13
	57	5.3	4.29448E-005	-2.13665E-005	0.00000E+000	5.34840E-005	0.00000E+000	9	...........	1426.13
	58	5.4	4.23540E-005	-2.12672E-005	0.00000E+000	5.34840E-005	0.00000E+000	9	...........	1426.13
	59	5.5	4.17022E-005	-2.11676E-005	0.00000E+000	5.34840E-005	0.00000E+000	9	...........	1426.13
	60	5.6	4.17333E-005	-2.10685E-005	0.00000E+000	5.34840E-005	0.00000E+000	9	...........	1426.04
	61	5.7	4.32561E-005	-2.09733E-005	0.00000E+000	5.34840E-005	0.00000E+000	9	...........	1426.04
	62	5.8	4.20467E-005	-2.08735E-005	0.00000E+000	5.34840E-005	0.00000E+000	9	...........	1426.04
	63	5.9	4.14109E-005	-2.07856E-005	0.00000E+000	5.34840E-005	0.00000E+000	9	...........	1426.04
	64	6	4.24452E-005	-2.06857E-005	0.00000E+000	5.34840E-005	0.00000E+000	9	...........	1426.04
	65	6.1	4.24391E-005	-2.06079E-005	0.00000E+000	5.34840E-005	0.00000E+000	9	...........	1426.04
	66	7.1	4.15921E-005	-1.98326E-005	0.00000E+000	5.34840E-005	0.00000E+000	9	...........	1426.13
	67	8.1	4.27685E-005	-1.91961E-005	0.00000E+000	5.34840E-005	0.00000E+000	9	...........	1426.66
	68	9.1	4.16892E-005	-1.86601E-005	0.00000E+000	5.34840E-005	0.00000E+000	9	...........	1426.57
	69	10.1	4.23831E-005	-1.81959E-005	0.00000E+000	5.34840E-005	0.00000E+000	9	...........	1426.57
	70	11.1	4.35836E-005	-1.78005E-005	0.00000E+000	5.34840E-005	0.00000E+000	9	...........	1426.66
	71	12.1	4.37047E-005	-1.74579E-005	0.00000E+000	5.34840E-005	0.00000E+000	9	...........	1426.66
	72	13.1	4.25192E-005	-1.71614E-005	0.00000E+000	5.34840E-005	0.00000E+000	9	...........	1426.57
	73	14.1	4.22299E-005	-1.68883E-005	0.00000E+000	5.34840E-005	0.00000E+000	9	...........	1426.66
	74	15.1	4.15460E-005	-1.66585E-005	0.00000E+000	5.34840E-005	0.00000E+000	9	...........	1426.57
	75	16.1	4.19065E-005	-1.64527E-005	0.00000E+000	5.34840E-005	0.00000E+000	9	...........	1426.57
	76	26.1	4.30258E-005	-1.52407E-005	0.00000E+000	5.34840E-005	0.00000E+000	9	...........	1426.57
	77	36.1	4.29868E-005	-1.47797E-005	0.00000E+000	5.34840E-005	0.00000E+000	9	...........	1426.57
	78	46.1	4.43485E-005	-1.45484E-005	0.00000E+000	5.34840E-005	0.00000E+000	9	...........	1426.57
	79	56.1	4.24391E-005	-1.44189E-005	0.00000E+000	5.34840E-005	0.00000E+000	9	...........	1426.57
	80	66.1	4.31460E-005	-1.43581E-005	0.00000E+000	5.34840E-005	0.00000E+000	9	...........	1426.57
	81	76.1	4.40581E-005	-1.42152E-005	0.00000E+000	5.34840E-005	0.00000E+000	9	...........	1426.57
	82	86.1	4.26784E-005	-1.42567E-005	0.00000E+000	5.34840E-005	0.00000E+000	9	...........	1426.57
	83	96.1	4.23851E-005	-1.41059E-005	0.00000E+000	5.34840E-005	0.00000E+000	9	...........	1426.49
	84	106.1	4.16051E-005	-1.42634E-005	0.00000E+000	5.34840E-005	0.00000E+000	9	...........	1426.57
	85	116.1	4.05608E-005	-1.40845E-005	0.00000E+000	5.34840E-005	0.00000E+000	9	...........	1426.57
	86	216.1	4.23660E-005	-1.38723E-005	0.00000E+000	5.34840E-005	0.00000E+000	9	...........	1426.57
	87	300	4.22018E-005	-1.39281E-005	0.00000E+000	5.34840E-005	0.00000E+000	9	...........	1426.57
	88	300.1	-3.29270E-002	-4.19246E-004	0.00000E+000	-9.99460E-002	0.00000E+000	9	.........v.	1426.57
	89	300.2	-9.99816E-002	-3.30212E-004	0.00000E+000	-9.99460E-002	0.00000E+000	9	...........	1426.57
	90	300.3	-9.99834E-002	-2.71187E-004	0.00000E+000	-9.99460E-002	0.00000E+000	9	...........	1426.57
	91	300.4	-9.99819E-002	-2.28143E-004	0.00000E+000	-9.99460E-002	0.00000E+000	9	...........	1426.57
	92	300.5	-9.99837E-002	-1.95170E-004	0.00000E+000	-9.99460E-002	0.00000E+000	9	...........	1426.57
	93	300.6	-9.99826E-002	-1.69158E-004	0.00000E+000	-9.99460E-002	0.00000E+000	9	...........	1426.57
	94	300.7	-9.99818E-002	-1.48212E-004	0.00000E+000	-9.99460E-002	0.00000E+000	9	...........	1426.57
	95	300.8	-9.99829E-002	-1.31109E-004	0.00000E+000	-9.99460E-002	0.00000E+000	9	...........	1426.57
	96	300.9	-9.99827E-002	-1.16984E-004	0.00000E+000	-9.99460E-002	0.00000E+000	9	...........	1426.57
	97	301	-9.99819E-002	-1.05202E-004	0.00000E+000	-9.99460E-002	0.00000E+000	9	...........	1426.57
