EXPLAIN
TAG	CHRONOA
TITLE	LABEL	Chronoamperometry Scan	Test Identifier
DATE	LABEL	21/2/2022	Date
TIME	LABEL	11:36:11	Time
NOTES	NOTES	1	Notes...
	
PSTAT	PSTAT	IFC1010-21051	Potentiostat
VPRESTEP	POTEN	-3.00000E-001	F	Pre-step Voltage (V)
TPRESTEP	QUANT	5.00000E-001	Pre-step Delay Time (s)
VSTEP1	POTEN	-4.00000E-001	F	Step 1 Voltage (V)
TSTEP1	QUANT	3.00000E+002	Step 1 Time (s)
VSTEP2	POTEN	-5.00000E-001	F	Step 2 Voltage (V)
TSTEP2	QUANT	1.00000E+000	Step 2 Time (s)
SAMPLETIME	QUANT	1.00000E-001	Sample Period (s)
DECIMATE	TOGGLE	T	Decimate
ILIMIT	QUANT	1.00000E+000	Limit I (mA/cm^2)
IMODE	SELECTOR	1	I/E Range Mode
IRANGE	QUANT	3.00000E-001	Max Current (mA)
EQDELAY	QUANT	5.00000E+000	Equil. Time (s)
SAMPLINGMODE	SELECTOR	1	Sampling Mode
AREA	QUANT	1.00000E+000	Sample Area (cm^2)
IRCOMP	SELECTOR	0	IRComp
PFCOR	QUANT	5.00000E+001	PF Corr. (ohm)
SEQUENCER	TOGGLE	TRUE	Run as Sequence
PSTATMODEL	IQUANT	64	Pstat Model
PSTATSECTION	LABEL	IFC1010-21051	Pstat Section
PSTATSERIALNO	LABEL	21051	Pstat Serial Number
CTRLMODE	IQUANT	1	Control Mode
ELECTROMETER	IQUANT	0	RE=0 or CS=1
IESTAB	IQUANT	0	I/E Stability
CASPEED	IQUANT	4	Control Amp Speed
CONVENTION	IQUANT	1	Current Convention
ICHRANGE	IQUANT	2	Ich Range
ICHRANGEMODE	TOGGLE	T	Ich Auto Range
ICHOFFSETENABLE	TOGGLE	F	Ich Offset Enable
ICHOFFSET	QUANT	0	Ich Offset (V)
ICHFILTER	IQUANT	3	Ich Filter
VCHRANGE	IQUANT	3	Vch Range
VCHRANGEMODE	TOGGLE	T	Vch Auto Range
VCHOFFSETENABLE	TOGGLE	F	Vch Offset Enable
VCHOFFSET	QUANT	0	Vch Offset (V)
VCHFILTER	IQUANT	3	Vch Filter
IERANGELOWERLIMIT	IQUANT	4	I/E Range Lower Limit
IERANGEMODE	TOGGLE	F	I/E AutoRange
IERANGE	IQUANT	9	I/E Range
ACHSELECT	IQUANT	0	Ach Select
ACHRANGE	IQUANT	2	Ach Range
ACHOFFSETENABLE	TOGGLE	F	Ach Offset Enable
ACHOFFSET	QUANT	0	Ach Offset (V)
ACHFILTER	IQUANT	1	Ach Filter
SENSECABLEID	IQUANT	14	Sense Cable ID
PWRCABLEID	IQUANT	14	Power Cable ID
DCCALDATE	LABEL	1/24/2022	DC Calibration Date
ACCALDATE	LABEL	4/2/2018	AC Calibration Date
FRAMEWORKVERSION	QUANT	7.06	Framework Version
INSTRUMENTVERSION	LABEL	4.30	Instrument Version
CURVE	TABLE	98
	Pt	T	Vf	Im	Vu	Sig	Ach	IERange	Over	Temp
	#	s	V vs. Ref.	A	V	V	V	#	bits	deg C
	0	-0.4	-3.01212E-001	-4.06274E-005	0.00000E+000	-3.00011E-001	0.00000E+000	9	...........	1425.95
	1	-0.3	-3.00677E-001	-4.04823E-005	0.00000E+000	-3.00011E-001	0.00000E+000	9	...........	1425.95
	2	-0.2	-3.00672E-001	-4.03556E-005	0.00000E+000	-3.00011E-001	0.00000E+000	9	...........	1425.95
	3	-0.1	-3.00665E-001	-4.02091E-005	0.00000E+000	-3.00011E-001	0.00000E+000	9	...........	1425.95
	4	0	-3.00688E-001	-4.01347E-005	0.00000E+000	-3.00011E-001	0.00000E+000	9	...........	1425.95
	5	0.1	-4.00725E-001	-4.64936E-004	0.00000E+000	-4.00011E-001	0.00000E+000	9	...........	1425.95
	6	0.2	-4.00715E-001	-3.84274E-004	0.00000E+000	-4.00011E-001	0.00000E+000	9	...........	1425.95
	7	0.3	-4.00720E-001	-3.27883E-004	0.00000E+000	-4.00011E-001	0.00000E+000	9	...........	1425.95
	8	0.4	-4.00727E-001	-2.86586E-004	0.00000E+000	-4.00011E-001	0.00000E+000	9	...........	1425.95
	9	0.5	-4.00722E-001	-2.55494E-004	0.00000E+000	-4.00011E-001	0.00000E+000	9	...........	1425.68
	10	0.6	-4.00726E-001	-2.31536E-004	0.00000E+000	-4.00011E-001	0.00000E+000	9	...........	1425.51
	11	0.7	-4.00718E-001	-2.12787E-004	0.00000E+000	-4.00011E-001	0.00000E+000	9	...........	1425.51
	12	0.8	-4.00709E-001	-1.97785E-004	0.00000E+000	-4.00011E-001	0.00000E+000	9	...........	1425.51
	13	0.9	-4.00726E-001	-1.85691E-004	0.00000E+000	-4.00011E-001	0.00000E+000	9	...........	1425.51
	14	1	-4.00723E-001	-1.75764E-004	0.00000E+000	-4.00011E-001	0.00000E+000	9	...........	1425.51
	15	1.1	-4.00703E-001	-1.67471E-004	0.00000E+000	-4.00011E-001	0.00000E+000	9	...........	1425.51
	16	1.2	-4.00709E-001	-1.60543E-004	0.00000E+000	-4.00011E-001	0.00000E+000	9	...........	1425.51
	17	1.3	-4.00733E-001	-1.54735E-004	0.00000E+000	-4.00011E-001	0.00000E+000	9	...........	1425.51
	18	1.4	-4.00710E-001	-1.49681E-004	0.00000E+000	-4.00011E-001	0.00000E+000	9	...........	1425.51
	19	1.5	-4.00711E-001	-1.45360E-004	0.00000E+000	-4.00011E-001	0.00000E+000	9	...........	1425.68
	20	1.6	-4.00715E-001	-1.41525E-004	0.00000E+000	-4.00011E-001	0.00000E+000	9	...........	1425.78
	21	1.7	-4.00706E-001	-1.38240E-004	0.00000E+000	-4.00011E-001	0.00000E+000	9	...........	1425.78
	22	1.8	-4.00718E-001	-1.35277E-004	0.00000E+000	-4.00011E-001	0.00000E+000	9	...........	1425.78
	23	1.9	-4.00711E-001	-1.32666E-004	0.00000E+000	-4.00011E-001	0.00000E+000	9	...........	1425.78
	24	2	-4.00705E-001	-1.30287E-004	0.00000E+000	-4.00011E-001	0.00000E+000	9	...........	1425.78
	25	2.1	-4.00727E-001	-1.28181E-004	0.00000E+000	-4.00011E-001	0.00000E+000	9	...........	1425.78
	26	2.2	-4.00725E-001	-1.26233E-004	0.00000E+000	-4.00011E-001	0.00000E+000	9	...........	1425.78
	27	2.3	-4.00717E-001	-1.24507E-004	0.00000E+000	-4.00011E-001	0.00000E+000	9	...........	1425.78
	28	2.4	-4.00718E-001	-1.22871E-004	0.00000E+000	-4.00011E-001	0.00000E+000	9	...........	1425.78
	29	2.5	-4.00742E-001	-1.21389E-004	0.00000E+000	-4.00011E-001	0.00000E+000	9	...........	1425.78
	30	2.6	-4.00726E-001	-1.19987E-004	0.00000E+000	-4.00011E-001	0.00000E+000	9	...........	1425.78
	31	2.7	-4.00736E-001	-1.18685E-004	0.00000E+000	-4.00011E-001	0.00000E+000	9	...........	1425.78
	32	2.8	-4.00722E-001	-1.17474E-004	0.00000E+000	-4.00011E-001	0.00000E+000	9	...........	1425.78
	33	2.9	-4.00720E-001	-1.16368E-004	0.00000E+000	-4.00011E-001	0.00000E+000	9	...........	1425.78
	34	3	-4.00702E-001	-1.15264E-004	0.00000E+000	-4.00011E-001	0.00000E+000	9	...........	1425.78
	35	3.1	-4.00715E-001	-1.14308E-004	0.00000E+000	-4.00011E-001	0.00000E+000	9	...........	1425.78
	36	3.2	-4.00716E-001	-1.13357E-004	0.00000E+000	-4.00011E-001	0.00000E+000	9	...........	1425.78
	37	3.3	-4.00716E-001	-1.12434E-004	0.00000E+000	-4.00011E-001	0.00000E+000	9	...........	1425.78
	38	3.4	-4.00703E-001	-1.11600E-004	0.00000E+000	-4.00011E-001	0.00000E+000	9	...........	1425.78
	39	3.5	-4.00720E-001	-1.10776E-004	0.00000E+000	-4.00011E-001	0.00000E+000	9	...........	1425.83
	40	3.6	-4.00716E-001	-1.10075E-004	0.00000E+000	-4.00011E-001	0.00000E+000	9	...........	1425.87
	41	3.7	-4.00716E-001	-1.09320E-004	0.00000E+000	-4.00011E-001	0.00000E+000	9	...........	1425.87
	42	3.8	-4.00702E-001	-1.08535E-004	0.00000E+000	-4.00011E-001	0.00000E+000	9	...........	1425.87
	43	3.9	-4.00717E-001	-1.07922E-004	0.00000E+000	-4.00011E-001	0.00000E+000	9	...........	1425.87
	44	4	-4.00710E-001	-1.07237E-004	0.00000E+000	-4.00011E-001	0.00000E+000	9	...........	1425.87
	45	4.1	-4.00720E-001	-1.06650E-004	0.00000E+000	-4.00011E-001	0.00000E+000	9	...........	1425.87
	46	4.2	-4.00711E-001	-1.05989E-004	0.00000E+000	-4.00011E-001	0.00000E+000	9	...........	1425.87
	47	4.3	-4.00725E-001	-1.05467E-004	0.00000E+000	-4.00011E-001	0.00000E+000	9	...........	1425.87
	48	4.4	-4.00726E-001	-1.04899E-004	0.00000E+000	-4.00011E-001	0.00000E+000	9	...........	1425.87
	49	4.5	-4.00709E-001	-1.04352E-004	0.00000E+000	-4.00011E-001	0.00000E+000	9	...........	1425.75
	50	4.6	-4.00713E-001	-1.03814E-004	0.00000E+000	-4.00011E-001	0.00000E+000	9	...........	1425.69
	51	4.7	-4.00716E-001	-1.03264E-004	0.00000E+000	-4.00011E-001	0.00000E+000	9	...........	1425.69
	52	4.8	-4.00720E-001	-1.02828E-004	0.00000E+000	-4.00011E-001	0.00000E+000	9	...........	1425.69
	53	4.9	-4.00719E-001	-1.02323E-004	0.00000E+000	-4.00011E-001	0.00000E+000	9	...........	1425.69
	54	5	-4.00731E-001	-1.01870E-004	0.00000E+000	-4.00011E-001	0.00000E+000	9	...........	1425.69
	55	5.1	-4.00727E-001	-1.01401E-004	0.00000E+000	-4.00011E-001	0.00000E+000	9	...........	1425.69
	56	5.2	-4.00728E-001	-1.00959E-004	0.00000E+000	-4.00011E-001	0.00000E+000	9	...........	1425.69
	57	5.3	-4.00720E-001	-1.00523E-004	0.00000E+000	-4.00011E-001	0.00000E+000	9	...........	1425.69
	58	5.4	-4.00719E-001	-1.00055E-004	0.00000E+000	-4.00011E-001	0.00000E+000	9	...........	1425.69
	59	5.5	-4.00726E-001	-9.97044E-005	0.00000E+000	-4.00011E-001	0.00000E+000	9	...........	1425.74
	60	5.6	-4.00733E-001	-9.92855E-005	0.00000E+000	-4.00011E-001	0.00000E+000	9	...........	1425.78
	61	5.7	-4.00738E-001	-9.89093E-005	0.00000E+000	-4.00011E-001	0.00000E+000	9	...........	1425.78
	62	5.8	-4.00727E-001	-9.85113E-005	0.00000E+000	-4.00011E-001	0.00000E+000	9	...........	1425.78
	63	5.9	-4.00720E-001	-9.81300E-005	0.00000E+000	-4.00011E-001	0.00000E+000	9	...........	1425.78
	64	6	-4.00735E-001	-9.77909E-005	0.00000E+000	-4.00011E-001	0.00000E+000	9	...........	1425.78
	65	6.1	-4.00724E-001	-9.74264E-005	0.00000E+000	-4.00011E-001	0.00000E+000	9	...........	1425.78
	66	7.1	-4.00715E-001	-9.42153E-005	0.00000E+000	-4.00011E-001	0.00000E+000	9	...........	1425.69
	67	8.1	-4.00724E-001	-9.15944E-005	0.00000E+000	-4.00011E-001	0.00000E+000	9	...........	1425.78
	68	9.1	-4.00726E-001	-8.93054E-005	0.00000E+000	-4.00011E-001	0.00000E+000	9	...........	1425.87
	69	10.1	-4.00724E-001	-8.73126E-005	0.00000E+000	-4.00011E-001	0.00000E+000	9	...........	1425.87
	70	11.1	-4.00711E-001	-8.55368E-005	0.00000E+000	-4.00011E-001	0.00000E+000	9	...........	1425.87
	71	12.1	-4.00726E-001	-8.39979E-005	0.00000E+000	-4.00011E-001	0.00000E+000	9	...........	1425.87
	72	13.1	-4.00706E-001	-8.25310E-005	0.00000E+000	-4.00011E-001	0.00000E+000	9	...........	1425.87
	73	14.1	-4.00718E-001	-8.12048E-005	0.00000E+000	-4.00011E-001	0.00000E+000	9	...........	1425.87
	74	15.1	-4.00719E-001	-8.00375E-005	0.00000E+000	-4.00011E-001	0.00000E+000	9	...........	1425.87
	75	16.1	-4.00724E-001	-7.89161E-005	0.00000E+000	-4.00011E-001	0.00000E+000	9	...........	1425.87
	76	26.1	-4.00725E-001	-7.08248E-005	0.00000E+000	-4.00011E-001	0.00000E+000	9	...........	1425.87
	77	36.1	-4.00701E-001	-6.60377E-005	0.00000E+000	-4.00011E-001	0.00000E+000	9	...........	1425.95
	78	46.1	-4.00709E-001	-6.29088E-005	0.00000E+000	-4.00011E-001	0.00000E+000	9	...........	1425.95
	79	56.1	-4.00716E-001	-6.06033E-005	0.00000E+000	-4.00011E-001	0.00000E+000	9	...........	1425.95
	80	66.1	-4.00730E-001	-5.84699E-005	0.00000E+000	-4.00011E-001	0.00000E+000	9	...........	1425.95
	81	76.1	-4.00717E-001	-5.68817E-005	0.00000E+000	-4.00011E-001	0.00000E+000	9	...........	1425.95
	82	86.1	-4.00715E-001	-5.58108E-005	0.00000E+000	-4.00011E-001	0.00000E+000	9	...........	1425.95
	83	96.1	-4.00716E-001	-5.45005E-005	0.00000E+000	-4.00011E-001	0.00000E+000	9	...........	1425.95
	84	106.1	-4.00708E-001	-5.38471E-005	0.00000E+000	-4.00011E-001	0.00000E+000	9	...........	1425.95
	85	116.1	-4.00710E-001	-5.28095E-005	0.00000E+000	-4.00011E-001	0.00000E+000	9	...........	1425.95
	86	216.1	-4.00717E-001	-4.93862E-005	0.00000E+000	-4.00011E-001	0.00000E+000	9	...........	1425.95
	87	300	-4.00717E-001	-4.83827E-005	0.00000E+000	-4.00011E-001	0.00000E+000	9	...........	1426.04
	88	300.1	-5.00741E-001	-4.73924E-004	0.00000E+000	-5.00010E-001	0.00000E+000	9	...........	1426.04
	89	300.2	-5.00714E-001	-3.88541E-004	0.00000E+000	-5.00010E-001	0.00000E+000	9	...........	1426.04
	90	300.3	-5.00728E-001	-3.30701E-004	0.00000E+000	-5.00010E-001	0.00000E+000	9	...........	1426.04
	91	300.4	-5.00721E-001	-2.89880E-004	0.00000E+000	-5.00010E-001	0.00000E+000	9	...........	1426.04
	92	300.5	-5.00735E-001	-2.60249E-004	0.00000E+000	-5.00010E-001	0.00000E+000	9	...........	1426.04
	93	300.6	-5.00728E-001	-2.38340E-004	0.00000E+000	-5.00010E-001	0.00000E+000	9	...........	1426.04
	94	300.7	-5.00727E-001	-2.21635E-004	0.00000E+000	-5.00010E-001	0.00000E+000	9	...........	1426.04
	95	300.8	-5.00724E-001	-2.08696E-004	0.00000E+000	-5.00010E-001	0.00000E+000	9	...........	1426.04
	96	300.9	-5.00724E-001	-1.98529E-004	0.00000E+000	-5.00010E-001	0.00000E+000	9	...........	1426.04
	97	301	-5.00724E-001	-1.90315E-004	0.00000E+000	-5.00010E-001	0.00000E+000	9	...........	1426.04
