EXPLAIN
TAG	CHRONOA
TITLE	LABEL	Chronoamperometry Scan	Test Identifier
DATE	LABEL	21/2/2022	Date
TIME	LABEL	12:42:57	Time
NOTES	NOTES	1	Notes...
	
PSTAT	PSTAT	IFC1010-21051	Potentiostat
VPRESTEP	POTEN	3.00000E-001	F	Pre-step Voltage (V)
TPRESTEP	QUANT	5.00000E-001	Pre-step Delay Time (s)
VSTEP1	POTEN	4.00000E-001	F	Step 1 Voltage (V)
TSTEP1	QUANT	3.00000E+002	Step 1 Time (s)
VSTEP2	POTEN	3.00000E-001	F	Step 2 Voltage (V)
TSTEP2	QUANT	1.00000E+000	Step 2 Time (s)
SAMPLETIME	QUANT	1.00000E-001	Sample Period (s)
DECIMATE	TOGGLE	T	Decimate
ILIMIT	QUANT	1.00000E+000	Limit I (mA/cm^2)
IMODE	SELECTOR	1	I/E Range Mode
IRANGE	QUANT	3.00000E-001	Max Current (mA)
EQDELAY	QUANT	5.00000E+000	Equil. Time (s)
SAMPLINGMODE	SELECTOR	1	Sampling Mode
AREA	QUANT	1.00000E+000	Sample Area (cm^2)
IRCOMP	SELECTOR	0	IRComp
PFCOR	QUANT	5.00000E+001	PF Corr. (ohm)
SEQUENCER	TOGGLE	TRUE	Run as Sequence
PSTATMODEL	IQUANT	64	Pstat Model
PSTATSECTION	LABEL	IFC1010-21051	Pstat Section
PSTATSERIALNO	LABEL	21051	Pstat Serial Number
CTRLMODE	IQUANT	1	Control Mode
ELECTROMETER	IQUANT	0	RE=0 or CS=1
IESTAB	IQUANT	0	I/E Stability
CASPEED	IQUANT	4	Control Amp Speed
CONVENTION	IQUANT	1	Current Convention
ICHRANGE	IQUANT	2	Ich Range
ICHRANGEMODE	TOGGLE	T	Ich Auto Range
ICHOFFSETENABLE	TOGGLE	F	Ich Offset Enable
ICHOFFSET	QUANT	0	Ich Offset (V)
ICHFILTER	IQUANT	3	Ich Filter
VCHRANGE	IQUANT	3	Vch Range
VCHRANGEMODE	TOGGLE	T	Vch Auto Range
VCHOFFSETENABLE	TOGGLE	F	Vch Offset Enable
VCHOFFSET	QUANT	0	Vch Offset (V)
VCHFILTER	IQUANT	3	Vch Filter
IERANGELOWERLIMIT	IQUANT	4	I/E Range Lower Limit
IERANGEMODE	TOGGLE	F	I/E AutoRange
IERANGE	IQUANT	9	I/E Range
ACHSELECT	IQUANT	0	Ach Select
ACHRANGE	IQUANT	2	Ach Range
ACHOFFSETENABLE	TOGGLE	F	Ach Offset Enable
ACHOFFSET	QUANT	0	Ach Offset (V)
ACHFILTER	IQUANT	1	Ach Filter
SENSECABLEID	IQUANT	14	Sense Cable ID
PWRCABLEID	IQUANT	14	Power Cable ID
DCCALDATE	LABEL	1/24/2022	DC Calibration Date
ACCALDATE	LABEL	4/2/2018	AC Calibration Date
FRAMEWORKVERSION	QUANT	7.06	Framework Version
INSTRUMENTVERSION	LABEL	4.30	Instrument Version
CURVE	TABLE	98
	Pt	T	Vf	Im	Vu	Sig	Ach	IERange	Over	Temp
	#	s	V vs. Ref.	A	V	V	V	#	bits	deg C
	0	-0.4	2.99571E-001	9.05479E-006	0.00000E+000	3.00072E-001	0.00000E+000	9	...........	1426.22
	1	-0.3	3.00303E-001	8.98162E-006	0.00000E+000	3.00072E-001	0.00000E+000	9	...........	1426.22
	2	-0.2	3.00308E-001	8.88705E-006	0.00000E+000	3.00072E-001	0.00000E+000	9	...........	1426.13
	3	-0.1	3.00308E-001	8.78221E-006	0.00000E+000	3.00072E-001	0.00000E+000	9	...........	1426.13
	4	0	3.00310E-001	8.69255E-006	0.00000E+000	3.00072E-001	0.00000E+000	9	...........	1426.13
	5	0.1	4.00356E-001	4.89362E-004	0.00000E+000	4.00072E-001	0.00000E+000	9	...........	1426.13
	6	0.2	4.00348E-001	4.16785E-004	0.00000E+000	4.00072E-001	0.00000E+000	9	...........	1426.13
	7	0.3	4.00349E-001	3.65159E-004	0.00000E+000	4.00072E-001	0.00000E+000	9	...........	1426.13
	8	0.4	4.00348E-001	3.26477E-004	0.00000E+000	4.00072E-001	0.00000E+000	9	...........	1426.13
	9	0.5	4.00346E-001	2.96608E-004	0.00000E+000	4.00072E-001	0.00000E+000	9	...........	1426.13
	10	0.6	4.00350E-001	2.72852E-004	0.00000E+000	4.00072E-001	0.00000E+000	9	...........	1426.13
	11	0.7	4.00344E-001	2.53475E-004	0.00000E+000	4.00072E-001	0.00000E+000	9	...........	1426.13
	12	0.8	4.00348E-001	2.37290E-004	0.00000E+000	4.00072E-001	0.00000E+000	9	...........	1425.87
	13	0.9	4.00363E-001	2.23556E-004	0.00000E+000	4.00072E-001	0.00000E+000	9	...........	1425.87
	14	1	4.00358E-001	2.11712E-004	0.00000E+000	4.00072E-001	0.00000E+000	9	...........	1425.87
	15	1.1	4.00364E-001	2.01303E-004	0.00000E+000	4.00072E-001	0.00000E+000	9	...........	1425.87
	16	1.2	4.00355E-001	1.92099E-004	0.00000E+000	4.00072E-001	0.00000E+000	9	...........	1425.87
	17	1.3	4.00355E-001	1.83872E-004	0.00000E+000	4.00072E-001	0.00000E+000	9	...........	1425.87
	18	1.4	4.00351E-001	1.76443E-004	0.00000E+000	4.00072E-001	0.00000E+000	9	...........	1425.87
	19	1.5	4.00357E-001	1.69745E-004	0.00000E+000	4.00072E-001	0.00000E+000	9	...........	1425.87
	20	1.6	4.00357E-001	1.63646E-004	0.00000E+000	4.00072E-001	0.00000E+000	9	...........	1425.87
	21	1.7	4.00351E-001	1.58141E-004	0.00000E+000	4.00072E-001	0.00000E+000	9	...........	1425.87
	22	1.8	4.00363E-001	1.53056E-004	0.00000E+000	4.00072E-001	0.00000E+000	9	...........	1426.13
	23	1.9	4.00355E-001	1.48440E-004	0.00000E+000	4.00072E-001	0.00000E+000	9	...........	1426.13
	24	2	4.00352E-001	1.44233E-004	0.00000E+000	4.00072E-001	0.00000E+000	9	...........	1426.13
	25	2.1	4.00350E-001	1.40328E-004	0.00000E+000	4.00072E-001	0.00000E+000	9	...........	1426.13
	26	2.2	4.00347E-001	1.36667E-004	0.00000E+000	4.00072E-001	0.00000E+000	9	...........	1426.13
	27	2.3	4.00351E-001	1.33253E-004	0.00000E+000	4.00072E-001	0.00000E+000	9	...........	1426.13
	28	2.4	4.00355E-001	1.30092E-004	0.00000E+000	4.00072E-001	0.00000E+000	9	...........	1426.13
	29	2.5	4.00334E-001	1.27154E-004	0.00000E+000	4.00072E-001	0.00000E+000	9	...........	1426.13
	30	2.6	4.00350E-001	1.24370E-004	0.00000E+000	4.00072E-001	0.00000E+000	9	...........	1426.13
	31	2.7	4.00350E-001	1.21742E-004	0.00000E+000	4.00072E-001	0.00000E+000	9	...........	1426.13
	32	2.8	4.00347E-001	1.19202E-004	0.00000E+000	4.00072E-001	0.00000E+000	9	...........	1426.13
	33	2.9	4.00346E-001	1.16859E-004	0.00000E+000	4.00072E-001	0.00000E+000	9	...........	1426.13
	34	3	4.00353E-001	1.14660E-004	0.00000E+000	4.00072E-001	0.00000E+000	9	...........	1426.13
	35	3.1	4.00355E-001	1.12520E-004	0.00000E+000	4.00072E-001	0.00000E+000	9	...........	1426.13
	36	3.2	4.00342E-001	1.10498E-004	0.00000E+000	4.00072E-001	0.00000E+000	9	...........	1426.13
	37	3.3	4.00355E-001	1.08546E-004	0.00000E+000	4.00072E-001	0.00000E+000	9	...........	1426.13
	38	3.4	4.00353E-001	1.06757E-004	0.00000E+000	4.00072E-001	0.00000E+000	9	...........	1426.13
	39	3.5	4.00358E-001	1.05000E-004	0.00000E+000	4.00072E-001	0.00000E+000	9	...........	1426.13
	40	3.6	4.00347E-001	1.03280E-004	0.00000E+000	4.00072E-001	0.00000E+000	9	...........	1426.13
	41	3.7	4.00346E-001	1.01693E-004	0.00000E+000	4.00072E-001	0.00000E+000	9	...........	1426.13
	42	3.8	4.00346E-001	1.00121E-004	0.00000E+000	4.00072E-001	0.00000E+000	9	...........	1425.95
	43	3.9	4.00350E-001	9.86413E-005	0.00000E+000	4.00072E-001	0.00000E+000	9	...........	1425.95
	44	4	4.00350E-001	9.71955E-005	0.00000E+000	4.00072E-001	0.00000E+000	9	...........	1425.95
	45	4.1	4.00340E-001	9.58334E-005	0.00000E+000	4.00072E-001	0.00000E+000	9	...........	1425.95
	46	4.2	4.00350E-001	9.44999E-005	0.00000E+000	4.00072E-001	0.00000E+000	9	...........	1425.95
	47	4.3	4.00368E-001	9.32199E-005	0.00000E+000	4.00072E-001	0.00000E+000	9	...........	1425.95
	48	4.4	4.00359E-001	9.19423E-005	0.00000E+000	4.00072E-001	0.00000E+000	9	...........	1425.95
	49	4.5	4.00347E-001	9.07852E-005	0.00000E+000	4.00072E-001	0.00000E+000	9	...........	1425.95
	50	4.6	4.00347E-001	8.95850E-005	0.00000E+000	4.00072E-001	0.00000E+000	9	...........	1425.95
	51	4.7	4.00352E-001	8.84871E-005	0.00000E+000	4.00072E-001	0.00000E+000	9	...........	1425.95
	52	4.8	4.00347E-001	8.74220E-005	0.00000E+000	4.00072E-001	0.00000E+000	9	...........	1426.13
	53	4.9	4.00359E-001	8.63662E-005	0.00000E+000	4.00072E-001	0.00000E+000	9	...........	1426.13
	54	5	4.00359E-001	8.53447E-005	0.00000E+000	4.00072E-001	0.00000E+000	9	...........	1426.13
	55	5.1	4.00351E-001	8.43549E-005	0.00000E+000	4.00072E-001	0.00000E+000	9	...........	1426.13
	56	5.2	4.00369E-001	8.33145E-005	0.00000E+000	4.00072E-001	0.00000E+000	9	...........	1426.13
	57	5.3	4.00348E-001	8.24464E-005	0.00000E+000	4.00072E-001	0.00000E+000	9	...........	1426.13
	58	5.4	4.00373E-001	8.14860E-005	0.00000E+000	4.00072E-001	0.00000E+000	9	...........	1426.13
	59	5.5	4.00356E-001	8.06545E-005	0.00000E+000	4.00072E-001	0.00000E+000	9	...........	1426.13
	60	5.6	4.00339E-001	7.97915E-005	0.00000E+000	4.00072E-001	0.00000E+000	9	...........	1426.13
	61	5.7	4.00344E-001	7.89418E-005	0.00000E+000	4.00072E-001	0.00000E+000	9	...........	1426.13
	62	5.8	4.00359E-001	7.81094E-005	0.00000E+000	4.00072E-001	0.00000E+000	9	...........	1426.13
	63	5.9	4.00354E-001	7.73769E-005	0.00000E+000	4.00072E-001	0.00000E+000	9	...........	1426.13
	64	6	4.00353E-001	7.65704E-005	0.00000E+000	4.00072E-001	0.00000E+000	9	...........	1426.13
	65	6.1	4.00345E-001	7.57588E-005	0.00000E+000	4.00072E-001	0.00000E+000	9	...........	1426.13
	66	7.1	4.00334E-001	6.91943E-005	0.00000E+000	4.00072E-001	0.00000E+000	9	...........	1426.13
	67	8.1	4.00352E-001	6.38414E-005	0.00000E+000	4.00072E-001	0.00000E+000	9	...........	1426.13
	68	9.1	4.00355E-001	5.93949E-005	0.00000E+000	4.00072E-001	0.00000E+000	9	...........	1426.13
	69	10.1	4.00358E-001	5.56201E-005	0.00000E+000	4.00072E-001	0.00000E+000	9	...........	1426.13
	70	11.1	4.00362E-001	5.23724E-005	0.00000E+000	4.00072E-001	0.00000E+000	9	...........	1426.13
	71	12.1	4.00358E-001	4.95203E-005	0.00000E+000	4.00072E-001	0.00000E+000	9	...........	1426.13
	72	13.1	4.00359E-001	4.69968E-005	0.00000E+000	4.00072E-001	0.00000E+000	9	...........	1426.13
	73	14.1	4.00347E-001	4.48090E-005	0.00000E+000	4.00072E-001	0.00000E+000	9	...........	1426.13
	74	15.1	4.00356E-001	4.28604E-005	0.00000E+000	4.00072E-001	0.00000E+000	9	...........	1426.13
	75	16.1	4.00355E-001	4.11015E-005	0.00000E+000	4.00072E-001	0.00000E+000	9	...........	1426.13
	76	26.1	4.00348E-001	3.06730E-005	0.00000E+000	4.00072E-001	0.00000E+000	9	...........	1426.22
	77	36.1	4.00362E-001	2.62990E-005	0.00000E+000	4.00072E-001	0.00000E+000	9	...........	1426.22
	78	46.1	4.00350E-001	2.36701E-005	0.00000E+000	4.00072E-001	0.00000E+000	9	...........	1426.13
	79	56.1	4.00356E-001	2.21069E-005	0.00000E+000	4.00072E-001	0.00000E+000	9	...........	1426.22
	80	66.1	4.00349E-001	2.08597E-005	0.00000E+000	4.00072E-001	0.00000E+000	9	...........	1426.13
	81	76.1	4.00353E-001	2.02365E-005	0.00000E+000	4.00072E-001	0.00000E+000	9	...........	1426.13
	82	86.1	4.00340E-001	1.95523E-005	0.00000E+000	4.00072E-001	0.00000E+000	9	...........	1426.13
	83	96.1	4.00348E-001	1.92059E-005	0.00000E+000	4.00072E-001	0.00000E+000	9	...........	1426.22
	84	106.1	4.00358E-001	1.90591E-005	0.00000E+000	4.00072E-001	0.00000E+000	9	...........	1426.13
	85	116.1	4.00346E-001	1.86414E-005	0.00000E+000	4.00072E-001	0.00000E+000	9	...........	1426.13
	86	216.1	4.00358E-001	1.80679E-005	0.00000E+000	4.00072E-001	0.00000E+000	9	...........	1426.13
	87	300	4.00363E-001	1.77742E-005	0.00000E+000	4.00072E-001	0.00000E+000	9	...........	1426.13
	88	300.1	3.00309E-001	-4.51165E-004	0.00000E+000	3.00072E-001	0.00000E+000	9	...........	1426.13
	89	300.2	3.00316E-001	-3.94728E-004	0.00000E+000	3.00072E-001	0.00000E+000	9	...........	1426.13
	90	300.3	3.00307E-001	-3.48753E-004	0.00000E+000	3.00072E-001	0.00000E+000	9	...........	1426.13
	91	300.4	3.00301E-001	-3.09572E-004	0.00000E+000	3.00072E-001	0.00000E+000	9	...........	1426.13
	92	300.5	3.00305E-001	-2.75711E-004	0.00000E+000	3.00072E-001	0.00000E+000	9	...........	1426.13
	93	300.6	3.00306E-001	-2.46413E-004	0.00000E+000	3.00072E-001	0.00000E+000	9	...........	1426.13
	94	300.7	3.00309E-001	-2.21134E-004	0.00000E+000	3.00072E-001	0.00000E+000	9	...........	1426.13
	95	300.8	3.00306E-001	-1.99552E-004	0.00000E+000	3.00072E-001	0.00000E+000	9	...........	1426.13
	96	300.9	3.00309E-001	-1.81312E-004	0.00000E+000	3.00072E-001	0.00000E+000	9	...........	1426.13
	97	301	3.00319E-001	-1.65824E-004	0.00000E+000	3.00072E-001	0.00000E+000	9	...........	1426.13
