EXPLAIN
TAG	CHRONOA
TITLE	LABEL	Chronoamperometry Scan	Test Identifier
DATE	LABEL	21/2/2022	Date
TIME	LABEL	11:24:51	Time
NOTES	NOTES	1	Notes...
	
PSTAT	PSTAT	IFC1010-21051	Potentiostat
VPRESTEP	POTEN	3.00000E-001	F	Pre-step Voltage (V)
TPRESTEP	QUANT	5.00000E-001	Pre-step Delay Time (s)
VSTEP1	POTEN	4.00000E-001	F	Step 1 Voltage (V)
TSTEP1	QUANT	3.00000E+002	Step 1 Time (s)
VSTEP2	POTEN	3.00000E-001	F	Step 2 Voltage (V)
TSTEP2	QUANT	1.00000E+000	Step 2 Time (s)
SAMPLETIME	QUANT	1.00000E-001	Sample Period (s)
DECIMATE	TOGGLE	T	Decimate
ILIMIT	QUANT	1.00000E+000	Limit I (mA/cm^2)
IMODE	SELECTOR	1	I/E Range Mode
IRANGE	QUANT	3.00000E-001	Max Current (mA)
EQDELAY	QUANT	5.00000E+000	Equil. Time (s)
SAMPLINGMODE	SELECTOR	1	Sampling Mode
AREA	QUANT	1.00000E+000	Sample Area (cm^2)
IRCOMP	SELECTOR	0	IRComp
PFCOR	QUANT	5.00000E+001	PF Corr. (ohm)
SEQUENCER	TOGGLE	TRUE	Run as Sequence
PSTATMODEL	IQUANT	64	Pstat Model
PSTATSECTION	LABEL	IFC1010-21051	Pstat Section
PSTATSERIALNO	LABEL	21051	Pstat Serial Number
CTRLMODE	IQUANT	1	Control Mode
ELECTROMETER	IQUANT	0	RE=0 or CS=1
IESTAB	IQUANT	0	I/E Stability
CASPEED	IQUANT	4	Control Amp Speed
CONVENTION	IQUANT	1	Current Convention
ICHRANGE	IQUANT	2	Ich Range
ICHRANGEMODE	TOGGLE	T	Ich Auto Range
ICHOFFSETENABLE	TOGGLE	F	Ich Offset Enable
ICHOFFSET	QUANT	0	Ich Offset (V)
ICHFILTER	IQUANT	3	Ich Filter
VCHRANGE	IQUANT	3	Vch Range
VCHRANGEMODE	TOGGLE	T	Vch Auto Range
VCHOFFSETENABLE	TOGGLE	F	Vch Offset Enable
VCHOFFSET	QUANT	0	Vch Offset (V)
VCHFILTER	IQUANT	3	Vch Filter
IERANGELOWERLIMIT	IQUANT	4	I/E Range Lower Limit
IERANGEMODE	TOGGLE	F	I/E AutoRange
IERANGE	IQUANT	9	I/E Range
ACHSELECT	IQUANT	0	Ach Select
ACHRANGE	IQUANT	2	Ach Range
ACHOFFSETENABLE	TOGGLE	F	Ach Offset Enable
ACHOFFSET	QUANT	0	Ach Offset (V)
ACHFILTER	IQUANT	1	Ach Filter
SENSECABLEID	IQUANT	14	Sense Cable ID
PWRCABLEID	IQUANT	14	Power Cable ID
DCCALDATE	LABEL	1/24/2022	DC Calibration Date
ACCALDATE	LABEL	4/2/2018	AC Calibration Date
FRAMEWORKVERSION	QUANT	7.06	Framework Version
INSTRUMENTVERSION	LABEL	4.30	Instrument Version
CURVE	TABLE	98
	Pt	T	Vf	Im	Vu	Sig	Ach	IERange	Over	Temp
	#	s	V vs. Ref.	A	V	V	V	#	bits	deg C
	0	-0.4	2.99587E-001	8.50823E-006	0.00000E+000	3.00072E-001	0.00000E+000	9	...........	1425.87
	1	-0.3	3.00306E-001	8.43175E-006	0.00000E+000	3.00072E-001	0.00000E+000	9	...........	1425.87
	2	-0.2	3.00313E-001	8.35187E-006	0.00000E+000	3.00072E-001	0.00000E+000	9	...........	1425.87
	3	-0.1	3.00313E-001	8.26588E-006	0.00000E+000	3.00072E-001	0.00000E+000	9	...........	1425.87
	4	0	3.00311E-001	8.17959E-006	0.00000E+000	3.00072E-001	0.00000E+000	9	...........	1425.87
	5	0.1	4.00359E-001	4.56814E-004	0.00000E+000	4.00072E-001	0.00000E+000	9	...........	1425.87
	6	0.2	4.00356E-001	3.87111E-004	0.00000E+000	4.00072E-001	0.00000E+000	9	...........	1425.87
	7	0.3	4.00348E-001	3.36321E-004	0.00000E+000	4.00072E-001	0.00000E+000	9	...........	1425.87
	8	0.4	4.00357E-001	2.98012E-004	0.00000E+000	4.00072E-001	0.00000E+000	9	...........	1425.87
	9	0.5	4.00344E-001	2.68360E-004	0.00000E+000	4.00072E-001	0.00000E+000	9	...........	1425.87
	10	0.6	4.00367E-001	2.44792E-004	0.00000E+000	4.00072E-001	0.00000E+000	9	...........	1425.87
	11	0.7	4.00356E-001	2.25655E-004	0.00000E+000	4.00072E-001	0.00000E+000	9	...........	1425.87
	12	0.8	4.00362E-001	2.09606E-004	0.00000E+000	4.00072E-001	0.00000E+000	9	...........	1425.87
	13	0.9	4.00367E-001	1.95899E-004	0.00000E+000	4.00072E-001	0.00000E+000	9	...........	1425.87
	14	1	4.00364E-001	1.84092E-004	0.00000E+000	4.00072E-001	0.00000E+000	9	...........	1425.87
	15	1.1	4.00360E-001	1.73773E-004	0.00000E+000	4.00072E-001	0.00000E+000	9	...........	1425.87
	16	1.2	4.00358E-001	1.64736E-004	0.00000E+000	4.00072E-001	0.00000E+000	9	...........	1425.87
	17	1.3	4.00364E-001	1.56700E-004	0.00000E+000	4.00072E-001	0.00000E+000	9	...........	1425.87
	18	1.4	4.00366E-001	1.49544E-004	0.00000E+000	4.00072E-001	0.00000E+000	9	...........	1425.87
	19	1.5	4.00356E-001	1.43187E-004	0.00000E+000	4.00072E-001	0.00000E+000	9	...........	1425.60
	20	1.6	4.00365E-001	1.37465E-004	0.00000E+000	4.00072E-001	0.00000E+000	9	...........	1425.60
	21	1.7	4.00359E-001	1.32229E-004	0.00000E+000	4.00072E-001	0.00000E+000	9	...........	1425.60
	22	1.8	4.00363E-001	1.27473E-004	0.00000E+000	4.00072E-001	0.00000E+000	9	...........	1425.60
	23	1.9	4.00367E-001	1.23168E-004	0.00000E+000	4.00072E-001	0.00000E+000	9	...........	1425.60
	24	2	4.00355E-001	1.19173E-004	0.00000E+000	4.00072E-001	0.00000E+000	9	...........	1425.60
	25	2.1	4.00361E-001	1.15480E-004	0.00000E+000	4.00072E-001	0.00000E+000	9	...........	1425.60
	26	2.2	4.00356E-001	1.12057E-004	0.00000E+000	4.00072E-001	0.00000E+000	9	...........	1425.60
	27	2.3	4.00356E-001	1.08909E-004	0.00000E+000	4.00072E-001	0.00000E+000	9	...........	1425.60
	28	2.4	4.00352E-001	1.05924E-004	0.00000E+000	4.00072E-001	0.00000E+000	9	...........	1425.60
	29	2.5	4.00351E-001	1.03144E-004	0.00000E+000	4.00072E-001	0.00000E+000	9	...........	1425.42
	30	2.6	4.00358E-001	1.00531E-004	0.00000E+000	4.00072E-001	0.00000E+000	9	...........	1425.42
	31	2.7	4.00361E-001	9.80427E-005	0.00000E+000	4.00072E-001	0.00000E+000	9	...........	1425.42
	32	2.8	4.00365E-001	9.57844E-005	0.00000E+000	4.00072E-001	0.00000E+000	9	...........	1425.42
	33	2.9	4.00360E-001	9.35908E-005	0.00000E+000	4.00072E-001	0.00000E+000	9	...........	1425.42
	34	3	4.00361E-001	9.14784E-005	0.00000E+000	4.00072E-001	0.00000E+000	9	...........	1425.42
	35	3.1	4.00364E-001	8.95557E-005	0.00000E+000	4.00072E-001	0.00000E+000	9	...........	1425.42
	36	3.2	4.00364E-001	8.76361E-005	0.00000E+000	4.00072E-001	0.00000E+000	9	...........	1425.42
	37	3.3	4.00362E-001	8.59209E-005	0.00000E+000	4.00072E-001	0.00000E+000	9	...........	1425.42
	38	3.4	4.00363E-001	8.42308E-005	0.00000E+000	4.00072E-001	0.00000E+000	9	...........	1425.42
	39	3.5	4.00372E-001	8.26309E-005	0.00000E+000	4.00072E-001	0.00000E+000	9	...........	1425.51
	40	3.6	4.00380E-001	8.10680E-005	0.00000E+000	4.00072E-001	0.00000E+000	9	...........	1425.51
	41	3.7	4.00366E-001	7.96457E-005	0.00000E+000	4.00072E-001	0.00000E+000	9	...........	1425.51
	42	3.8	4.00369E-001	7.82627E-005	0.00000E+000	4.00072E-001	0.00000E+000	9	...........	1425.51
	43	3.9	4.00362E-001	7.69001E-005	0.00000E+000	4.00072E-001	0.00000E+000	9	...........	1425.51
	44	4	4.00362E-001	7.55855E-005	0.00000E+000	4.00072E-001	0.00000E+000	9	...........	1425.51
	45	4.1	4.00367E-001	7.43870E-005	0.00000E+000	4.00072E-001	0.00000E+000	9	...........	1425.51
	46	4.2	4.00367E-001	7.32222E-005	0.00000E+000	4.00072E-001	0.00000E+000	9	...........	1425.51
	47	4.3	4.00366E-001	7.21209E-005	0.00000E+000	4.00072E-001	0.00000E+000	9	...........	1425.51
	48	4.4	4.00363E-001	7.10341E-005	0.00000E+000	4.00072E-001	0.00000E+000	9	...........	1425.51
	49	4.5	4.00354E-001	6.99964E-005	0.00000E+000	4.00072E-001	0.00000E+000	9	...........	1425.78
	50	4.6	4.00366E-001	6.89571E-005	0.00000E+000	4.00072E-001	0.00000E+000	9	...........	1425.78
	51	4.7	4.00350E-001	6.80157E-005	0.00000E+000	4.00072E-001	0.00000E+000	9	...........	1425.78
	52	4.8	4.00349E-001	6.70824E-005	0.00000E+000	4.00072E-001	0.00000E+000	9	...........	1425.78
	53	4.9	4.00352E-001	6.61685E-005	0.00000E+000	4.00072E-001	0.00000E+000	9	...........	1425.78
	54	5	4.00356E-001	6.53337E-005	0.00000E+000	4.00072E-001	0.00000E+000	9	...........	1425.78
	55	5.1	4.00359E-001	6.44900E-005	0.00000E+000	4.00072E-001	0.00000E+000	9	...........	1425.78
	56	5.2	4.00363E-001	6.36820E-005	0.00000E+000	4.00072E-001	0.00000E+000	9	...........	1425.78
	57	5.3	4.00362E-001	6.29021E-005	0.00000E+000	4.00072E-001	0.00000E+000	9	...........	1425.78
	58	5.4	4.00367E-001	6.21504E-005	0.00000E+000	4.00072E-001	0.00000E+000	9	...........	1425.78
	59	5.5	4.00373E-001	6.14046E-005	0.00000E+000	4.00072E-001	0.00000E+000	9	...........	1425.78
	60	5.6	4.00356E-001	6.07069E-005	0.00000E+000	4.00072E-001	0.00000E+000	9	...........	1425.78
	61	5.7	4.00362E-001	6.00233E-005	0.00000E+000	4.00072E-001	0.00000E+000	9	...........	1425.78
	62	5.8	4.00365E-001	5.93502E-005	0.00000E+000	4.00072E-001	0.00000E+000	9	...........	1425.78
	63	5.9	4.00354E-001	5.87112E-005	0.00000E+000	4.00072E-001	0.00000E+000	9	...........	1425.78
	64	6	4.00362E-001	5.80954E-005	0.00000E+000	4.00072E-001	0.00000E+000	9	...........	1425.78
	65	6.1	4.00358E-001	5.74501E-005	0.00000E+000	4.00072E-001	0.00000E+000	9	...........	1425.78
	66	7.1	4.00371E-001	5.22207E-005	0.00000E+000	4.00072E-001	0.00000E+000	9	...........	1425.87
	67	8.1	4.00362E-001	4.81883E-005	0.00000E+000	4.00072E-001	0.00000E+000	9	...........	1425.87
	68	9.1	4.00370E-001	4.49641E-005	0.00000E+000	4.00072E-001	0.00000E+000	9	...........	1425.87
	69	10.1	4.00371E-001	4.23952E-005	0.00000E+000	4.00072E-001	0.00000E+000	9	...........	1425.87
	70	11.1	4.00371E-001	4.02488E-005	0.00000E+000	4.00072E-001	0.00000E+000	9	...........	1425.87
	71	12.1	4.00375E-001	3.83406E-005	0.00000E+000	4.00072E-001	0.00000E+000	9	...........	1425.87
	72	13.1	4.00346E-001	3.67119E-005	0.00000E+000	4.00072E-001	0.00000E+000	9	...........	1425.87
	73	14.1	4.00350E-001	3.53279E-005	0.00000E+000	4.00072E-001	0.00000E+000	9	...........	1425.87
	74	15.1	4.00355E-001	3.40560E-005	0.00000E+000	4.00072E-001	0.00000E+000	9	...........	1425.87
	75	16.1	4.00355E-001	3.28595E-005	0.00000E+000	4.00072E-001	0.00000E+000	9	...........	1425.87
	76	26.1	4.00361E-001	2.61131E-005	0.00000E+000	4.00072E-001	0.00000E+000	9	...........	1425.95
	77	36.1	4.00366E-001	2.28996E-005	0.00000E+000	4.00072E-001	0.00000E+000	9	...........	1425.95
	78	46.1	4.00368E-001	2.10209E-005	0.00000E+000	4.00072E-001	0.00000E+000	9	...........	1425.95
	79	56.1	4.00361E-001	1.96910E-005	0.00000E+000	4.00072E-001	0.00000E+000	9	...........	1425.95
	80	66.1	4.00353E-001	1.88365E-005	0.00000E+000	4.00072E-001	0.00000E+000	9	...........	1425.87
	81	76.1	4.00367E-001	1.82408E-005	0.00000E+000	4.00072E-001	0.00000E+000	9	...........	1425.95
	82	86.1	4.00349E-001	1.79123E-005	0.00000E+000	4.00072E-001	0.00000E+000	9	...........	1425.95
	83	96.1	4.00356E-001	1.78010E-005	0.00000E+000	4.00072E-001	0.00000E+000	9	...........	1425.95
	84	106.1	4.00372E-001	1.76252E-005	0.00000E+000	4.00072E-001	0.00000E+000	9	...........	1425.95
	85	116.1	4.00364E-001	1.72914E-005	0.00000E+000	4.00072E-001	0.00000E+000	9	...........	1425.87
	86	216.1	4.00362E-001	1.69392E-005	0.00000E+000	4.00072E-001	0.00000E+000	9	...........	1425.95
	87	300	4.00357E-001	1.67953E-005	0.00000E+000	4.00072E-001	0.00000E+000	9	...........	1425.95
	88	300.1	3.00317E-001	-4.37091E-004	0.00000E+000	3.00072E-001	0.00000E+000	9	...........	1425.95
	89	300.2	3.00315E-001	-3.85509E-004	0.00000E+000	3.00072E-001	0.00000E+000	9	...........	1425.95
	90	300.3	3.00321E-001	-3.42811E-004	0.00000E+000	3.00072E-001	0.00000E+000	9	...........	1425.95
	91	300.4	3.00317E-001	-3.06093E-004	0.00000E+000	3.00072E-001	0.00000E+000	9	...........	1425.95
	92	300.5	3.00322E-001	-2.74059E-004	0.00000E+000	3.00072E-001	0.00000E+000	9	...........	1425.87
	93	300.6	3.00319E-001	-2.45990E-004	0.00000E+000	3.00072E-001	0.00000E+000	9	...........	1425.87
	94	300.7	3.00322E-001	-2.21374E-004	0.00000E+000	3.00072E-001	0.00000E+000	9	...........	1425.87
	95	300.8	3.00323E-001	-1.99842E-004	0.00000E+000	3.00072E-001	0.00000E+000	9	...........	1425.87
	96	300.9	3.00314E-001	-1.81027E-004	0.00000E+000	3.00072E-001	0.00000E+000	9	...........	1425.87
	97	301	3.00321E-001	-1.64565E-004	0.00000E+000	3.00072E-001	0.00000E+000	9	...........	1425.87
