EXPLAIN
TAG	CHRONOA
TITLE	LABEL	Chronoamperometry Scan	Test Identifier
DATE	LABEL	21/2/2022	Date
TIME	LABEL	11:14:38	Time
NOTES	NOTES	1	Notes...
	
PSTAT	PSTAT	IFC1010-21051	Potentiostat
VPRESTEP	POTEN	1.00000E-002	F	Pre-step Voltage (V)
TPRESTEP	QUANT	5.00000E-001	Pre-step Delay Time (s)
VSTEP1	POTEN	0.00000E+000	F	Step 1 Voltage (V)
TSTEP1	QUANT	3.00000E+002	Step 1 Time (s)
VSTEP2	POTEN	-1.00000E-001	F	Step 2 Voltage (V)
TSTEP2	QUANT	1.00000E+000	Step 2 Time (s)
SAMPLETIME	QUANT	1.00000E-001	Sample Period (s)
DECIMATE	TOGGLE	T	Decimate
ILIMIT	QUANT	1.00000E+000	Limit I (mA/cm^2)
IMODE	SELECTOR	1	I/E Range Mode
IRANGE	QUANT	3.00000E-001	Max Current (mA)
EQDELAY	QUANT	5.00000E+000	Equil. Time (s)
SAMPLINGMODE	SELECTOR	1	Sampling Mode
AREA	QUANT	1.00000E+000	Sample Area (cm^2)
IRCOMP	SELECTOR	0	IRComp
PFCOR	QUANT	5.00000E+001	PF Corr. (ohm)
SEQUENCER	TOGGLE	TRUE	Run as Sequence
PSTATMODEL	IQUANT	64	Pstat Model
PSTATSECTION	LABEL	IFC1010-21051	Pstat Section
PSTATSERIALNO	LABEL	21051	Pstat Serial Number
CTRLMODE	IQUANT	1	Control Mode
ELECTROMETER	IQUANT	0	RE=0 or CS=1
IESTAB	IQUANT	0	I/E Stability
CASPEED	IQUANT	4	Control Amp Speed
CONVENTION	IQUANT	1	Current Convention
ICHRANGE	IQUANT	2	Ich Range
ICHRANGEMODE	TOGGLE	T	Ich Auto Range
ICHOFFSETENABLE	TOGGLE	F	Ich Offset Enable
ICHOFFSET	QUANT	0	Ich Offset (V)
ICHFILTER	IQUANT	3	Ich Filter
VCHRANGE	IQUANT	3	Vch Range
VCHRANGEMODE	TOGGLE	T	Vch Auto Range
VCHOFFSETENABLE	TOGGLE	F	Vch Offset Enable
VCHOFFSET	QUANT	0	Vch Offset (V)
VCHFILTER	IQUANT	3	Vch Filter
IERANGELOWERLIMIT	IQUANT	4	I/E Range Lower Limit
IERANGEMODE	TOGGLE	F	I/E AutoRange
IERANGE	IQUANT	9	I/E Range
ACHSELECT	IQUANT	0	Ach Select
ACHRANGE	IQUANT	2	Ach Range
ACHOFFSETENABLE	TOGGLE	F	Ach Offset Enable
ACHOFFSET	QUANT	0	Ach Offset (V)
ACHFILTER	IQUANT	1	Ach Filter
SENSECABLEID	IQUANT	14	Sense Cable ID
PWRCABLEID	IQUANT	14	Power Cable ID
DCCALDATE	LABEL	1/24/2022	DC Calibration Date
ACCALDATE	LABEL	4/2/2018	AC Calibration Date
FRAMEWORKVERSION	QUANT	7.06	Framework Version
INSTRUMENTVERSION	LABEL	4.30	Instrument Version
CURVE	TABLE	98
	Pt	T	Vf	Im	Vu	Sig	Ach	IERange	Over	Temp
	#	s	V vs. Ref.	A	V	V	V	#	bits	deg C
	0	-0.4	9.25153E-003	-3.15003E-005	0.00000E+000	1.00559E-002	0.00000E+000	9	...........	1425.87
	1	-0.3	9.90073E-003	-3.10598E-005	0.00000E+000	1.00559E-002	0.00000E+000	9	...........	1425.87
	2	-0.2	1.00440E-002	-3.06464E-005	0.00000E+000	1.00559E-002	0.00000E+000	9	...........	1425.87
	3	-0.1	1.00589E-002	-3.02682E-005	0.00000E+000	1.00559E-002	0.00000E+000	9	...........	1425.87
	4	0	1.00582E-002	-2.99029E-005	0.00000E+000	1.00559E-002	0.00000E+000	9	...........	1425.87
	5	0.1	5.09997E-005	-7.17311E-005	0.00000E+000	5.34840E-005	0.00000E+000	9	...........	1425.87
	6	0.2	5.13591E-005	-6.42633E-005	0.00000E+000	5.34840E-005	0.00000E+000	9	...........	1425.87
	7	0.3	5.09827E-005	-5.87002E-005	0.00000E+000	5.34840E-005	0.00000E+000	9	...........	1425.87
	8	0.4	5.18777E-005	-5.43563E-005	0.00000E+000	5.34840E-005	0.00000E+000	9	...........	1425.87
	9	0.5	5.07303E-005	-5.08580E-005	0.00000E+000	5.34840E-005	0.00000E+000	9	...........	1425.87
	10	0.6	5.01947E-005	-4.79693E-005	0.00000E+000	5.34840E-005	0.00000E+000	9	...........	1425.87
	11	0.7	5.05812E-005	-4.55394E-005	0.00000E+000	5.34840E-005	0.00000E+000	9	...........	1425.79
	12	0.8	5.07714E-005	-4.34806E-005	0.00000E+000	5.34840E-005	0.00000E+000	9	...........	1425.60
	13	0.9	5.03509E-005	-4.16856E-005	0.00000E+000	5.34840E-005	0.00000E+000	9	...........	1425.60
	14	1	4.94508E-005	-4.01284E-005	0.00000E+000	5.34840E-005	0.00000E+000	9	...........	1425.60
	15	1.1	4.96060E-005	-3.87511E-005	0.00000E+000	5.34840E-005	0.00000E+000	9	...........	1425.60
	16	1.2	5.03158E-005	-3.75378E-005	0.00000E+000	5.34840E-005	0.00000E+000	9	...........	1425.60
	17	1.3	4.95399E-005	-3.64399E-005	0.00000E+000	5.34840E-005	0.00000E+000	9	...........	1425.60
	18	1.4	5.05902E-005	-3.54606E-005	0.00000E+000	5.34840E-005	0.00000E+000	9	...........	1425.60
	19	1.5	5.01406E-005	-3.45886E-005	0.00000E+000	5.34840E-005	0.00000E+000	9	...........	1425.60
	20	1.6	4.93606E-005	-3.37858E-005	0.00000E+000	5.34840E-005	0.00000E+000	9	...........	1425.60
	21	1.7	4.97041E-005	-3.30474E-005	0.00000E+000	5.34840E-005	0.00000E+000	9	...........	1425.67
	22	1.8	4.94598E-005	-3.23773E-005	0.00000E+000	5.34840E-005	0.00000E+000	9	...........	1425.87
	23	1.9	5.02027E-005	-3.17604E-005	0.00000E+000	5.34840E-005	0.00000E+000	9	...........	1425.87
	24	2	4.88600E-005	-3.12017E-005	0.00000E+000	5.34840E-005	0.00000E+000	9	...........	1425.87
	25	2.1	4.92125E-005	-3.06849E-005	0.00000E+000	5.34840E-005	0.00000E+000	9	...........	1425.87
	26	2.2	4.94127E-005	-3.02184E-005	0.00000E+000	5.34840E-005	0.00000E+000	9	...........	1425.87
	27	2.3	4.89622E-005	-2.97364E-005	0.00000E+000	5.34840E-005	0.00000E+000	9	...........	1425.87
	28	2.4	4.85977E-005	-2.93013E-005	0.00000E+000	5.34840E-005	0.00000E+000	9	...........	1425.87
	29	2.5	4.92916E-005	-2.88935E-005	0.00000E+000	5.34840E-005	0.00000E+000	9	...........	1425.87
	30	2.6	4.95679E-005	-2.85100E-005	0.00000E+000	5.34840E-005	0.00000E+000	9	...........	1425.87
	31	2.7	4.91474E-005	-2.81623E-005	0.00000E+000	5.34840E-005	0.00000E+000	9	...........	1425.87
	32	2.8	5.00425E-005	-2.78214E-005	0.00000E+000	5.34840E-005	0.00000E+000	9	...........	1425.87
	33	2.9	4.87389E-005	-2.74873E-005	0.00000E+000	5.34840E-005	0.00000E+000	9	...........	1425.87
	34	3	4.87449E-005	-2.71874E-005	0.00000E+000	5.34840E-005	0.00000E+000	9	...........	1425.87
	35	3.1	4.83514E-005	-2.68912E-005	0.00000E+000	5.34840E-005	0.00000E+000	9	...........	1425.87
	36	3.2	4.78648E-005	-2.66037E-005	0.00000E+000	5.34840E-005	0.00000E+000	9	...........	1425.87
	37	3.3	4.90403E-005	-2.63234E-005	0.00000E+000	5.34840E-005	0.00000E+000	9	...........	1425.87
	38	3.4	4.81832E-005	-2.60688E-005	0.00000E+000	5.34840E-005	0.00000E+000	9	...........	1425.87
	39	3.5	4.93697E-005	-2.58109E-005	0.00000E+000	5.34840E-005	0.00000E+000	9	...........	1425.87
	40	3.6	4.90433E-005	-2.55677E-005	0.00000E+000	5.34840E-005	0.00000E+000	9	...........	1425.87
	41	3.7	4.74503E-005	-2.53319E-005	0.00000E+000	5.34840E-005	0.00000E+000	9	...........	1425.89
	42	3.8	4.87920E-005	-2.50989E-005	0.00000E+000	5.34840E-005	0.00000E+000	9	...........	1425.95
	43	3.9	4.96831E-005	-2.48740E-005	0.00000E+000	5.34840E-005	0.00000E+000	9	...........	1425.95
	44	4	4.99143E-005	-2.46666E-005	0.00000E+000	5.34840E-005	0.00000E+000	9	...........	1425.95
	45	4.1	4.97882E-005	-2.44778E-005	0.00000E+000	5.34840E-005	0.00000E+000	9	...........	1425.95
	46	4.2	4.91874E-005	-2.42996E-005	0.00000E+000	5.34840E-005	0.00000E+000	9	...........	1425.95
	47	4.3	4.85336E-005	-2.41320E-005	0.00000E+000	5.34840E-005	0.00000E+000	9	...........	1425.95
	48	4.4	4.81642E-005	-2.39680E-005	0.00000E+000	5.34840E-005	0.00000E+000	9	...........	1425.95
	49	4.5	4.89562E-005	-2.37987E-005	0.00000E+000	5.34840E-005	0.00000E+000	9	...........	1425.95
	50	4.6	4.94217E-005	-2.36376E-005	0.00000E+000	5.34840E-005	0.00000E+000	9	...........	1425.95
	51	4.7	4.90333E-005	-2.34978E-005	0.00000E+000	5.34840E-005	0.00000E+000	9	...........	1425.93
	52	4.8	4.84996E-005	-2.33492E-005	0.00000E+000	5.34840E-005	0.00000E+000	9	...........	1425.87
	53	4.9	4.82002E-005	-2.32044E-005	0.00000E+000	5.34840E-005	0.00000E+000	9	...........	1425.87
	54	5	4.82813E-005	-2.30578E-005	0.00000E+000	5.34840E-005	0.00000E+000	9	...........	1425.87
	55	5.1	4.89642E-005	-2.29253E-005	0.00000E+000	5.34840E-005	0.00000E+000	9	...........	1425.87
	56	5.2	4.85647E-005	-2.27740E-005	0.00000E+000	5.34840E-005	0.00000E+000	9	...........	1425.87
	57	5.3	5.02067E-005	-2.26376E-005	0.00000E+000	5.34840E-005	0.00000E+000	9	...........	1425.87
	58	5.4	4.89522E-005	-2.25247E-005	0.00000E+000	5.34840E-005	0.00000E+000	9	...........	1425.87
	59	5.5	4.84395E-005	-2.24068E-005	0.00000E+000	5.34840E-005	0.00000E+000	9	...........	1425.87
	60	5.6	4.88901E-005	-2.23007E-005	0.00000E+000	5.34840E-005	0.00000E+000	9	...........	1425.87
	61	5.7	4.94277E-005	-2.21908E-005	0.00000E+000	5.34840E-005	0.00000E+000	9	...........	1425.91
	62	5.8	4.94087E-005	-2.20849E-005	0.00000E+000	5.34840E-005	0.00000E+000	9	...........	1426.04
	63	5.9	4.95259E-005	-2.19804E-005	0.00000E+000	5.34840E-005	0.00000E+000	9	...........	1426.04
	64	6	4.98663E-005	-2.18731E-005	0.00000E+000	5.34840E-005	0.00000E+000	9	...........	1426.04
	65	6.1	4.92095E-005	-2.17980E-005	0.00000E+000	5.34840E-005	0.00000E+000	9	...........	1426.04
	66	7.1	4.89241E-005	-2.10636E-005	0.00000E+000	5.34840E-005	0.00000E+000	9	...........	1425.87
	67	8.1	4.84595E-005	-2.03633E-005	0.00000E+000	5.34840E-005	0.00000E+000	9	...........	1426.13
	68	9.1	4.84665E-005	-1.97597E-005	0.00000E+000	5.34840E-005	0.00000E+000	9	...........	1426.13
	69	10.1	4.79049E-005	-1.90834E-005	0.00000E+000	5.34840E-005	0.00000E+000	9	...........	1426.13
	70	11.1	4.89491E-005	-1.86437E-005	0.00000E+000	5.34840E-005	0.00000E+000	9	...........	1426.13
	71	12.1	4.81932E-005	-1.82699E-005	0.00000E+000	5.34840E-005	0.00000E+000	9	...........	1426.13
	72	13.1	4.86438E-005	-1.80818E-005	0.00000E+000	5.34840E-005	0.00000E+000	9	...........	1426.13
	73	14.1	4.71049E-005	-1.78677E-005	0.00000E+000	5.34840E-005	0.00000E+000	9	...........	1426.13
	74	15.1	4.76676E-005	-1.76398E-005	0.00000E+000	5.34840E-005	0.00000E+000	9	...........	1426.13
	75	16.1	4.80000E-005	-1.73349E-005	0.00000E+000	5.34840E-005	0.00000E+000	9	...........	1426.13
	76	26.1	4.79559E-005	-1.59263E-005	0.00000E+000	5.34840E-005	0.00000E+000	9	...........	1426.13
	77	36.1	4.70418E-005	-1.55426E-005	0.00000E+000	5.34840E-005	0.00000E+000	9	...........	1426.13
	78	46.1	5.02287E-005	-1.54038E-005	0.00000E+000	5.34840E-005	0.00000E+000	9	...........	1426.13
	79	56.1	4.75855E-005	-1.52686E-005	0.00000E+000	5.34840E-005	0.00000E+000	9	...........	1426.13
	80	66.1	4.86147E-005	-1.50933E-005	0.00000E+000	5.34840E-005	0.00000E+000	9	...........	1426.13
	81	76.1	4.79850E-005	-1.51260E-005	0.00000E+000	5.34840E-005	0.00000E+000	9	...........	1426.13
	82	86.1	4.74563E-005	-1.51595E-005	0.00000E+000	5.34840E-005	0.00000E+000	9	...........	1426.13
	83	96.1	4.73722E-005	-1.52973E-005	0.00000E+000	5.34840E-005	0.00000E+000	9	...........	1426.13
	84	106.1	4.71149E-005	-1.54036E-005	0.00000E+000	5.34840E-005	0.00000E+000	9	...........	1426.13
	85	116.1	4.90282E-005	-1.54214E-005	0.00000E+000	5.34840E-005	0.00000E+000	9	...........	1426.13
	86	216.1	4.84135E-005	-1.51729E-005	0.00000E+000	5.34840E-005	0.00000E+000	9	...........	1426.13
	87	300	4.70258E-005	-1.51549E-005	0.00000E+000	5.34840E-005	0.00000E+000	9	...........	1426.22
	88	300.1	-3.29270E-002	-4.28701E-004	0.00000E+000	-9.99460E-002	0.00000E+000	9	.........v.	1426.22
	89	300.2	-9.99756E-002	-3.54694E-004	0.00000E+000	-9.99460E-002	0.00000E+000	9	...........	1426.22
	90	300.3	-9.99765E-002	-3.02581E-004	0.00000E+000	-9.99460E-002	0.00000E+000	9	...........	1426.22
	91	300.4	-9.99753E-002	-2.63157E-004	0.00000E+000	-9.99460E-002	0.00000E+000	9	...........	1426.22
	92	300.5	-9.99771E-002	-2.31966E-004	0.00000E+000	-9.99460E-002	0.00000E+000	9	...........	1426.22
	93	300.6	-9.99768E-002	-2.06518E-004	0.00000E+000	-9.99460E-002	0.00000E+000	9	...........	1426.22
	94	300.7	-9.99762E-002	-1.85314E-004	0.00000E+000	-9.99460E-002	0.00000E+000	9	...........	1426.22
	95	300.8	-9.99752E-002	-1.67423E-004	0.00000E+000	-9.99460E-002	0.00000E+000	9	...........	1426.22
	96	300.9	-9.99763E-002	-1.52137E-004	0.00000E+000	-9.99460E-002	0.00000E+000	9	...........	1426.22
	97	301	-9.99772E-002	-1.38982E-004	0.00000E+000	-9.99460E-002	0.00000E+000	9	...........	1426.22
