EXPLAIN
TAG	CHRONOA
TITLE	LABEL	Chronoamperometry Scan	Test Identifier
DATE	LABEL	21/2/2022	Date
TIME	LABEL	13:23:41	Time
NOTES	NOTES	1	Notes...
	
PSTAT	PSTAT	IFC1010-21051	Potentiostat
VPRESTEP	POTEN	3.00000E-001	F	Pre-step Voltage (V)
TPRESTEP	QUANT	5.00000E-001	Pre-step Delay Time (s)
VSTEP1	POTEN	4.00000E-001	F	Step 1 Voltage (V)
TSTEP1	QUANT	3.00000E+002	Step 1 Time (s)
VSTEP2	POTEN	3.00000E-001	F	Step 2 Voltage (V)
TSTEP2	QUANT	1.00000E+000	Step 2 Time (s)
SAMPLETIME	QUANT	1.00000E-001	Sample Period (s)
DECIMATE	TOGGLE	T	Decimate
ILIMIT	QUANT	1.00000E+000	Limit I (mA/cm^2)
IMODE	SELECTOR	1	I/E Range Mode
IRANGE	QUANT	3.00000E-001	Max Current (mA)
EQDELAY	QUANT	5.00000E+000	Equil. Time (s)
SAMPLINGMODE	SELECTOR	1	Sampling Mode
AREA	QUANT	1.00000E+000	Sample Area (cm^2)
IRCOMP	SELECTOR	0	IRComp
PFCOR	QUANT	5.00000E+001	PF Corr. (ohm)
SEQUENCER	TOGGLE	TRUE	Run as Sequence
PSTATMODEL	IQUANT	64	Pstat Model
PSTATSECTION	LABEL	IFC1010-21051	Pstat Section
PSTATSERIALNO	LABEL	21051	Pstat Serial Number
CTRLMODE	IQUANT	1	Control Mode
ELECTROMETER	IQUANT	0	RE=0 or CS=1
IESTAB	IQUANT	0	I/E Stability
CASPEED	IQUANT	4	Control Amp Speed
CONVENTION	IQUANT	1	Current Convention
ICHRANGE	IQUANT	2	Ich Range
ICHRANGEMODE	TOGGLE	T	Ich Auto Range
ICHOFFSETENABLE	TOGGLE	F	Ich Offset Enable
ICHOFFSET	QUANT	0	Ich Offset (V)
ICHFILTER	IQUANT	3	Ich Filter
VCHRANGE	IQUANT	3	Vch Range
VCHRANGEMODE	TOGGLE	T	Vch Auto Range
VCHOFFSETENABLE	TOGGLE	F	Vch Offset Enable
VCHOFFSET	QUANT	0	Vch Offset (V)
VCHFILTER	IQUANT	3	Vch Filter
IERANGELOWERLIMIT	IQUANT	4	I/E Range Lower Limit
IERANGEMODE	TOGGLE	F	I/E AutoRange
IERANGE	IQUANT	9	I/E Range
ACHSELECT	IQUANT	0	Ach Select
ACHRANGE	IQUANT	2	Ach Range
ACHOFFSETENABLE	TOGGLE	F	Ach Offset Enable
ACHOFFSET	QUANT	0	Ach Offset (V)
ACHFILTER	IQUANT	1	Ach Filter
SENSECABLEID	IQUANT	14	Sense Cable ID
PWRCABLEID	IQUANT	14	Power Cable ID
DCCALDATE	LABEL	1/24/2022	DC Calibration Date
ACCALDATE	LABEL	4/2/2018	AC Calibration Date
FRAMEWORKVERSION	QUANT	7.06	Framework Version
INSTRUMENTVERSION	LABEL	4.30	Instrument Version
CURVE	TABLE	98
	Pt	T	Vf	Im	Vu	Sig	Ach	IERange	Over	Temp
	#	s	V vs. Ref.	A	V	V	V	#	bits	deg C
	0	-0.4	2.99560E-001	9.47202E-006	0.00000E+000	3.00072E-001	0.00000E+000	9	...........	1426.22
	1	-0.3	3.00295E-001	9.39287E-006	0.00000E+000	3.00072E-001	0.00000E+000	9	...........	1426.22
	2	-0.2	3.00296E-001	9.30612E-006	0.00000E+000	3.00072E-001	0.00000E+000	9	...........	1426.22
	3	-0.1	3.00298E-001	9.19821E-006	0.00000E+000	3.00072E-001	0.00000E+000	9	...........	1426.22
	4	0	3.00301E-001	9.10414E-006	0.00000E+000	3.00072E-001	0.00000E+000	9	...........	1426.22
	5	0.1	4.00354E-001	4.90591E-004	0.00000E+000	4.00072E-001	0.00000E+000	9	...........	1426.22
	6	0.2	4.00349E-001	4.17016E-004	0.00000E+000	4.00072E-001	0.00000E+000	9	...........	1426.22
	7	0.3	4.00336E-001	3.66595E-004	0.00000E+000	4.00072E-001	0.00000E+000	9	...........	1426.22
	8	0.4	4.00342E-001	3.29688E-004	0.00000E+000	4.00072E-001	0.00000E+000	9	...........	1426.22
	9	0.5	4.00360E-001	3.01585E-004	0.00000E+000	4.00072E-001	0.00000E+000	9	...........	1426.22
	10	0.6	4.00343E-001	2.79366E-004	0.00000E+000	4.00072E-001	0.00000E+000	9	...........	1426.22
	11	0.7	4.00352E-001	2.61181E-004	0.00000E+000	4.00072E-001	0.00000E+000	9	...........	1426.22
	12	0.8	4.00346E-001	2.45943E-004	0.00000E+000	4.00072E-001	0.00000E+000	9	...........	1426.22
	13	0.9	4.00348E-001	2.32792E-004	0.00000E+000	4.00072E-001	0.00000E+000	9	...........	1426.22
	14	1	4.00358E-001	2.21309E-004	0.00000E+000	4.00072E-001	0.00000E+000	9	...........	1426.22
	15	1.1	4.00358E-001	2.11087E-004	0.00000E+000	4.00072E-001	0.00000E+000	9	...........	1426.22
	16	1.2	4.00346E-001	2.01978E-004	0.00000E+000	4.00072E-001	0.00000E+000	9	...........	1426.22
	17	1.3	4.00353E-001	1.93728E-004	0.00000E+000	4.00072E-001	0.00000E+000	9	...........	1426.22
	18	1.4	4.00331E-001	1.86333E-004	0.00000E+000	4.00072E-001	0.00000E+000	9	...........	1426.22
	19	1.5	4.00354E-001	1.79719E-004	0.00000E+000	4.00072E-001	0.00000E+000	9	...........	1426.22
	20	1.6	4.00352E-001	1.73670E-004	0.00000E+000	4.00072E-001	0.00000E+000	9	...........	1426.22
	21	1.7	4.00340E-001	1.68172E-004	0.00000E+000	4.00072E-001	0.00000E+000	9	...........	1426.22
	22	1.8	4.00344E-001	1.63161E-004	0.00000E+000	4.00072E-001	0.00000E+000	9	...........	1426.22
	23	1.9	4.00343E-001	1.58536E-004	0.00000E+000	4.00072E-001	0.00000E+000	9	...........	1426.22
	24	2	4.00356E-001	1.54245E-004	0.00000E+000	4.00072E-001	0.00000E+000	9	...........	1426.22
	25	2.1	4.00342E-001	1.50249E-004	0.00000E+000	4.00072E-001	0.00000E+000	9	...........	1426.22
	26	2.2	4.00339E-001	1.46567E-004	0.00000E+000	4.00072E-001	0.00000E+000	9	...........	1426.22
	27	2.3	4.00334E-001	1.43089E-004	0.00000E+000	4.00072E-001	0.00000E+000	9	...........	1426.13
	28	2.4	4.00335E-001	1.39834E-004	0.00000E+000	4.00072E-001	0.00000E+000	9	...........	1426.13
	29	2.5	4.00327E-001	1.36795E-004	0.00000E+000	4.00072E-001	0.00000E+000	9	...........	1426.13
	30	2.6	4.00332E-001	1.33912E-004	0.00000E+000	4.00072E-001	0.00000E+000	9	...........	1426.13
	31	2.7	4.00339E-001	1.31229E-004	0.00000E+000	4.00072E-001	0.00000E+000	9	...........	1426.13
	32	2.8	4.00356E-001	1.28646E-004	0.00000E+000	4.00072E-001	0.00000E+000	9	...........	1426.13
	33	2.9	4.00352E-001	1.26177E-004	0.00000E+000	4.00072E-001	0.00000E+000	9	...........	1426.13
	34	3	4.00354E-001	1.23872E-004	0.00000E+000	4.00072E-001	0.00000E+000	9	...........	1426.13
	35	3.1	4.00359E-001	1.21623E-004	0.00000E+000	4.00072E-001	0.00000E+000	9	...........	1426.13
	36	3.2	4.00359E-001	1.19437E-004	0.00000E+000	4.00072E-001	0.00000E+000	9	...........	1426.13
	37	3.3	4.00361E-001	1.17398E-004	0.00000E+000	4.00072E-001	0.00000E+000	9	...........	1426.13
	38	3.4	4.00349E-001	1.15457E-004	0.00000E+000	4.00072E-001	0.00000E+000	9	...........	1426.13
	39	3.5	4.00357E-001	1.13566E-004	0.00000E+000	4.00072E-001	0.00000E+000	9	...........	1426.13
	40	3.6	4.00361E-001	1.11775E-004	0.00000E+000	4.00072E-001	0.00000E+000	9	...........	1426.13
	41	3.7	4.00345E-001	1.10062E-004	0.00000E+000	4.00072E-001	0.00000E+000	9	...........	1426.13
	42	3.8	4.00353E-001	1.08388E-004	0.00000E+000	4.00072E-001	0.00000E+000	9	...........	1426.13
	43	3.9	4.00338E-001	1.06809E-004	0.00000E+000	4.00072E-001	0.00000E+000	9	...........	1426.13
	44	4	4.00347E-001	1.05218E-004	0.00000E+000	4.00072E-001	0.00000E+000	9	...........	1426.13
	45	4.1	4.00354E-001	1.03810E-004	0.00000E+000	4.00072E-001	0.00000E+000	9	...........	1426.13
	46	4.2	4.00358E-001	1.02356E-004	0.00000E+000	4.00072E-001	0.00000E+000	9	...........	1426.13
	47	4.3	4.00348E-001	1.00952E-004	0.00000E+000	4.00072E-001	0.00000E+000	9	...........	1426.13
	48	4.4	4.00357E-001	9.96044E-005	0.00000E+000	4.00072E-001	0.00000E+000	9	...........	1426.13
	49	4.5	4.00347E-001	9.82587E-005	0.00000E+000	4.00072E-001	0.00000E+000	9	...........	1426.13
	50	4.6	4.00349E-001	9.69517E-005	0.00000E+000	4.00072E-001	0.00000E+000	9	...........	1426.13
	51	4.7	4.00348E-001	9.57743E-005	0.00000E+000	4.00072E-001	0.00000E+000	9	...........	1426.13
	52	4.8	4.00350E-001	9.46085E-005	0.00000E+000	4.00072E-001	0.00000E+000	9	...........	1426.13
	53	4.9	4.00351E-001	9.34498E-005	0.00000E+000	4.00072E-001	0.00000E+000	9	...........	1426.13
	54	5	4.00356E-001	9.23170E-005	0.00000E+000	4.00072E-001	0.00000E+000	9	...........	1426.13
	55	5.1	4.00351E-001	9.12233E-005	0.00000E+000	4.00072E-001	0.00000E+000	9	...........	1426.13
	56	5.2	4.00355E-001	9.02107E-005	0.00000E+000	4.00072E-001	0.00000E+000	9	...........	1426.13
	57	5.3	4.00363E-001	8.91409E-005	0.00000E+000	4.00072E-001	0.00000E+000	9	...........	1425.60
	58	5.4	4.00350E-001	8.81452E-005	0.00000E+000	4.00072E-001	0.00000E+000	9	...........	1425.60
	59	5.5	4.00351E-001	8.71831E-005	0.00000E+000	4.00072E-001	0.00000E+000	9	...........	1425.60
	60	5.6	4.00348E-001	8.62511E-005	0.00000E+000	4.00072E-001	0.00000E+000	9	...........	1425.60
	61	5.7	4.00349E-001	8.53566E-005	0.00000E+000	4.00072E-001	0.00000E+000	9	...........	1425.60
	62	5.8	4.00349E-001	8.44481E-005	0.00000E+000	4.00072E-001	0.00000E+000	9	...........	1425.60
	63	5.9	4.00346E-001	8.35816E-005	0.00000E+000	4.00072E-001	0.00000E+000	9	...........	1425.60
	64	6	4.00365E-001	8.26633E-005	0.00000E+000	4.00072E-001	0.00000E+000	9	...........	1425.60
	65	6.1	4.00335E-001	8.18746E-005	0.00000E+000	4.00072E-001	0.00000E+000	9	...........	1425.60
	66	7.1	4.00338E-001	7.45900E-005	0.00000E+000	4.00072E-001	0.00000E+000	9	...........	1425.78
	67	8.1	4.00353E-001	6.86663E-005	0.00000E+000	4.00072E-001	0.00000E+000	9	...........	1426.13
	68	9.1	4.00351E-001	6.37552E-005	0.00000E+000	4.00072E-001	0.00000E+000	9	...........	1426.13
	69	10.1	4.00353E-001	5.96909E-005	0.00000E+000	4.00072E-001	0.00000E+000	9	...........	1426.22
	70	11.1	4.00359E-001	5.61955E-005	0.00000E+000	4.00072E-001	0.00000E+000	9	...........	1426.22
	71	12.1	4.00352E-001	5.32072E-005	0.00000E+000	4.00072E-001	0.00000E+000	9	...........	1426.22
	72	13.1	4.00359E-001	5.06293E-005	0.00000E+000	4.00072E-001	0.00000E+000	9	...........	1426.22
	73	14.1	4.00345E-001	4.83700E-005	0.00000E+000	4.00072E-001	0.00000E+000	9	...........	1426.22
	74	15.1	4.00352E-001	4.62708E-005	0.00000E+000	4.00072E-001	0.00000E+000	9	...........	1426.22
	75	16.1	4.00341E-001	4.44437E-005	0.00000E+000	4.00072E-001	0.00000E+000	9	...........	1426.22
	76	26.1	4.00355E-001	3.26555E-005	0.00000E+000	4.00072E-001	0.00000E+000	9	...........	1426.22
	77	36.1	4.00355E-001	2.76439E-005	0.00000E+000	4.00072E-001	0.00000E+000	9	...........	1426.22
	78	46.1	4.00343E-001	2.48416E-005	0.00000E+000	4.00072E-001	0.00000E+000	9	...........	1426.22
	79	56.1	4.00364E-001	2.30100E-005	0.00000E+000	4.00072E-001	0.00000E+000	9	...........	1426.22
	80	66.1	4.00352E-001	2.17456E-005	0.00000E+000	4.00072E-001	0.00000E+000	9	...........	1426.22
	81	76.1	4.00351E-001	2.07757E-005	0.00000E+000	4.00072E-001	0.00000E+000	9	...........	1426.22
	82	86.1	4.00353E-001	2.03868E-005	0.00000E+000	4.00072E-001	0.00000E+000	9	...........	1426.22
	83	96.1	4.00360E-001	1.97548E-005	0.00000E+000	4.00072E-001	0.00000E+000	9	...........	1426.22
	84	106.1	4.00359E-001	1.94487E-005	0.00000E+000	4.00072E-001	0.00000E+000	9	...........	1426.22
	85	116.1	4.00348E-001	1.93337E-005	0.00000E+000	4.00072E-001	0.00000E+000	9	...........	1426.22
	86	216.1	4.00352E-001	1.84127E-005	0.00000E+000	4.00072E-001	0.00000E+000	9	...........	1426.22
	87	300	4.00361E-001	1.81392E-005	0.00000E+000	4.00072E-001	0.00000E+000	9	...........	1426.13
	88	300.1	3.00302E-001	-4.43427E-004	0.00000E+000	3.00072E-001	0.00000E+000	9	...........	1426.13
	89	300.2	3.00304E-001	-3.82671E-004	0.00000E+000	3.00072E-001	0.00000E+000	9	...........	1426.13
	90	300.3	3.00304E-001	-3.34668E-004	0.00000E+000	3.00072E-001	0.00000E+000	9	...........	1426.22
	91	300.4	3.00307E-001	-2.94729E-004	0.00000E+000	3.00072E-001	0.00000E+000	9	...........	1426.22
	92	300.5	3.00307E-001	-2.60973E-004	0.00000E+000	3.00072E-001	0.00000E+000	9	...........	1426.22
	93	300.6	3.00309E-001	-2.32306E-004	0.00000E+000	3.00072E-001	0.00000E+000	9	...........	1426.22
	94	300.7	3.00303E-001	-2.07973E-004	0.00000E+000	3.00072E-001	0.00000E+000	9	...........	1426.22
	95	300.8	3.00306E-001	-1.87447E-004	0.00000E+000	3.00072E-001	0.00000E+000	9	...........	1426.22
	96	300.9	3.00306E-001	-1.70315E-004	0.00000E+000	3.00072E-001	0.00000E+000	9	...........	1426.22
	97	301	3.00308E-001	-1.55923E-004	0.00000E+000	3.00072E-001	0.00000E+000	9	...........	1426.22
