EXPLAIN
TAG	CHRONOA
TITLE	LABEL	Chronoamperometry Scan	Test Identifier
DATE	LABEL	21/2/2022	Date
TIME	LABEL	14:42:53	Time
NOTES	NOTES	1	Notes...
	
PSTAT	PSTAT	IFC1010-21051	Potentiostat
VPRESTEP	POTEN	3.00000E-001	F	Pre-step Voltage (V)
TPRESTEP	QUANT	5.00000E-001	Pre-step Delay Time (s)
VSTEP1	POTEN	4.00000E-001	F	Step 1 Voltage (V)
TSTEP1	QUANT	3.00000E+002	Step 1 Time (s)
VSTEP2	POTEN	3.00000E-001	F	Step 2 Voltage (V)
TSTEP2	QUANT	1.00000E+000	Step 2 Time (s)
SAMPLETIME	QUANT	1.00000E-001	Sample Period (s)
DECIMATE	TOGGLE	T	Decimate
ILIMIT	QUANT	1.00000E+000	Limit I (mA/cm^2)
IMODE	SELECTOR	1	I/E Range Mode
IRANGE	QUANT	3.00000E-001	Max Current (mA)
EQDELAY	QUANT	5.00000E+000	Equil. Time (s)
SAMPLINGMODE	SELECTOR	1	Sampling Mode
AREA	QUANT	1.00000E+000	Sample Area (cm^2)
IRCOMP	SELECTOR	0	IRComp
PFCOR	QUANT	5.00000E+001	PF Corr. (ohm)
SEQUENCER	TOGGLE	TRUE	Run as Sequence
PSTATMODEL	IQUANT	64	Pstat Model
PSTATSECTION	LABEL	IFC1010-21051	Pstat Section
PSTATSERIALNO	LABEL	21051	Pstat Serial Number
CTRLMODE	IQUANT	1	Control Mode
ELECTROMETER	IQUANT	0	RE=0 or CS=1
IESTAB	IQUANT	0	I/E Stability
CASPEED	IQUANT	4	Control Amp Speed
CONVENTION	IQUANT	1	Current Convention
ICHRANGE	IQUANT	2	Ich Range
ICHRANGEMODE	TOGGLE	T	Ich Auto Range
ICHOFFSETENABLE	TOGGLE	F	Ich Offset Enable
ICHOFFSET	QUANT	0	Ich Offset (V)
ICHFILTER	IQUANT	3	Ich Filter
VCHRANGE	IQUANT	3	Vch Range
VCHRANGEMODE	TOGGLE	T	Vch Auto Range
VCHOFFSETENABLE	TOGGLE	F	Vch Offset Enable
VCHOFFSET	QUANT	0	Vch Offset (V)
VCHFILTER	IQUANT	3	Vch Filter
IERANGELOWERLIMIT	IQUANT	4	I/E Range Lower Limit
IERANGEMODE	TOGGLE	F	I/E AutoRange
IERANGE	IQUANT	9	I/E Range
ACHSELECT	IQUANT	0	Ach Select
ACHRANGE	IQUANT	2	Ach Range
ACHOFFSETENABLE	TOGGLE	F	Ach Offset Enable
ACHOFFSET	QUANT	0	Ach Offset (V)
ACHFILTER	IQUANT	1	Ach Filter
SENSECABLEID	IQUANT	14	Sense Cable ID
PWRCABLEID	IQUANT	14	Power Cable ID
DCCALDATE	LABEL	1/24/2022	DC Calibration Date
ACCALDATE	LABEL	4/2/2018	AC Calibration Date
FRAMEWORKVERSION	QUANT	7.06	Framework Version
INSTRUMENTVERSION	LABEL	4.30	Instrument Version
CURVE	TABLE	98
	Pt	T	Vf	Im	Vu	Sig	Ach	IERange	Over	Temp
	#	s	V vs. Ref.	A	V	V	V	#	bits	deg C
	0	-0.4	2.99575E-001	1.05102E-005	0.00000E+000	3.00072E-001	0.00000E+000	9	...........	1426.31
	1	-0.3	3.00288E-001	1.04598E-005	0.00000E+000	3.00072E-001	0.00000E+000	9	...........	1426.31
	2	-0.2	3.00301E-001	1.03837E-005	0.00000E+000	3.00072E-001	0.00000E+000	9	...........	1426.31
	3	-0.1	3.00296E-001	1.02945E-005	0.00000E+000	3.00072E-001	0.00000E+000	9	...........	1426.31
	4	0	3.00303E-001	1.02433E-005	0.00000E+000	3.00072E-001	0.00000E+000	9	...........	1426.31
	5	0.1	4.00358E-001	4.84217E-004	0.00000E+000	4.00072E-001	0.00000E+000	9	...........	1426.31
	6	0.2	4.00337E-001	4.10071E-004	0.00000E+000	4.00072E-001	0.00000E+000	9	...........	1426.31
	7	0.3	4.00349E-001	3.62806E-004	0.00000E+000	4.00072E-001	0.00000E+000	9	...........	1426.31
	8	0.4	4.00356E-001	3.29164E-004	0.00000E+000	4.00072E-001	0.00000E+000	9	...........	1426.31
	9	0.5	4.00334E-001	3.03531E-004	0.00000E+000	4.00072E-001	0.00000E+000	9	...........	1426.31
	10	0.6	4.00350E-001	2.83141E-004	0.00000E+000	4.00072E-001	0.00000E+000	9	...........	1426.31
	11	0.7	4.00352E-001	2.66336E-004	0.00000E+000	4.00072E-001	0.00000E+000	9	...........	1426.31
	12	0.8	4.00351E-001	2.52100E-004	0.00000E+000	4.00072E-001	0.00000E+000	9	...........	1426.31
	13	0.9	4.00362E-001	2.39795E-004	0.00000E+000	4.00072E-001	0.00000E+000	9	...........	1426.31
	14	1	4.00346E-001	2.29175E-004	0.00000E+000	4.00072E-001	0.00000E+000	9	...........	1426.31
	15	1.1	4.00352E-001	2.19785E-004	0.00000E+000	4.00072E-001	0.00000E+000	9	...........	1426.31
	16	1.2	4.00352E-001	2.11400E-004	0.00000E+000	4.00072E-001	0.00000E+000	9	...........	1426.31
	17	1.3	4.00355E-001	2.03898E-004	0.00000E+000	4.00072E-001	0.00000E+000	9	...........	1426.31
	18	1.4	4.00358E-001	1.97143E-004	0.00000E+000	4.00072E-001	0.00000E+000	9	...........	1426.31
	19	1.5	4.00355E-001	1.90936E-004	0.00000E+000	4.00072E-001	0.00000E+000	9	...........	1426.31
	20	1.6	4.00360E-001	1.85337E-004	0.00000E+000	4.00072E-001	0.00000E+000	9	...........	1426.31
	21	1.7	4.00349E-001	1.80151E-004	0.00000E+000	4.00072E-001	0.00000E+000	9	...........	1426.31
	22	1.8	4.00361E-001	1.75348E-004	0.00000E+000	4.00072E-001	0.00000E+000	9	...........	1426.31
	23	1.9	4.00357E-001	1.70845E-004	0.00000E+000	4.00072E-001	0.00000E+000	9	...........	1426.04
	24	2	4.00336E-001	1.66641E-004	0.00000E+000	4.00072E-001	0.00000E+000	9	...........	1426.04
	25	2.1	4.00349E-001	1.62782E-004	0.00000E+000	4.00072E-001	0.00000E+000	9	...........	1426.04
	26	2.2	4.00345E-001	1.59079E-004	0.00000E+000	4.00072E-001	0.00000E+000	9	...........	1426.04
	27	2.3	4.00366E-001	1.55616E-004	0.00000E+000	4.00072E-001	0.00000E+000	9	...........	1426.04
	28	2.4	4.00346E-001	1.52358E-004	0.00000E+000	4.00072E-001	0.00000E+000	9	...........	1426.04
	29	2.5	4.00335E-001	1.49226E-004	0.00000E+000	4.00072E-001	0.00000E+000	9	...........	1426.04
	30	2.6	4.00350E-001	1.46270E-004	0.00000E+000	4.00072E-001	0.00000E+000	9	...........	1426.04
	31	2.7	4.00347E-001	1.43495E-004	0.00000E+000	4.00072E-001	0.00000E+000	9	...........	1426.04
	32	2.8	4.00372E-001	1.40769E-004	0.00000E+000	4.00072E-001	0.00000E+000	9	...........	1426.04
	33	2.9	4.00351E-001	1.38236E-004	0.00000E+000	4.00072E-001	0.00000E+000	9	...........	1426.22
	34	3	4.00351E-001	1.35844E-004	0.00000E+000	4.00072E-001	0.00000E+000	9	...........	1426.22
	35	3.1	4.00359E-001	1.33444E-004	0.00000E+000	4.00072E-001	0.00000E+000	9	...........	1426.22
	36	3.2	4.00353E-001	1.31236E-004	0.00000E+000	4.00072E-001	0.00000E+000	9	...........	1426.22
	37	3.3	4.00355E-001	1.29084E-004	0.00000E+000	4.00072E-001	0.00000E+000	9	...........	1426.22
	38	3.4	4.00346E-001	1.27045E-004	0.00000E+000	4.00072E-001	0.00000E+000	9	...........	1426.22
	39	3.5	4.00359E-001	1.25050E-004	0.00000E+000	4.00072E-001	0.00000E+000	9	...........	1426.22
	40	3.6	4.00367E-001	1.23100E-004	0.00000E+000	4.00072E-001	0.00000E+000	9	...........	1426.22
	41	3.7	4.00367E-001	1.21246E-004	0.00000E+000	4.00072E-001	0.00000E+000	9	...........	1426.22
	42	3.8	4.00343E-001	1.19454E-004	0.00000E+000	4.00072E-001	0.00000E+000	9	...........	1426.22
	43	3.9	4.00352E-001	1.17710E-004	0.00000E+000	4.00072E-001	0.00000E+000	9	...........	1426.22
	44	4	4.00367E-001	1.16009E-004	0.00000E+000	4.00072E-001	0.00000E+000	9	...........	1426.22
	45	4.1	4.00354E-001	1.14396E-004	0.00000E+000	4.00072E-001	0.00000E+000	9	...........	1426.22
	46	4.2	4.00351E-001	1.12782E-004	0.00000E+000	4.00072E-001	0.00000E+000	9	...........	1426.22
	47	4.3	4.00331E-001	1.11299E-004	0.00000E+000	4.00072E-001	0.00000E+000	9	...........	1426.22
	48	4.4	4.00336E-001	1.09816E-004	0.00000E+000	4.00072E-001	0.00000E+000	9	...........	1426.22
	49	4.5	4.00354E-001	1.08344E-004	0.00000E+000	4.00072E-001	0.00000E+000	9	...........	1426.22
	50	4.6	4.00355E-001	1.06964E-004	0.00000E+000	4.00072E-001	0.00000E+000	9	...........	1426.22
	51	4.7	4.00366E-001	1.05561E-004	0.00000E+000	4.00072E-001	0.00000E+000	9	...........	1426.22
	52	4.8	4.00348E-001	1.04282E-004	0.00000E+000	4.00072E-001	0.00000E+000	9	...........	1426.22
	53	4.9	4.00351E-001	1.02996E-004	0.00000E+000	4.00072E-001	0.00000E+000	9	...........	1426.22
	54	5	4.00351E-001	1.01747E-004	0.00000E+000	4.00072E-001	0.00000E+000	9	...........	1426.22
	55	5.1	4.00358E-001	1.00520E-004	0.00000E+000	4.00072E-001	0.00000E+000	9	...........	1426.22
	56	5.2	4.00360E-001	9.93308E-005	0.00000E+000	4.00072E-001	0.00000E+000	9	...........	1426.22
	57	5.3	4.00353E-001	9.81723E-005	0.00000E+000	4.00072E-001	0.00000E+000	9	...........	1426.22
	58	5.4	4.00347E-001	9.70968E-005	0.00000E+000	4.00072E-001	0.00000E+000	9	...........	1426.22
	59	5.5	4.00339E-001	9.59840E-005	0.00000E+000	4.00072E-001	0.00000E+000	9	...........	1426.22
	60	5.6	4.00352E-001	9.49568E-005	0.00000E+000	4.00072E-001	0.00000E+000	9	...........	1426.22
	61	5.7	4.00346E-001	9.38930E-005	0.00000E+000	4.00072E-001	0.00000E+000	9	...........	1426.22
	62	5.8	4.00346E-001	9.29076E-005	0.00000E+000	4.00072E-001	0.00000E+000	9	...........	1426.22
	63	5.9	4.00352E-001	9.19511E-005	0.00000E+000	4.00072E-001	0.00000E+000	9	...........	1426.22
	64	6	4.00354E-001	9.09810E-005	0.00000E+000	4.00072E-001	0.00000E+000	9	...........	1426.22
	65	6.1	4.00349E-001	9.00052E-005	0.00000E+000	4.00072E-001	0.00000E+000	9	...........	1426.22
	66	7.1	4.00354E-001	8.17475E-005	0.00000E+000	4.00072E-001	0.00000E+000	9	...........	1426.31
	67	8.1	4.00363E-001	7.50476E-005	0.00000E+000	4.00072E-001	0.00000E+000	9	...........	1426.31
	68	9.1	4.00344E-001	6.94386E-005	0.00000E+000	4.00072E-001	0.00000E+000	9	...........	1426.31
	69	10.1	4.00355E-001	6.47245E-005	0.00000E+000	4.00072E-001	0.00000E+000	9	...........	1426.31
	70	11.1	4.00344E-001	6.06690E-005	0.00000E+000	4.00072E-001	0.00000E+000	9	...........	1426.31
	71	12.1	4.00353E-001	5.70791E-005	0.00000E+000	4.00072E-001	0.00000E+000	9	...........	1426.31
	72	13.1	4.00348E-001	5.39668E-005	0.00000E+000	4.00072E-001	0.00000E+000	9	...........	1426.31
	73	14.1	4.00349E-001	5.11610E-005	0.00000E+000	4.00072E-001	0.00000E+000	9	...........	1426.31
	74	15.1	4.00360E-001	4.87093E-005	0.00000E+000	4.00072E-001	0.00000E+000	9	...........	1426.31
	75	16.1	4.00357E-001	4.64582E-005	0.00000E+000	4.00072E-001	0.00000E+000	9	...........	1426.31
	76	26.1	4.00348E-001	3.39800E-005	0.00000E+000	4.00072E-001	0.00000E+000	9	...........	1426.31
	77	36.1	4.00352E-001	2.82464E-005	0.00000E+000	4.00072E-001	0.00000E+000	9	...........	1426.31
	78	46.1	4.00354E-001	2.53545E-005	0.00000E+000	4.00072E-001	0.00000E+000	9	...........	1426.31
	79	56.1	4.00355E-001	2.34251E-005	0.00000E+000	4.00072E-001	0.00000E+000	9	...........	1426.31
	80	66.1	4.00357E-001	2.19692E-005	0.00000E+000	4.00072E-001	0.00000E+000	9	...........	1426.31
	81	76.1	4.00340E-001	2.09870E-005	0.00000E+000	4.00072E-001	0.00000E+000	9	...........	1426.31
	82	86.1	4.00347E-001	2.03802E-005	0.00000E+000	4.00072E-001	0.00000E+000	9	...........	1426.31
	83	96.1	4.00357E-001	1.99858E-005	0.00000E+000	4.00072E-001	0.00000E+000	9	...........	1426.31
	84	106.1	4.00363E-001	1.95520E-005	0.00000E+000	4.00072E-001	0.00000E+000	9	...........	1426.31
	85	116.1	4.00354E-001	1.90954E-005	0.00000E+000	4.00072E-001	0.00000E+000	9	...........	1426.31
	86	216.1	4.00357E-001	1.78289E-005	0.00000E+000	4.00072E-001	0.00000E+000	9	...........	1426.31
	87	300	4.00356E-001	1.70282E-005	0.00000E+000	4.00072E-001	0.00000E+000	9	...........	1426.31
	88	300.1	3.00310E-001	-4.13940E-004	0.00000E+000	3.00072E-001	0.00000E+000	9	...........	1426.31
	89	300.2	3.00306E-001	-3.36063E-004	0.00000E+000	3.00072E-001	0.00000E+000	9	...........	1426.31
	90	300.3	3.00321E-001	-2.80032E-004	0.00000E+000	3.00072E-001	0.00000E+000	9	...........	1426.31
	91	300.4	3.00299E-001	-2.37363E-004	0.00000E+000	3.00072E-001	0.00000E+000	9	...........	1426.31
	92	300.5	3.00315E-001	-2.04326E-004	0.00000E+000	3.00072E-001	0.00000E+000	9	...........	1426.31
	93	300.6	3.00303E-001	-1.78405E-004	0.00000E+000	3.00072E-001	0.00000E+000	9	...........	1426.31
	94	300.7	3.00307E-001	-1.57931E-004	0.00000E+000	3.00072E-001	0.00000E+000	9	...........	1426.31
	95	300.8	3.00290E-001	-1.41597E-004	0.00000E+000	3.00072E-001	0.00000E+000	9	...........	1426.31
	96	300.9	3.00295E-001	-1.28336E-004	0.00000E+000	3.00072E-001	0.00000E+000	9	...........	1426.31
	97	301	3.00308E-001	-1.17445E-004	0.00000E+000	3.00072E-001	0.00000E+000	9	...........	1426.31
