EXPLAIN
TAG	CHRONOA
TITLE	LABEL	Chronoamperometry Scan	Test Identifier
DATE	LABEL	21/2/2022	Date
TIME	LABEL	17:44:30	Time
NOTES	NOTES	1	Notes...
	
PSTAT	PSTAT	IFC1010-21051	Potentiostat
VPRESTEP	POTEN	-3.00000E-001	F	Pre-step Voltage (V)
TPRESTEP	QUANT	5.00000E-001	Pre-step Delay Time (s)
VSTEP1	POTEN	-4.00000E-001	F	Step 1 Voltage (V)
TSTEP1	QUANT	3.00000E+002	Step 1 Time (s)
VSTEP2	POTEN	-5.00000E-001	F	Step 2 Voltage (V)
TSTEP2	QUANT	1.00000E+000	Step 2 Time (s)
SAMPLETIME	QUANT	1.00000E-001	Sample Period (s)
DECIMATE	TOGGLE	T	Decimate
ILIMIT	QUANT	1.00000E+000	Limit I (mA/cm^2)
IMODE	SELECTOR	1	I/E Range Mode
IRANGE	QUANT	3.00000E-001	Max Current (mA)
EQDELAY	QUANT	5.00000E+000	Equil. Time (s)
SAMPLINGMODE	SELECTOR	1	Sampling Mode
AREA	QUANT	1.00000E+000	Sample Area (cm^2)
IRCOMP	SELECTOR	0	IRComp
PFCOR	QUANT	5.00000E+001	PF Corr. (ohm)
SEQUENCER	TOGGLE	TRUE	Run as Sequence
PSTATMODEL	IQUANT	64	Pstat Model
PSTATSECTION	LABEL	IFC1010-21051	Pstat Section
PSTATSERIALNO	LABEL	21051	Pstat Serial Number
CTRLMODE	IQUANT	1	Control Mode
ELECTROMETER	IQUANT	0	RE=0 or CS=1
IESTAB	IQUANT	0	I/E Stability
CASPEED	IQUANT	4	Control Amp Speed
CONVENTION	IQUANT	1	Current Convention
ICHRANGE	IQUANT	2	Ich Range
ICHRANGEMODE	TOGGLE	T	Ich Auto Range
ICHOFFSETENABLE	TOGGLE	F	Ich Offset Enable
ICHOFFSET	QUANT	0	Ich Offset (V)
ICHFILTER	IQUANT	3	Ich Filter
VCHRANGE	IQUANT	3	Vch Range
VCHRANGEMODE	TOGGLE	T	Vch Auto Range
VCHOFFSETENABLE	TOGGLE	F	Vch Offset Enable
VCHOFFSET	QUANT	0	Vch Offset (V)
VCHFILTER	IQUANT	3	Vch Filter
IERANGELOWERLIMIT	IQUANT	4	I/E Range Lower Limit
IERANGEMODE	TOGGLE	F	I/E AutoRange
IERANGE	IQUANT	9	I/E Range
ACHSELECT	IQUANT	0	Ach Select
ACHRANGE	IQUANT	2	Ach Range
ACHOFFSETENABLE	TOGGLE	F	Ach Offset Enable
ACHOFFSET	QUANT	0	Ach Offset (V)
ACHFILTER	IQUANT	1	Ach Filter
SENSECABLEID	IQUANT	14	Sense Cable ID
PWRCABLEID	IQUANT	14	Power Cable ID
DCCALDATE	LABEL	1/24/2022	DC Calibration Date
ACCALDATE	LABEL	4/2/2018	AC Calibration Date
FRAMEWORKVERSION	QUANT	7.06	Framework Version
INSTRUMENTVERSION	LABEL	4.30	Instrument Version
CURVE	TABLE	98
	Pt	T	Vf	Im	Vu	Sig	Ach	IERange	Over	Temp
	#	s	V vs. Ref.	A	V	V	V	#	bits	deg C
	0	-0.4	-3.01356E-001	-5.00453E-005	0.00000E+000	-3.00011E-001	0.00000E+000	9	...........	1426.40
	1	-0.3	-3.00700E-001	-5.00348E-005	0.00000E+000	-3.00011E-001	0.00000E+000	9	...........	1426.40
	2	-0.2	-3.00711E-001	-4.99224E-005	0.00000E+000	-3.00011E-001	0.00000E+000	9	...........	1426.40
	3	-0.1	-3.00702E-001	-4.98693E-005	0.00000E+000	-3.00011E-001	0.00000E+000	9	...........	1426.40
	4	0	-3.00699E-001	-4.96519E-005	0.00000E+000	-3.00011E-001	0.00000E+000	9	...........	1426.40
	5	0.1	-4.00722E-001	-2.44659E-004	0.00000E+000	-4.00011E-001	0.00000E+000	9	...........	1426.40
	6	0.2	-4.00727E-001	-2.29839E-004	0.00000E+000	-4.00011E-001	0.00000E+000	9	...........	1426.40
	7	0.3	-4.00739E-001	-2.19514E-004	0.00000E+000	-4.00011E-001	0.00000E+000	9	...........	1426.40
	8	0.4	-4.00738E-001	-2.11077E-004	0.00000E+000	-4.00011E-001	0.00000E+000	9	...........	1426.40
	9	0.5	-4.00733E-001	-2.03602E-004	0.00000E+000	-4.00011E-001	0.00000E+000	9	...........	1426.40
	10	0.6	-4.00733E-001	-1.98079E-004	0.00000E+000	-4.00011E-001	0.00000E+000	9	...........	1426.40
	11	0.7	-4.00740E-001	-1.92536E-004	0.00000E+000	-4.00011E-001	0.00000E+000	9	...........	1426.40
	12	0.8	-4.00744E-001	-1.88784E-004	0.00000E+000	-4.00011E-001	0.00000E+000	9	...........	1426.40
	13	0.9	-4.00738E-001	-1.86390E-004	0.00000E+000	-4.00011E-001	0.00000E+000	9	...........	1426.40
	14	1	-4.00729E-001	-1.83851E-004	0.00000E+000	-4.00011E-001	0.00000E+000	9	...........	1426.40
	15	1.1	-4.00734E-001	-1.81322E-004	0.00000E+000	-4.00011E-001	0.00000E+000	9	...........	1426.40
	16	1.2	-4.00735E-001	-1.79426E-004	0.00000E+000	-4.00011E-001	0.00000E+000	9	...........	1426.40
	17	1.3	-4.00728E-001	-1.77337E-004	0.00000E+000	-4.00011E-001	0.00000E+000	9	...........	1426.40
	18	1.4	-4.00737E-001	-1.75187E-004	0.00000E+000	-4.00011E-001	0.00000E+000	9	...........	1426.40
	19	1.5	-4.00743E-001	-1.73840E-004	0.00000E+000	-4.00011E-001	0.00000E+000	9	...........	1426.04
	20	1.6	-4.00737E-001	-1.71792E-004	0.00000E+000	-4.00011E-001	0.00000E+000	9	...........	1426.04
	21	1.7	-4.00744E-001	-1.69712E-004	0.00000E+000	-4.00011E-001	0.00000E+000	9	...........	1426.04
	22	1.8	-4.00735E-001	-1.68051E-004	0.00000E+000	-4.00011E-001	0.00000E+000	9	...........	1426.04
	23	1.9	-4.00745E-001	-1.66497E-004	0.00000E+000	-4.00011E-001	0.00000E+000	9	...........	1426.04
	24	2	-4.00740E-001	-1.64359E-004	0.00000E+000	-4.00011E-001	0.00000E+000	9	...........	1426.04
	25	2.1	-4.00739E-001	-1.62606E-004	0.00000E+000	-4.00011E-001	0.00000E+000	9	...........	1426.04
	26	2.2	-4.00730E-001	-1.60778E-004	0.00000E+000	-4.00011E-001	0.00000E+000	9	...........	1426.04
	27	2.3	-4.00731E-001	-1.59729E-004	0.00000E+000	-4.00011E-001	0.00000E+000	9	...........	1426.04
	28	2.4	-4.00740E-001	-1.58206E-004	0.00000E+000	-4.00011E-001	0.00000E+000	9	...........	1426.04
	29	2.5	-4.00746E-001	-1.57351E-004	0.00000E+000	-4.00011E-001	0.00000E+000	9	...........	1426.40
	30	2.6	-4.00746E-001	-1.56642E-004	0.00000E+000	-4.00011E-001	0.00000E+000	9	...........	1426.40
	31	2.7	-4.00735E-001	-1.55717E-004	0.00000E+000	-4.00011E-001	0.00000E+000	9	...........	1426.40
	32	2.8	-4.00739E-001	-1.54749E-004	0.00000E+000	-4.00011E-001	0.00000E+000	9	...........	1426.40
	33	2.9	-4.00725E-001	-1.53906E-004	0.00000E+000	-4.00011E-001	0.00000E+000	9	...........	1426.40
	34	3	-4.00729E-001	-1.52726E-004	0.00000E+000	-4.00011E-001	0.00000E+000	9	...........	1426.40
	35	3.1	-4.00728E-001	-1.51406E-004	0.00000E+000	-4.00011E-001	0.00000E+000	9	...........	1426.40
	36	3.2	-4.00737E-001	-1.50528E-004	0.00000E+000	-4.00011E-001	0.00000E+000	9	...........	1426.40
	37	3.3	-4.00737E-001	-1.49435E-004	0.00000E+000	-4.00011E-001	0.00000E+000	9	...........	1426.40
	38	3.4	-4.00736E-001	-1.48467E-004	0.00000E+000	-4.00011E-001	0.00000E+000	9	...........	1426.40
	39	3.5	-4.00737E-001	-1.47777E-004	0.00000E+000	-4.00011E-001	0.00000E+000	9	...........	1426.22
	40	3.6	-4.00734E-001	-1.47065E-004	0.00000E+000	-4.00011E-001	0.00000E+000	9	...........	1426.22
	41	3.7	-4.00732E-001	-1.45788E-004	0.00000E+000	-4.00011E-001	0.00000E+000	9	...........	1426.22
	42	3.8	-4.00733E-001	-1.45121E-004	0.00000E+000	-4.00011E-001	0.00000E+000	9	...........	1426.22
	43	3.9	-4.00732E-001	-1.44384E-004	0.00000E+000	-4.00011E-001	0.00000E+000	9	...........	1426.22
	44	4	-4.00727E-001	-1.43780E-004	0.00000E+000	-4.00011E-001	0.00000E+000	9	...........	1426.22
	45	4.1	-4.00745E-001	-1.43236E-004	0.00000E+000	-4.00011E-001	0.00000E+000	9	...........	1426.22
	46	4.2	-4.00740E-001	-1.42727E-004	0.00000E+000	-4.00011E-001	0.00000E+000	9	...........	1426.22
	47	4.3	-4.00725E-001	-1.42302E-004	0.00000E+000	-4.00011E-001	0.00000E+000	9	...........	1426.22
	48	4.4	-4.00732E-001	-1.41322E-004	0.00000E+000	-4.00011E-001	0.00000E+000	9	...........	1426.22
	49	4.5	-4.00728E-001	-1.40861E-004	0.00000E+000	-4.00011E-001	0.00000E+000	9	...........	1425.95
	50	4.6	-4.00730E-001	-1.40370E-004	0.00000E+000	-4.00011E-001	0.00000E+000	9	...........	1425.95
	51	4.7	-4.00750E-001	-1.40025E-004	0.00000E+000	-4.00011E-001	0.00000E+000	9	...........	1425.95
	52	4.8	-4.00748E-001	-1.39615E-004	0.00000E+000	-4.00011E-001	0.00000E+000	9	...........	1425.95
	53	4.9	-4.00742E-001	-1.38900E-004	0.00000E+000	-4.00011E-001	0.00000E+000	9	...........	1425.95
	54	5	-4.00752E-001	-1.38536E-004	0.00000E+000	-4.00011E-001	0.00000E+000	9	...........	1425.95
	55	5.1	-4.00761E-001	-1.37812E-004	0.00000E+000	-4.00011E-001	0.00000E+000	9	...........	1425.95
	56	5.2	-4.00738E-001	-1.37276E-004	0.00000E+000	-4.00011E-001	0.00000E+000	9	...........	1425.95
	57	5.3	-4.00731E-001	-1.36394E-004	0.00000E+000	-4.00011E-001	0.00000E+000	9	...........	1425.95
	58	5.4	-4.00739E-001	-1.35904E-004	0.00000E+000	-4.00011E-001	0.00000E+000	9	...........	1425.95
	59	5.5	-4.00736E-001	-1.35284E-004	0.00000E+000	-4.00011E-001	0.00000E+000	9	...........	1426.40
	60	5.6	-4.00722E-001	-1.34631E-004	0.00000E+000	-4.00011E-001	0.00000E+000	9	...........	1426.40
	61	5.7	-4.00736E-001	-1.34023E-004	0.00000E+000	-4.00011E-001	0.00000E+000	9	...........	1426.40
	62	5.8	-4.00734E-001	-1.33487E-004	0.00000E+000	-4.00011E-001	0.00000E+000	9	...........	1426.40
	63	5.9	-4.00738E-001	-1.33102E-004	0.00000E+000	-4.00011E-001	0.00000E+000	9	...........	1426.40
	64	6	-4.00738E-001	-1.32516E-004	0.00000E+000	-4.00011E-001	0.00000E+000	9	...........	1426.40
	65	6.1	-4.00736E-001	-1.32038E-004	0.00000E+000	-4.00011E-001	0.00000E+000	9	...........	1426.40
	66	7.1	-4.00734E-001	-1.27318E-004	0.00000E+000	-4.00011E-001	0.00000E+000	9	...........	1425.95
	67	8.1	-4.00745E-001	-1.23500E-004	0.00000E+000	-4.00011E-001	0.00000E+000	9	...........	1426.40
	68	9.1	-4.00737E-001	-1.19673E-004	0.00000E+000	-4.00011E-001	0.00000E+000	9	...........	1426.40
	69	10.1	-4.00731E-001	-1.16836E-004	0.00000E+000	-4.00011E-001	0.00000E+000	9	...........	1426.40
	70	11.1	-4.00743E-001	-1.13815E-004	0.00000E+000	-4.00011E-001	0.00000E+000	9	...........	1426.31
	71	12.1	-4.00745E-001	-1.11132E-004	0.00000E+000	-4.00011E-001	0.00000E+000	9	...........	1426.40
	72	13.1	-4.00728E-001	-1.08596E-004	0.00000E+000	-4.00011E-001	0.00000E+000	9	...........	1426.49
	73	14.1	-4.00744E-001	-1.06580E-004	0.00000E+000	-4.00011E-001	0.00000E+000	9	...........	1426.40
	74	15.1	-4.00727E-001	-1.04776E-004	0.00000E+000	-4.00011E-001	0.00000E+000	9	...........	1426.49
	75	16.1	-4.00736E-001	-1.03365E-004	0.00000E+000	-4.00011E-001	0.00000E+000	9	...........	1426.31
	76	26.1	-4.00748E-001	-9.11346E-005	0.00000E+000	-4.00011E-001	0.00000E+000	9	...........	1426.49
	77	36.1	-4.00738E-001	-8.34483E-005	0.00000E+000	-4.00011E-001	0.00000E+000	9	...........	1426.49
	78	46.1	-4.00748E-001	-7.89074E-005	0.00000E+000	-4.00011E-001	0.00000E+000	9	...........	1426.49
	79	56.1	-4.00737E-001	-7.57725E-005	0.00000E+000	-4.00011E-001	0.00000E+000	9	...........	1426.49
	80	66.1	-4.00738E-001	-7.34144E-005	0.00000E+000	-4.00011E-001	0.00000E+000	9	...........	1426.49
	81	76.1	-4.00728E-001	-7.13170E-005	0.00000E+000	-4.00011E-001	0.00000E+000	9	...........	1426.57
	82	86.1	-4.00733E-001	-6.91558E-005	0.00000E+000	-4.00011E-001	0.00000E+000	9	...........	1426.57
	83	96.1	-4.00735E-001	-6.78408E-005	0.00000E+000	-4.00011E-001	0.00000E+000	9	...........	1426.49
	84	106.1	-4.00733E-001	-6.69004E-005	0.00000E+000	-4.00011E-001	0.00000E+000	9	...........	1426.40
	85	116.1	-4.00736E-001	-6.59254E-005	0.00000E+000	-4.00011E-001	0.00000E+000	9	...........	1426.57
	86	216.1	-4.00730E-001	-6.12188E-005	0.00000E+000	-4.00011E-001	0.00000E+000	9	...........	1426.57
	87	300	-4.00740E-001	-5.97058E-005	0.00000E+000	-4.00011E-001	0.00000E+000	9	...........	1426.49
	88	300.1	-5.00740E-001	-3.07803E-004	0.00000E+000	-5.00010E-001	0.00000E+000	9	...........	1426.49
	89	300.2	-5.00749E-001	-2.82265E-004	0.00000E+000	-5.00010E-001	0.00000E+000	9	...........	1426.49
	90	300.3	-5.00760E-001	-2.64338E-004	0.00000E+000	-5.00010E-001	0.00000E+000	9	...........	1426.49
	91	300.4	-5.00757E-001	-2.51391E-004	0.00000E+000	-5.00010E-001	0.00000E+000	9	...........	1426.49
	92	300.5	-5.00749E-001	-2.41856E-004	0.00000E+000	-5.00010E-001	0.00000E+000	9	...........	1426.49
	93	300.6	-5.00742E-001	-2.33979E-004	0.00000E+000	-5.00010E-001	0.00000E+000	9	...........	1426.49
	94	300.7	-5.00745E-001	-2.27688E-004	0.00000E+000	-5.00010E-001	0.00000E+000	9	...........	1426.49
	95	300.8	-5.00738E-001	-2.22074E-004	0.00000E+000	-5.00010E-001	0.00000E+000	9	...........	1426.49
	96	300.9	-5.00741E-001	-2.17175E-004	0.00000E+000	-5.00010E-001	0.00000E+000	9	...........	1426.49
	97	301	-5.00746E-001	-2.13135E-004	0.00000E+000	-5.00010E-001	0.00000E+000	9	...........	1426.49
