EXPLAIN
TAG	CHRONOA
TITLE	LABEL	Chronoamperometry Scan	Test Identifier
DATE	LABEL	21/2/2022	Date
TIME	LABEL	14:54:13	Time
NOTES	NOTES	1	Notes...
	
PSTAT	PSTAT	IFC1010-21051	Potentiostat
VPRESTEP	POTEN	-3.00000E-001	F	Pre-step Voltage (V)
TPRESTEP	QUANT	5.00000E-001	Pre-step Delay Time (s)
VSTEP1	POTEN	-4.00000E-001	F	Step 1 Voltage (V)
TSTEP1	QUANT	3.00000E+002	Step 1 Time (s)
VSTEP2	POTEN	-5.00000E-001	F	Step 2 Voltage (V)
TSTEP2	QUANT	1.00000E+000	Step 2 Time (s)
SAMPLETIME	QUANT	1.00000E-001	Sample Period (s)
DECIMATE	TOGGLE	T	Decimate
ILIMIT	QUANT	1.00000E+000	Limit I (mA/cm^2)
IMODE	SELECTOR	1	I/E Range Mode
IRANGE	QUANT	3.00000E-001	Max Current (mA)
EQDELAY	QUANT	5.00000E+000	Equil. Time (s)
SAMPLINGMODE	SELECTOR	1	Sampling Mode
AREA	QUANT	1.00000E+000	Sample Area (cm^2)
IRCOMP	SELECTOR	0	IRComp
PFCOR	QUANT	5.00000E+001	PF Corr. (ohm)
SEQUENCER	TOGGLE	TRUE	Run as Sequence
PSTATMODEL	IQUANT	64	Pstat Model
PSTATSECTION	LABEL	IFC1010-21051	Pstat Section
PSTATSERIALNO	LABEL	21051	Pstat Serial Number
CTRLMODE	IQUANT	1	Control Mode
ELECTROMETER	IQUANT	0	RE=0 or CS=1
IESTAB	IQUANT	0	I/E Stability
CASPEED	IQUANT	4	Control Amp Speed
CONVENTION	IQUANT	1	Current Convention
ICHRANGE	IQUANT	2	Ich Range
ICHRANGEMODE	TOGGLE	T	Ich Auto Range
ICHOFFSETENABLE	TOGGLE	F	Ich Offset Enable
ICHOFFSET	QUANT	0	Ich Offset (V)
ICHFILTER	IQUANT	3	Ich Filter
VCHRANGE	IQUANT	3	Vch Range
VCHRANGEMODE	TOGGLE	T	Vch Auto Range
VCHOFFSETENABLE	TOGGLE	F	Vch Offset Enable
VCHOFFSET	QUANT	0	Vch Offset (V)
VCHFILTER	IQUANT	3	Vch Filter
IERANGELOWERLIMIT	IQUANT	4	I/E Range Lower Limit
IERANGEMODE	TOGGLE	F	I/E AutoRange
IERANGE	IQUANT	9	I/E Range
ACHSELECT	IQUANT	0	Ach Select
ACHRANGE	IQUANT	2	Ach Range
ACHOFFSETENABLE	TOGGLE	F	Ach Offset Enable
ACHOFFSET	QUANT	0	Ach Offset (V)
ACHFILTER	IQUANT	1	Ach Filter
SENSECABLEID	IQUANT	14	Sense Cable ID
PWRCABLEID	IQUANT	14	Power Cable ID
DCCALDATE	LABEL	1/24/2022	DC Calibration Date
ACCALDATE	LABEL	4/2/2018	AC Calibration Date
FRAMEWORKVERSION	QUANT	7.06	Framework Version
INSTRUMENTVERSION	LABEL	4.30	Instrument Version
CURVE	TABLE	98
	Pt	T	Vf	Im	Vu	Sig	Ach	IERange	Over	Temp
	#	s	V vs. Ref.	A	V	V	V	#	bits	deg C
	0	-0.4	-3.01333E-001	-4.69327E-005	0.00000E+000	-3.00011E-001	0.00000E+000	9	...........	1426.31
	1	-0.3	-3.00694E-001	-4.68202E-005	0.00000E+000	-3.00011E-001	0.00000E+000	9	...........	1426.31
	2	-0.2	-3.00702E-001	-4.67094E-005	0.00000E+000	-3.00011E-001	0.00000E+000	9	...........	1426.31
	3	-0.1	-3.00701E-001	-4.66179E-005	0.00000E+000	-3.00011E-001	0.00000E+000	9	...........	1426.31
	4	0	-3.00703E-001	-4.64950E-005	0.00000E+000	-3.00011E-001	0.00000E+000	9	...........	1426.40
	5	0.1	-4.00751E-001	-4.06510E-004	0.00000E+000	-4.00011E-001	0.00000E+000	9	...........	1426.40
	6	0.2	-4.00738E-001	-3.08741E-004	0.00000E+000	-4.00011E-001	0.00000E+000	9	...........	1426.40
	7	0.3	-4.00723E-001	-2.60092E-004	0.00000E+000	-4.00011E-001	0.00000E+000	9	...........	1426.40
	8	0.4	-4.00734E-001	-2.32632E-004	0.00000E+000	-4.00011E-001	0.00000E+000	9	...........	1426.40
	9	0.5	-4.00748E-001	-2.15245E-004	0.00000E+000	-4.00011E-001	0.00000E+000	9	...........	1426.40
	10	0.6	-4.00746E-001	-2.03241E-004	0.00000E+000	-4.00011E-001	0.00000E+000	9	...........	1426.40
	11	0.7	-4.00740E-001	-1.94456E-004	0.00000E+000	-4.00011E-001	0.00000E+000	9	...........	1426.40
	12	0.8	-4.00729E-001	-1.87573E-004	0.00000E+000	-4.00011E-001	0.00000E+000	9	...........	1426.40
	13	0.9	-4.00736E-001	-1.82095E-004	0.00000E+000	-4.00011E-001	0.00000E+000	9	...........	1426.40
	14	1	-4.00727E-001	-1.77461E-004	0.00000E+000	-4.00011E-001	0.00000E+000	9	...........	1425.87
	15	1.1	-4.00744E-001	-1.73517E-004	0.00000E+000	-4.00011E-001	0.00000E+000	9	...........	1425.87
	16	1.2	-4.00745E-001	-1.70061E-004	0.00000E+000	-4.00011E-001	0.00000E+000	9	...........	1425.87
	17	1.3	-4.00749E-001	-1.67059E-004	0.00000E+000	-4.00011E-001	0.00000E+000	9	...........	1425.87
	18	1.4	-4.00747E-001	-1.64322E-004	0.00000E+000	-4.00011E-001	0.00000E+000	9	...........	1425.87
	19	1.5	-4.00752E-001	-1.61821E-004	0.00000E+000	-4.00011E-001	0.00000E+000	9	...........	1425.87
	20	1.6	-4.00752E-001	-1.59558E-004	0.00000E+000	-4.00011E-001	0.00000E+000	9	...........	1425.87
	21	1.7	-4.00756E-001	-1.57488E-004	0.00000E+000	-4.00011E-001	0.00000E+000	9	...........	1425.87
	22	1.8	-4.00736E-001	-1.55500E-004	0.00000E+000	-4.00011E-001	0.00000E+000	9	...........	1425.87
	23	1.9	-4.00740E-001	-1.53735E-004	0.00000E+000	-4.00011E-001	0.00000E+000	9	...........	1425.87
	24	2	-4.00726E-001	-1.51951E-004	0.00000E+000	-4.00011E-001	0.00000E+000	9	...........	1426.31
	25	2.1	-4.00737E-001	-1.50392E-004	0.00000E+000	-4.00011E-001	0.00000E+000	9	...........	1426.31
	26	2.2	-4.00725E-001	-1.48836E-004	0.00000E+000	-4.00011E-001	0.00000E+000	9	...........	1426.31
	27	2.3	-4.00738E-001	-1.47438E-004	0.00000E+000	-4.00011E-001	0.00000E+000	9	...........	1426.31
	28	2.4	-4.00732E-001	-1.46008E-004	0.00000E+000	-4.00011E-001	0.00000E+000	9	...........	1426.31
	29	2.5	-4.00729E-001	-1.44711E-004	0.00000E+000	-4.00011E-001	0.00000E+000	9	...........	1426.31
	30	2.6	-4.00748E-001	-1.43495E-004	0.00000E+000	-4.00011E-001	0.00000E+000	9	...........	1426.31
	31	2.7	-4.00748E-001	-1.42294E-004	0.00000E+000	-4.00011E-001	0.00000E+000	9	...........	1426.31
	32	2.8	-4.00751E-001	-1.41151E-004	0.00000E+000	-4.00011E-001	0.00000E+000	9	...........	1426.31
	33	2.9	-4.00749E-001	-1.40049E-004	0.00000E+000	-4.00011E-001	0.00000E+000	9	...........	1426.31
	34	3	-4.00748E-001	-1.38988E-004	0.00000E+000	-4.00011E-001	0.00000E+000	9	...........	1425.87
	35	3.1	-4.00736E-001	-1.37960E-004	0.00000E+000	-4.00011E-001	0.00000E+000	9	...........	1425.87
	36	3.2	-4.00733E-001	-1.36941E-004	0.00000E+000	-4.00011E-001	0.00000E+000	9	...........	1425.87
	37	3.3	-4.00737E-001	-1.35996E-004	0.00000E+000	-4.00011E-001	0.00000E+000	9	...........	1425.87
	38	3.4	-4.00731E-001	-1.35093E-004	0.00000E+000	-4.00011E-001	0.00000E+000	9	...........	1425.87
	39	3.5	-4.00729E-001	-1.34201E-004	0.00000E+000	-4.00011E-001	0.00000E+000	9	...........	1425.87
	40	3.6	-4.00736E-001	-1.33349E-004	0.00000E+000	-4.00011E-001	0.00000E+000	9	...........	1425.87
	41	3.7	-4.00740E-001	-1.32519E-004	0.00000E+000	-4.00011E-001	0.00000E+000	9	...........	1425.87
	42	3.8	-4.00744E-001	-1.31678E-004	0.00000E+000	-4.00011E-001	0.00000E+000	9	...........	1425.87
	43	3.9	-4.00739E-001	-1.30898E-004	0.00000E+000	-4.00011E-001	0.00000E+000	9	...........	1425.87
	44	4	-4.00735E-001	-1.30101E-004	0.00000E+000	-4.00011E-001	0.00000E+000	9	...........	1426.31
	45	4.1	-4.00750E-001	-1.29393E-004	0.00000E+000	-4.00011E-001	0.00000E+000	9	...........	1426.31
	46	4.2	-4.00738E-001	-1.28666E-004	0.00000E+000	-4.00011E-001	0.00000E+000	9	...........	1426.31
	47	4.3	-4.00735E-001	-1.27971E-004	0.00000E+000	-4.00011E-001	0.00000E+000	9	...........	1426.31
	48	4.4	-4.00729E-001	-1.27263E-004	0.00000E+000	-4.00011E-001	0.00000E+000	9	...........	1426.31
	49	4.5	-4.00738E-001	-1.26573E-004	0.00000E+000	-4.00011E-001	0.00000E+000	9	...........	1426.31
	50	4.6	-4.00738E-001	-1.25957E-004	0.00000E+000	-4.00011E-001	0.00000E+000	9	...........	1426.31
	51	4.7	-4.00731E-001	-1.25304E-004	0.00000E+000	-4.00011E-001	0.00000E+000	9	...........	1426.31
	52	4.8	-4.00737E-001	-1.24656E-004	0.00000E+000	-4.00011E-001	0.00000E+000	9	...........	1426.31
	53	4.9	-4.00737E-001	-1.24052E-004	0.00000E+000	-4.00011E-001	0.00000E+000	9	...........	1426.31
	54	5	-4.00724E-001	-1.23481E-004	0.00000E+000	-4.00011E-001	0.00000E+000	9	...........	1426.31
	55	5.1	-4.00736E-001	-1.22919E-004	0.00000E+000	-4.00011E-001	0.00000E+000	9	...........	1426.31
	56	5.2	-4.00727E-001	-1.22338E-004	0.00000E+000	-4.00011E-001	0.00000E+000	9	...........	1426.31
	57	5.3	-4.00741E-001	-1.21804E-004	0.00000E+000	-4.00011E-001	0.00000E+000	9	...........	1426.31
	58	5.4	-4.00747E-001	-1.21252E-004	0.00000E+000	-4.00011E-001	0.00000E+000	9	...........	1426.31
	59	5.5	-4.00742E-001	-1.20673E-004	0.00000E+000	-4.00011E-001	0.00000E+000	9	...........	1426.31
	60	5.6	-4.00755E-001	-1.20197E-004	0.00000E+000	-4.00011E-001	0.00000E+000	9	...........	1426.31
	61	5.7	-4.00748E-001	-1.19664E-004	0.00000E+000	-4.00011E-001	0.00000E+000	9	...........	1426.31
	62	5.8	-4.00752E-001	-1.19134E-004	0.00000E+000	-4.00011E-001	0.00000E+000	9	...........	1426.31
	63	5.9	-4.00748E-001	-1.18646E-004	0.00000E+000	-4.00011E-001	0.00000E+000	9	...........	1426.31
	64	6	-4.00746E-001	-1.18198E-004	0.00000E+000	-4.00011E-001	0.00000E+000	9	...........	1426.31
	65	6.1	-4.00753E-001	-1.17718E-004	0.00000E+000	-4.00011E-001	0.00000E+000	9	...........	1426.31
	66	7.1	-4.00740E-001	-1.13433E-004	0.00000E+000	-4.00011E-001	0.00000E+000	9	...........	1426.13
	67	8.1	-4.00739E-001	-1.09796E-004	0.00000E+000	-4.00011E-001	0.00000E+000	9	...........	1426.40
	68	9.1	-4.00737E-001	-1.06603E-004	0.00000E+000	-4.00011E-001	0.00000E+000	9	...........	1426.40
	69	10.1	-4.00741E-001	-1.03944E-004	0.00000E+000	-4.00011E-001	0.00000E+000	9	...........	1426.40
	70	11.1	-4.00740E-001	-1.01492E-004	0.00000E+000	-4.00011E-001	0.00000E+000	9	...........	1426.31
	71	12.1	-4.00752E-001	-9.93453E-005	0.00000E+000	-4.00011E-001	0.00000E+000	9	...........	1426.40
	72	13.1	-4.00747E-001	-9.73794E-005	0.00000E+000	-4.00011E-001	0.00000E+000	9	...........	1426.40
	73	14.1	-4.00732E-001	-9.55925E-005	0.00000E+000	-4.00011E-001	0.00000E+000	9	...........	1426.40
	74	15.1	-4.00732E-001	-9.39258E-005	0.00000E+000	-4.00011E-001	0.00000E+000	9	...........	1426.40
	75	16.1	-4.00732E-001	-9.24419E-005	0.00000E+000	-4.00011E-001	0.00000E+000	9	...........	1426.40
	76	26.1	-4.00740E-001	-8.20533E-005	0.00000E+000	-4.00011E-001	0.00000E+000	9	...........	1426.40
	77	36.1	-4.00738E-001	-7.59468E-005	0.00000E+000	-4.00011E-001	0.00000E+000	9	...........	1426.40
	78	46.1	-4.00729E-001	-7.19521E-005	0.00000E+000	-4.00011E-001	0.00000E+000	9	...........	1426.40
	79	56.1	-4.00721E-001	-6.88801E-005	0.00000E+000	-4.00011E-001	0.00000E+000	9	...........	1426.40
	80	66.1	-4.00746E-001	-6.64435E-005	0.00000E+000	-4.00011E-001	0.00000E+000	9	...........	1426.40
	81	76.1	-4.00723E-001	-6.45834E-005	0.00000E+000	-4.00011E-001	0.00000E+000	9	...........	1426.40
	82	86.1	-4.00740E-001	-6.30816E-005	0.00000E+000	-4.00011E-001	0.00000E+000	9	...........	1426.40
	83	96.1	-4.00749E-001	-6.17168E-005	0.00000E+000	-4.00011E-001	0.00000E+000	9	...........	1426.40
	84	106.1	-4.00748E-001	-6.06645E-005	0.00000E+000	-4.00011E-001	0.00000E+000	9	...........	1426.40
	85	116.1	-4.00743E-001	-5.97040E-005	0.00000E+000	-4.00011E-001	0.00000E+000	9	...........	1426.40
	86	216.1	-4.00735E-001	-5.44766E-005	0.00000E+000	-4.00011E-001	0.00000E+000	9	...........	1426.49
	87	300	-4.00738E-001	-5.28227E-005	0.00000E+000	-4.00011E-001	0.00000E+000	9	...........	1426.49
	88	300.1	-5.00745E-001	-3.99137E-004	0.00000E+000	-5.00010E-001	0.00000E+000	9	...........	1426.49
	89	300.2	-5.00756E-001	-2.93363E-004	0.00000E+000	-5.00010E-001	0.00000E+000	9	...........	1426.49
	90	300.3	-5.00747E-001	-2.45620E-004	0.00000E+000	-5.00010E-001	0.00000E+000	9	...........	1426.49
	91	300.4	-5.00752E-001	-2.20167E-004	0.00000E+000	-5.00010E-001	0.00000E+000	9	...........	1426.49
	92	300.5	-5.00745E-001	-2.04799E-004	0.00000E+000	-5.00010E-001	0.00000E+000	9	...........	1426.49
	93	300.6	-5.00739E-001	-1.94566E-004	0.00000E+000	-5.00010E-001	0.00000E+000	9	...........	1426.49
	94	300.7	-5.00726E-001	-1.87167E-004	0.00000E+000	-5.00010E-001	0.00000E+000	9	...........	1426.49
	95	300.8	-5.00758E-001	-1.81585E-004	0.00000E+000	-5.00010E-001	0.00000E+000	9	...........	1426.49
	96	300.9	-5.00759E-001	-1.77130E-004	0.00000E+000	-5.00010E-001	0.00000E+000	9	...........	1426.49
	97	301	-5.00753E-001	-1.73434E-004	0.00000E+000	-5.00010E-001	0.00000E+000	9	...........	1426.49
