EXPLAIN
TAG	CHRONOA
TITLE	LABEL	Chronoamperometry Scan	Test Identifier
DATE	LABEL	21/2/2022	Date
TIME	LABEL	11:53:35	Time
NOTES	NOTES	1	Notes...
	
PSTAT	PSTAT	IFC1010-21051	Potentiostat
VPRESTEP	POTEN	1.00000E-002	F	Pre-step Voltage (V)
TPRESTEP	QUANT	5.00000E-001	Pre-step Delay Time (s)
VSTEP1	POTEN	0.00000E+000	F	Step 1 Voltage (V)
TSTEP1	QUANT	3.00000E+002	Step 1 Time (s)
VSTEP2	POTEN	-1.00000E-001	F	Step 2 Voltage (V)
TSTEP2	QUANT	1.00000E+000	Step 2 Time (s)
SAMPLETIME	QUANT	1.00000E-001	Sample Period (s)
DECIMATE	TOGGLE	T	Decimate
ILIMIT	QUANT	1.00000E+000	Limit I (mA/cm^2)
IMODE	SELECTOR	1	I/E Range Mode
IRANGE	QUANT	3.00000E-001	Max Current (mA)
EQDELAY	QUANT	5.00000E+000	Equil. Time (s)
SAMPLINGMODE	SELECTOR	1	Sampling Mode
AREA	QUANT	1.00000E+000	Sample Area (cm^2)
IRCOMP	SELECTOR	0	IRComp
PFCOR	QUANT	5.00000E+001	PF Corr. (ohm)
SEQUENCER	TOGGLE	TRUE	Run as Sequence
PSTATMODEL	IQUANT	64	Pstat Model
PSTATSECTION	LABEL	IFC1010-21051	Pstat Section
PSTATSERIALNO	LABEL	21051	Pstat Serial Number
CTRLMODE	IQUANT	1	Control Mode
ELECTROMETER	IQUANT	0	RE=0 or CS=1
IESTAB	IQUANT	0	I/E Stability
CASPEED	IQUANT	4	Control Amp Speed
CONVENTION	IQUANT	1	Current Convention
ICHRANGE	IQUANT	2	Ich Range
ICHRANGEMODE	TOGGLE	T	Ich Auto Range
ICHOFFSETENABLE	TOGGLE	F	Ich Offset Enable
ICHOFFSET	QUANT	0	Ich Offset (V)
ICHFILTER	IQUANT	3	Ich Filter
VCHRANGE	IQUANT	3	Vch Range
VCHRANGEMODE	TOGGLE	T	Vch Auto Range
VCHOFFSETENABLE	TOGGLE	F	Vch Offset Enable
VCHOFFSET	QUANT	0	Vch Offset (V)
VCHFILTER	IQUANT	3	Vch Filter
IERANGELOWERLIMIT	IQUANT	4	I/E Range Lower Limit
IERANGEMODE	TOGGLE	F	I/E AutoRange
IERANGE	IQUANT	9	I/E Range
ACHSELECT	IQUANT	0	Ach Select
ACHRANGE	IQUANT	2	Ach Range
ACHOFFSETENABLE	TOGGLE	F	Ach Offset Enable
ACHOFFSET	QUANT	0	Ach Offset (V)
ACHFILTER	IQUANT	1	Ach Filter
SENSECABLEID	IQUANT	14	Sense Cable ID
PWRCABLEID	IQUANT	14	Power Cable ID
DCCALDATE	LABEL	1/24/2022	DC Calibration Date
ACCALDATE	LABEL	4/2/2018	AC Calibration Date
FRAMEWORKVERSION	QUANT	7.06	Framework Version
INSTRUMENTVERSION	LABEL	4.30	Instrument Version
CURVE	TABLE	98
	Pt	T	Vf	Im	Vu	Sig	Ach	IERange	Over	Temp
	#	s	V vs. Ref.	A	V	V	V	#	bits	deg C
	0	-0.4	9.22431E-003	-1.23354E-005	0.00000E+000	1.00559E-002	0.00000E+000	9	...........	1426.04
	1	-0.3	9.89532E-003	-1.22538E-005	0.00000E+000	1.00559E-002	0.00000E+000	9	...........	1426.04
	2	-0.2	1.00390E-002	-1.21898E-005	0.00000E+000	1.00559E-002	0.00000E+000	9	...........	1426.04
	3	-0.1	1.00536E-002	-1.21206E-005	0.00000E+000	1.00559E-002	0.00000E+000	9	...........	1426.04
	4	0	1.00544E-002	-1.20630E-005	0.00000E+000	1.00559E-002	0.00000E+000	9	...........	1426.04
	5	0.1	4.79669E-005	-5.35247E-005	0.00000E+000	5.34840E-005	0.00000E+000	9	...........	1426.04
	6	0.2	4.59875E-005	-4.47189E-005	0.00000E+000	5.34840E-005	0.00000E+000	9	...........	1426.04
	7	0.3	4.71710E-005	-3.81785E-005	0.00000E+000	5.34840E-005	0.00000E+000	9	...........	1426.04
	8	0.4	4.54809E-005	-3.32028E-005	0.00000E+000	5.34840E-005	0.00000E+000	9	...........	1426.04
	9	0.5	4.51845E-005	-2.93670E-005	0.00000E+000	5.34840E-005	0.00000E+000	9	...........	1426.04
	10	0.6	4.60806E-005	-2.63537E-005	0.00000E+000	5.34840E-005	0.00000E+000	9	...........	1426.04
	11	0.7	4.67825E-005	-2.39779E-005	0.00000E+000	5.34840E-005	0.00000E+000	9	...........	1426.04
	12	0.8	4.54859E-005	-2.20925E-005	0.00000E+000	5.34840E-005	0.00000E+000	9	...........	1426.04
	13	0.9	4.54318E-005	-2.05643E-005	0.00000E+000	5.34840E-005	0.00000E+000	9	...........	1426.04
	14	1	4.55019E-005	-1.93340E-005	0.00000E+000	5.34840E-005	0.00000E+000	9	...........	1426.04
	15	1.1	4.46859E-005	-1.83230E-005	0.00000E+000	5.34840E-005	0.00000E+000	9	...........	1426.04
	16	1.2	4.53717E-005	-1.74916E-005	0.00000E+000	5.34840E-005	0.00000E+000	9	...........	1426.04
	17	1.3	4.53878E-005	-1.68074E-005	0.00000E+000	5.34840E-005	0.00000E+000	9	...........	1426.04
	18	1.4	4.54638E-005	-1.62191E-005	0.00000E+000	5.34840E-005	0.00000E+000	9	...........	1426.04
	19	1.5	4.55209E-005	-1.57288E-005	0.00000E+000	5.34840E-005	0.00000E+000	9	...........	1426.40
	20	1.6	4.51194E-005	-1.53133E-005	0.00000E+000	5.34840E-005	0.00000E+000	9	...........	1426.40
	21	1.7	4.46479E-005	-1.49630E-005	0.00000E+000	5.34840E-005	0.00000E+000	9	...........	1426.40
	22	1.8	4.37848E-005	-1.46563E-005	0.00000E+000	5.34840E-005	0.00000E+000	9	...........	1426.40
	23	1.9	4.41783E-005	-1.43880E-005	0.00000E+000	5.34840E-005	0.00000E+000	9	...........	1426.40
	24	2	4.45377E-005	-1.41462E-005	0.00000E+000	5.34840E-005	0.00000E+000	9	...........	1426.40
	25	2.1	4.39260E-005	-1.39431E-005	0.00000E+000	5.34840E-005	0.00000E+000	9	...........	1426.40
	26	2.2	4.31400E-005	-1.37657E-005	0.00000E+000	5.34840E-005	0.00000E+000	9	...........	1426.40
	27	2.3	4.38609E-005	-1.35934E-005	0.00000E+000	5.34840E-005	0.00000E+000	9	...........	1426.40
	28	2.4	4.42944E-005	-1.34501E-005	0.00000E+000	5.34840E-005	0.00000E+000	9	...........	1426.40
	29	2.5	4.45047E-005	-1.33172E-005	0.00000E+000	5.34840E-005	0.00000E+000	9	...........	1425.95
	30	2.6	4.61657E-005	-1.31969E-005	0.00000E+000	5.34840E-005	0.00000E+000	9	...........	1425.95
	31	2.7	4.55890E-005	-1.30917E-005	0.00000E+000	5.34840E-005	0.00000E+000	9	...........	1425.95
	32	2.8	4.49763E-005	-1.29909E-005	0.00000E+000	5.34840E-005	0.00000E+000	9	...........	1425.95
	33	2.9	4.53117E-005	-1.28929E-005	0.00000E+000	5.34840E-005	0.00000E+000	9	...........	1425.95
	34	3	4.51154E-005	-1.28139E-005	0.00000E+000	5.34840E-005	0.00000E+000	9	...........	1425.95
	35	3.1	4.47740E-005	-1.27391E-005	0.00000E+000	5.34840E-005	0.00000E+000	9	...........	1425.95
	36	3.2	4.37848E-005	-1.26763E-005	0.00000E+000	5.34840E-005	0.00000E+000	9	...........	1425.95
	37	3.3	4.41723E-005	-1.26015E-005	0.00000E+000	5.34840E-005	0.00000E+000	9	...........	1425.95
	38	3.4	4.44266E-005	-1.25394E-005	0.00000E+000	5.34840E-005	0.00000E+000	9	...........	1425.95
	39	3.5	4.37978E-005	-1.24843E-005	0.00000E+000	5.34840E-005	0.00000E+000	9	...........	1426.40
	40	3.6	4.43635E-005	-1.24176E-005	0.00000E+000	5.34840E-005	0.00000E+000	9	...........	1426.40
	41	3.7	4.44897E-005	-1.23714E-005	0.00000E+000	5.34840E-005	0.00000E+000	9	...........	1426.40
	42	3.8	4.48111E-005	-1.23193E-005	0.00000E+000	5.34840E-005	0.00000E+000	9	...........	1426.40
	43	3.9	4.43215E-005	-1.22772E-005	0.00000E+000	5.34840E-005	0.00000E+000	9	...........	1426.40
	44	4	4.42383E-005	-1.22277E-005	0.00000E+000	5.34840E-005	0.00000E+000	9	...........	1426.40
	45	4.1	4.49462E-005	-1.21887E-005	0.00000E+000	5.34840E-005	0.00000E+000	9	...........	1426.40
	46	4.2	4.50784E-005	-1.21453E-005	0.00000E+000	5.34840E-005	0.00000E+000	9	...........	1426.40
	47	4.3	4.46188E-005	-1.21129E-005	0.00000E+000	5.34840E-005	0.00000E+000	9	...........	1426.40
	48	4.4	4.56100E-005	-1.20720E-005	0.00000E+000	5.34840E-005	0.00000E+000	9	...........	1426.40
	49	4.5	4.56381E-005	-1.20375E-005	0.00000E+000	5.34840E-005	0.00000E+000	9	...........	1425.95
	50	4.6	4.59895E-005	-1.20018E-005	0.00000E+000	5.34840E-005	0.00000E+000	9	...........	1425.95
	51	4.7	4.63670E-005	-1.19730E-005	0.00000E+000	5.34840E-005	0.00000E+000	9	...........	1425.95
	52	4.8	4.45718E-005	-1.19490E-005	0.00000E+000	5.34840E-005	0.00000E+000	9	...........	1425.95
	53	4.9	4.59214E-005	-1.19149E-005	0.00000E+000	5.34840E-005	0.00000E+000	9	...........	1425.95
	54	5	4.55910E-005	-1.18899E-005	0.00000E+000	5.34840E-005	0.00000E+000	9	...........	1425.95
	55	5.1	4.63009E-005	-1.18566E-005	0.00000E+000	5.34840E-005	0.00000E+000	9	...........	1425.95
	56	5.2	4.50834E-005	-1.18376E-005	0.00000E+000	5.34840E-005	0.00000E+000	9	...........	1425.95
	57	5.3	4.52586E-005	-1.18039E-005	0.00000E+000	5.34840E-005	0.00000E+000	9	...........	1425.95
	58	5.4	4.45457E-005	-1.17861E-005	0.00000E+000	5.34840E-005	0.00000E+000	9	...........	1425.95
	59	5.5	4.53457E-005	-1.17643E-005	0.00000E+000	5.34840E-005	0.00000E+000	9	...........	1426.40
	60	5.6	4.53497E-005	-1.17466E-005	0.00000E+000	5.34840E-005	0.00000E+000	9	...........	1426.40
	61	5.7	4.54218E-005	-1.17151E-005	0.00000E+000	5.34840E-005	0.00000E+000	9	...........	1426.40
	62	5.8	4.58123E-005	-1.16869E-005	0.00000E+000	5.34840E-005	0.00000E+000	9	...........	1426.40
	63	5.9	4.62488E-005	-1.16619E-005	0.00000E+000	5.34840E-005	0.00000E+000	9	...........	1426.40
	64	6	4.64401E-005	-1.16495E-005	0.00000E+000	5.34840E-005	0.00000E+000	9	...........	1426.40
	65	6.1	4.60626E-005	-1.16284E-005	0.00000E+000	5.34840E-005	0.00000E+000	9	...........	1426.40
	66	7.1	4.39820E-005	-1.14847E-005	0.00000E+000	5.34840E-005	0.00000E+000	9	...........	1426.04
	67	8.1	4.39320E-005	-1.13601E-005	0.00000E+000	5.34840E-005	0.00000E+000	9	...........	1426.40
	68	9.1	4.63359E-005	-1.12732E-005	0.00000E+000	5.34840E-005	0.00000E+000	9	...........	1426.40
	69	10.1	4.37217E-005	-1.12241E-005	0.00000E+000	5.34840E-005	0.00000E+000	9	...........	1426.40
	70	11.1	4.59885E-005	-1.11811E-005	0.00000E+000	5.34840E-005	0.00000E+000	9	...........	1426.40
	71	12.1	4.52656E-005	-1.11441E-005	0.00000E+000	5.34840E-005	0.00000E+000	9	...........	1426.40
	72	13.1	4.65482E-005	-1.11271E-005	0.00000E+000	5.34840E-005	0.00000E+000	9	...........	1426.40
	73	14.1	4.65802E-005	-1.11136E-005	0.00000E+000	5.34840E-005	0.00000E+000	9	...........	1426.40
	74	15.1	4.63109E-005	-1.11043E-005	0.00000E+000	5.34840E-005	0.00000E+000	9	...........	1426.31
	75	16.1	4.55800E-005	-1.11146E-005	0.00000E+000	5.34840E-005	0.00000E+000	9	...........	1426.40
	76	26.1	4.55340E-005	-1.11133E-005	0.00000E+000	5.34840E-005	0.00000E+000	9	...........	1426.40
	77	36.1	4.52646E-005	-1.15268E-005	0.00000E+000	5.34840E-005	0.00000E+000	9	...........	1426.40
	78	46.1	4.37147E-005	-1.20292E-005	0.00000E+000	5.34840E-005	0.00000E+000	9	...........	1426.40
	79	56.1	4.48511E-005	-1.23386E-005	0.00000E+000	5.34840E-005	0.00000E+000	9	...........	1426.40
	80	66.1	4.49532E-005	-1.29457E-005	0.00000E+000	5.34840E-005	0.00000E+000	9	...........	1426.40
	81	76.1	4.53858E-005	-1.33645E-005	0.00000E+000	5.34840E-005	0.00000E+000	9	...........	1426.40
	82	86.1	4.48852E-005	-1.36478E-005	0.00000E+000	5.34840E-005	0.00000E+000	9	...........	1426.40
	83	96.1	4.54498E-005	-1.39945E-005	0.00000E+000	5.34840E-005	0.00000E+000	9	...........	1426.40
	84	106.1	4.56421E-005	-1.41786E-005	0.00000E+000	5.34840E-005	0.00000E+000	9	...........	1426.40
	85	116.1	4.73101E-005	-1.41887E-005	0.00000E+000	5.34840E-005	0.00000E+000	9	...........	1426.40
	86	216.1	4.50213E-005	-1.49417E-005	0.00000E+000	5.34840E-005	0.00000E+000	9	...........	1426.40
	87	300	4.73712E-005	-1.52231E-005	0.00000E+000	5.34840E-005	0.00000E+000	9	...........	1426.40
	88	300.1	-3.29270E-002	-4.29697E-004	0.00000E+000	-9.99460E-002	0.00000E+000	9	.........v.	1426.40
	89	300.2	-9.99773E-002	-3.52661E-004	0.00000E+000	-9.99460E-002	0.00000E+000	9	...........	1426.40
	90	300.3	-9.99764E-002	-2.99205E-004	0.00000E+000	-9.99460E-002	0.00000E+000	9	...........	1426.40
	91	300.4	-9.99774E-002	-2.59067E-004	0.00000E+000	-9.99460E-002	0.00000E+000	9	...........	1426.40
	92	300.5	-9.99767E-002	-2.27393E-004	0.00000E+000	-9.99460E-002	0.00000E+000	9	...........	1426.40
	93	300.6	-9.99777E-002	-2.01666E-004	0.00000E+000	-9.99460E-002	0.00000E+000	9	...........	1426.40
	94	300.7	-9.99782E-002	-1.80300E-004	0.00000E+000	-9.99460E-002	0.00000E+000	9	...........	1426.40
	95	300.8	-9.99778E-002	-1.62320E-004	0.00000E+000	-9.99460E-002	0.00000E+000	9	...........	1426.40
	96	300.9	-9.99786E-002	-1.47019E-004	0.00000E+000	-9.99460E-002	0.00000E+000	9	...........	1426.40
	97	301	-9.99790E-002	-1.33878E-004	0.00000E+000	-9.99460E-002	0.00000E+000	9	...........	1426.40
