EXPLAIN
TAG	CHRONOA
TITLE	LABEL	Chronoamperometry Scan	Test Identifier
DATE	LABEL	21/2/2022	Date
TIME	LABEL	12:32:44	Time
NOTES	NOTES	1	Notes...
	
PSTAT	PSTAT	IFC1010-21051	Potentiostat
VPRESTEP	POTEN	1.00000E-002	F	Pre-step Voltage (V)
TPRESTEP	QUANT	5.00000E-001	Pre-step Delay Time (s)
VSTEP1	POTEN	0.00000E+000	F	Step 1 Voltage (V)
TSTEP1	QUANT	3.00000E+002	Step 1 Time (s)
VSTEP2	POTEN	-1.00000E-001	F	Step 2 Voltage (V)
TSTEP2	QUANT	1.00000E+000	Step 2 Time (s)
SAMPLETIME	QUANT	1.00000E-001	Sample Period (s)
DECIMATE	TOGGLE	T	Decimate
ILIMIT	QUANT	1.00000E+000	Limit I (mA/cm^2)
IMODE	SELECTOR	1	I/E Range Mode
IRANGE	QUANT	3.00000E-001	Max Current (mA)
EQDELAY	QUANT	5.00000E+000	Equil. Time (s)
SAMPLINGMODE	SELECTOR	1	Sampling Mode
AREA	QUANT	1.00000E+000	Sample Area (cm^2)
IRCOMP	SELECTOR	0	IRComp
PFCOR	QUANT	5.00000E+001	PF Corr. (ohm)
SEQUENCER	TOGGLE	TRUE	Run as Sequence
PSTATMODEL	IQUANT	64	Pstat Model
PSTATSECTION	LABEL	IFC1010-21051	Pstat Section
PSTATSERIALNO	LABEL	21051	Pstat Serial Number
CTRLMODE	IQUANT	1	Control Mode
ELECTROMETER	IQUANT	0	RE=0 or CS=1
IESTAB	IQUANT	0	I/E Stability
CASPEED	IQUANT	4	Control Amp Speed
CONVENTION	IQUANT	1	Current Convention
ICHRANGE	IQUANT	2	Ich Range
ICHRANGEMODE	TOGGLE	T	Ich Auto Range
ICHOFFSETENABLE	TOGGLE	F	Ich Offset Enable
ICHOFFSET	QUANT	0	Ich Offset (V)
ICHFILTER	IQUANT	3	Ich Filter
VCHRANGE	IQUANT	3	Vch Range
VCHRANGEMODE	TOGGLE	T	Vch Auto Range
VCHOFFSETENABLE	TOGGLE	F	Vch Offset Enable
VCHOFFSET	QUANT	0	Vch Offset (V)
VCHFILTER	IQUANT	3	Vch Filter
IERANGELOWERLIMIT	IQUANT	4	I/E Range Lower Limit
IERANGEMODE	TOGGLE	F	I/E AutoRange
IERANGE	IQUANT	9	I/E Range
ACHSELECT	IQUANT	0	Ach Select
ACHRANGE	IQUANT	2	Ach Range
ACHOFFSETENABLE	TOGGLE	F	Ach Offset Enable
ACHOFFSET	QUANT	0	Ach Offset (V)
ACHFILTER	IQUANT	1	Ach Filter
SENSECABLEID	IQUANT	14	Sense Cable ID
PWRCABLEID	IQUANT	14	Power Cable ID
DCCALDATE	LABEL	1/24/2022	DC Calibration Date
ACCALDATE	LABEL	4/2/2018	AC Calibration Date
FRAMEWORKVERSION	QUANT	7.06	Framework Version
INSTRUMENTVERSION	LABEL	4.30	Instrument Version
CURVE	TABLE	98
	Pt	T	Vf	Im	Vu	Sig	Ach	IERange	Over	Temp
	#	s	V vs. Ref.	A	V	V	V	#	bits	deg C
	0	-0.4	9.19268E-003	-1.26774E-005	0.00000E+000	1.00559E-002	0.00000E+000	9	...........	1426.22
	1	-0.3	9.87620E-003	-1.26000E-005	0.00000E+000	1.00559E-002	0.00000E+000	9	...........	1426.22
	2	-0.2	1.00385E-002	-1.25165E-005	0.00000E+000	1.00559E-002	0.00000E+000	9	...........	1426.22
	3	-0.1	1.00530E-002	-1.24447E-005	0.00000E+000	1.00559E-002	0.00000E+000	9	...........	1426.22
	4	0	1.00533E-002	-1.23818E-005	0.00000E+000	1.00559E-002	0.00000E+000	9	...........	1426.22
	5	0.1	4.58043E-005	-5.39167E-005	0.00000E+000	5.34840E-005	0.00000E+000	9	...........	1426.13
	6	0.2	4.54729E-005	-4.43090E-005	0.00000E+000	5.34840E-005	0.00000E+000	9	...........	1426.13
	7	0.3	4.51234E-005	-3.74867E-005	0.00000E+000	5.34840E-005	0.00000E+000	9	...........	1426.13
	8	0.4	4.57292E-005	-3.24707E-005	0.00000E+000	5.34840E-005	0.00000E+000	9	...........	1426.13
	9	0.5	4.44546E-005	-2.87191E-005	0.00000E+000	5.34840E-005	0.00000E+000	9	...........	1426.13
	10	0.6	4.44206E-005	-2.58397E-005	0.00000E+000	5.34840E-005	0.00000E+000	9	...........	1426.13
	11	0.7	4.46148E-005	-2.36285E-005	0.00000E+000	5.34840E-005	0.00000E+000	9	...........	1426.13
	12	0.8	4.55780E-005	-2.18697E-005	0.00000E+000	5.34840E-005	0.00000E+000	9	...........	1426.13
	13	0.9	4.52796E-005	-2.04807E-005	0.00000E+000	5.34840E-005	0.00000E+000	9	...........	1426.13
	14	1	4.53547E-005	-1.93608E-005	0.00000E+000	5.34840E-005	0.00000E+000	9	...........	1426.13
	15	1.1	4.65482E-005	-1.84339E-005	0.00000E+000	5.34840E-005	0.00000E+000	9	...........	1426.22
	16	1.2	4.57202E-005	-1.76985E-005	0.00000E+000	5.34840E-005	0.00000E+000	9	...........	1426.22
	17	1.3	4.44847E-005	-1.70655E-005	0.00000E+000	5.34840E-005	0.00000E+000	9	...........	1426.22
	18	1.4	4.55289E-005	-1.65313E-005	0.00000E+000	5.34840E-005	0.00000E+000	9	...........	1426.22
	19	1.5	4.47600E-005	-1.60841E-005	0.00000E+000	5.34840E-005	0.00000E+000	9	...........	1426.22
	20	1.6	4.46689E-005	-1.57110E-005	0.00000E+000	5.34840E-005	0.00000E+000	9	...........	1426.22
	21	1.7	4.42654E-005	-1.53721E-005	0.00000E+000	5.34840E-005	0.00000E+000	9	...........	1426.22
	22	1.8	4.49602E-005	-1.50819E-005	0.00000E+000	5.34840E-005	0.00000E+000	9	...........	1426.22
	23	1.9	4.31490E-005	-1.48403E-005	0.00000E+000	5.34840E-005	0.00000E+000	9	...........	1426.22
	24	2	4.58533E-005	-1.46059E-005	0.00000E+000	5.34840E-005	0.00000E+000	9	...........	1426.22
	25	2.1	4.53327E-005	-1.44117E-005	0.00000E+000	5.34840E-005	0.00000E+000	9	...........	1426.31
	26	2.2	4.56050E-005	-1.42100E-005	0.00000E+000	5.34840E-005	0.00000E+000	9	...........	1426.31
	27	2.3	4.42424E-005	-1.40490E-005	0.00000E+000	5.34840E-005	0.00000E+000	9	...........	1426.31
	28	2.4	4.48872E-005	-1.38981E-005	0.00000E+000	5.34840E-005	0.00000E+000	9	...........	1426.31
	29	2.5	4.44056E-005	-1.37818E-005	0.00000E+000	5.34840E-005	0.00000E+000	9	...........	1426.31
	30	2.6	4.37678E-005	-1.36503E-005	0.00000E+000	5.34840E-005	0.00000E+000	9	...........	1426.31
	31	2.7	4.40802E-005	-1.35259E-005	0.00000E+000	5.34840E-005	0.00000E+000	9	...........	1426.31
	32	2.8	4.33072E-005	-1.34247E-005	0.00000E+000	5.34840E-005	0.00000E+000	9	...........	1426.31
	33	2.9	4.40041E-005	-1.33207E-005	0.00000E+000	5.34840E-005	0.00000E+000	9	...........	1426.31
	34	3	4.28466E-005	-1.32334E-005	0.00000E+000	5.34840E-005	0.00000E+000	9	...........	1426.31
	35	3.1	4.43715E-005	-1.31473E-005	0.00000E+000	5.34840E-005	0.00000E+000	9	...........	1426.04
	36	3.2	4.34934E-005	-1.30700E-005	0.00000E+000	5.34840E-005	0.00000E+000	9	...........	1426.04
	37	3.3	4.31210E-005	-1.29881E-005	0.00000E+000	5.34840E-005	0.00000E+000	9	...........	1426.04
	38	3.4	4.41533E-005	-1.29220E-005	0.00000E+000	5.34840E-005	0.00000E+000	9	...........	1426.04
	39	3.5	4.44146E-005	-1.28487E-005	0.00000E+000	5.34840E-005	0.00000E+000	9	...........	1426.04
	40	3.6	4.28346E-005	-1.28039E-005	0.00000E+000	5.34840E-005	0.00000E+000	9	...........	1426.04
	41	3.7	4.27625E-005	-1.27452E-005	0.00000E+000	5.34840E-005	0.00000E+000	9	...........	1426.04
	42	3.8	4.33513E-005	-1.26831E-005	0.00000E+000	5.34840E-005	0.00000E+000	9	...........	1426.04
	43	3.9	4.29388E-005	-1.26347E-005	0.00000E+000	5.34840E-005	0.00000E+000	9	...........	1426.04
	44	4	4.39069E-005	-1.25885E-005	0.00000E+000	5.34840E-005	0.00000E+000	9	...........	1426.04
	45	4.1	4.41773E-005	-1.25457E-005	0.00000E+000	5.34840E-005	0.00000E+000	9	...........	1426.49
	46	4.2	4.40251E-005	-1.24956E-005	0.00000E+000	5.34840E-005	0.00000E+000	9	...........	1426.49
	47	4.3	4.45037E-005	-1.24574E-005	0.00000E+000	5.34840E-005	0.00000E+000	9	...........	1426.49
	48	4.4	4.43144E-005	-1.24080E-005	0.00000E+000	5.34840E-005	0.00000E+000	9	...........	1426.49
	49	4.5	4.32772E-005	-1.23818E-005	0.00000E+000	5.34840E-005	0.00000E+000	9	...........	1426.49
	50	4.6	4.35946E-005	-1.23498E-005	0.00000E+000	5.34840E-005	0.00000E+000	9	...........	1426.49
	51	4.7	4.37838E-005	-1.23056E-005	0.00000E+000	5.34840E-005	0.00000E+000	9	...........	1426.49
	52	4.8	4.42434E-005	-1.22759E-005	0.00000E+000	5.34840E-005	0.00000E+000	9	...........	1426.49
	53	4.9	4.36897E-005	-1.22480E-005	0.00000E+000	5.34840E-005	0.00000E+000	9	...........	1426.49
	54	5	4.35305E-005	-1.22137E-005	0.00000E+000	5.34840E-005	0.00000E+000	9	...........	1426.49
	55	5.1	4.24882E-005	-1.21797E-005	0.00000E+000	5.34840E-005	0.00000E+000	9	...........	1426.04
	56	5.2	4.38499E-005	-1.21562E-005	0.00000E+000	5.34840E-005	0.00000E+000	9	...........	1426.04
	57	5.3	4.35776E-005	-1.21292E-005	0.00000E+000	5.34840E-005	0.00000E+000	9	...........	1426.04
	58	5.4	4.48091E-005	-1.20970E-005	0.00000E+000	5.34840E-005	0.00000E+000	9	...........	1426.04
	59	5.5	4.45557E-005	-1.20709E-005	0.00000E+000	5.34840E-005	0.00000E+000	9	...........	1426.04
	60	5.6	4.39440E-005	-1.20469E-005	0.00000E+000	5.34840E-005	0.00000E+000	9	...........	1426.04
	61	5.7	4.44897E-005	-1.20269E-005	0.00000E+000	5.34840E-005	0.00000E+000	9	...........	1426.04
	62	5.8	4.44186E-005	-1.20035E-005	0.00000E+000	5.34840E-005	0.00000E+000	9	...........	1426.04
	63	5.9	4.52756E-005	-1.19854E-005	0.00000E+000	5.34840E-005	0.00000E+000	9	...........	1426.04
	64	6	4.47870E-005	-1.19658E-005	0.00000E+000	5.34840E-005	0.00000E+000	9	...........	1426.04
	65	6.1	4.53517E-005	-1.19510E-005	0.00000E+000	5.34840E-005	0.00000E+000	9	...........	1426.49
	66	7.1	4.31881E-005	-1.18102E-005	0.00000E+000	5.34840E-005	0.00000E+000	9	...........	1426.04
	67	8.1	4.47370E-005	-1.17088E-005	0.00000E+000	5.34840E-005	0.00000E+000	9	...........	1426.49
	68	9.1	4.41022E-005	-1.16151E-005	0.00000E+000	5.34840E-005	0.00000E+000	9	...........	1426.49
	69	10.1	4.54248E-005	-1.15608E-005	0.00000E+000	5.34840E-005	0.00000E+000	9	...........	1426.49
	70	11.1	4.36666E-005	-1.15498E-005	0.00000E+000	5.34840E-005	0.00000E+000	9	...........	1426.49
	71	12.1	4.51305E-005	-1.15438E-005	0.00000E+000	5.34840E-005	0.00000E+000	9	...........	1426.49
	72	13.1	4.40551E-005	-1.15402E-005	0.00000E+000	5.34840E-005	0.00000E+000	9	...........	1426.49
	73	14.1	4.39260E-005	-1.15330E-005	0.00000E+000	5.34840E-005	0.00000E+000	9	...........	1426.57
	74	15.1	4.42844E-005	-1.15405E-005	0.00000E+000	5.34840E-005	0.00000E+000	9	...........	1426.57
	75	16.1	4.27715E-005	-1.15622E-005	0.00000E+000	5.34840E-005	0.00000E+000	9	...........	1426.49
	76	26.1	4.38048E-005	-1.17292E-005	0.00000E+000	5.34840E-005	0.00000E+000	9	...........	1426.49
	77	36.1	4.37628E-005	-1.20161E-005	0.00000E+000	5.34840E-005	0.00000E+000	9	...........	1426.49
	78	46.1	4.39109E-005	-1.24160E-005	0.00000E+000	5.34840E-005	0.00000E+000	9	...........	1426.49
	79	56.1	4.39740E-005	-1.27885E-005	0.00000E+000	5.34840E-005	0.00000E+000	9	...........	1426.40
	80	66.1	4.19125E-005	-1.31678E-005	0.00000E+000	5.34840E-005	0.00000E+000	9	...........	1426.49
	81	76.1	4.16211E-005	-1.35974E-005	0.00000E+000	5.34840E-005	0.00000E+000	9	...........	1426.49
	82	86.1	4.19325E-005	-1.36412E-005	0.00000E+000	5.34840E-005	0.00000E+000	9	...........	1426.49
	83	96.1	4.28266E-005	-1.38225E-005	0.00000E+000	5.34840E-005	0.00000E+000	9	...........	1426.49
	84	106.1	4.25032E-005	-1.41142E-005	0.00000E+000	5.34840E-005	0.00000E+000	9	...........	1426.49
	85	116.1	4.40111E-005	-1.40918E-005	0.00000E+000	5.34840E-005	0.00000E+000	9	...........	1426.40
	86	216.1	4.12507E-005	-1.47847E-005	0.00000E+000	5.34840E-005	0.00000E+000	9	...........	1426.57
	87	300	4.31350E-005	-1.47914E-005	0.00000E+000	5.34840E-005	0.00000E+000	9	...........	1426.49
	88	300.1	-3.29270E-002	-4.34653E-004	0.00000E+000	-9.99460E-002	0.00000E+000	9	.........v.	1426.57
	89	300.2	-9.99820E-002	-3.52617E-004	0.00000E+000	-9.99460E-002	0.00000E+000	9	...........	1426.57
	90	300.3	-9.99838E-002	-2.96415E-004	0.00000E+000	-9.99460E-002	0.00000E+000	9	...........	1426.57
	91	300.4	-9.99853E-002	-2.54409E-004	0.00000E+000	-9.99460E-002	0.00000E+000	9	...........	1426.57
	92	300.5	-9.99820E-002	-2.21430E-004	0.00000E+000	-9.99460E-002	0.00000E+000	9	...........	1426.57
	93	300.6	-9.99836E-002	-1.94800E-004	0.00000E+000	-9.99460E-002	0.00000E+000	9	...........	1426.57
	94	300.7	-9.99829E-002	-1.72837E-004	0.00000E+000	-9.99460E-002	0.00000E+000	9	...........	1426.57
	95	300.8	-9.99841E-002	-1.54494E-004	0.00000E+000	-9.99460E-002	0.00000E+000	9	...........	1426.57
	96	300.9	-9.99837E-002	-1.38998E-004	0.00000E+000	-9.99460E-002	0.00000E+000	9	...........	1426.57
	97	301	-9.99824E-002	-1.25824E-004	0.00000E+000	-9.99460E-002	0.00000E+000	9	...........	1426.57
