EXPLAIN
TAG	CHRONOA
TITLE	LABEL	Chronoamperometry Scan	Test Identifier
DATE	LABEL	21/2/2022	Date
TIME	LABEL	12:03:48	Time
NOTES	NOTES	1	Notes...
	
PSTAT	PSTAT	IFC1010-21051	Potentiostat
VPRESTEP	POTEN	3.00000E-001	F	Pre-step Voltage (V)
TPRESTEP	QUANT	5.00000E-001	Pre-step Delay Time (s)
VSTEP1	POTEN	4.00000E-001	F	Step 1 Voltage (V)
TSTEP1	QUANT	3.00000E+002	Step 1 Time (s)
VSTEP2	POTEN	3.00000E-001	F	Step 2 Voltage (V)
TSTEP2	QUANT	1.00000E+000	Step 2 Time (s)
SAMPLETIME	QUANT	1.00000E-001	Sample Period (s)
DECIMATE	TOGGLE	T	Decimate
ILIMIT	QUANT	1.00000E+000	Limit I (mA/cm^2)
IMODE	SELECTOR	1	I/E Range Mode
IRANGE	QUANT	3.00000E-001	Max Current (mA)
EQDELAY	QUANT	5.00000E+000	Equil. Time (s)
SAMPLINGMODE	SELECTOR	1	Sampling Mode
AREA	QUANT	1.00000E+000	Sample Area (cm^2)
IRCOMP	SELECTOR	0	IRComp
PFCOR	QUANT	5.00000E+001	PF Corr. (ohm)
SEQUENCER	TOGGLE	TRUE	Run as Sequence
PSTATMODEL	IQUANT	64	Pstat Model
PSTATSECTION	LABEL	IFC1010-21051	Pstat Section
PSTATSERIALNO	LABEL	21051	Pstat Serial Number
CTRLMODE	IQUANT	1	Control Mode
ELECTROMETER	IQUANT	0	RE=0 or CS=1
IESTAB	IQUANT	0	I/E Stability
CASPEED	IQUANT	4	Control Amp Speed
CONVENTION	IQUANT	1	Current Convention
ICHRANGE	IQUANT	2	Ich Range
ICHRANGEMODE	TOGGLE	T	Ich Auto Range
ICHOFFSETENABLE	TOGGLE	F	Ich Offset Enable
ICHOFFSET	QUANT	0	Ich Offset (V)
ICHFILTER	IQUANT	3	Ich Filter
VCHRANGE	IQUANT	3	Vch Range
VCHRANGEMODE	TOGGLE	T	Vch Auto Range
VCHOFFSETENABLE	TOGGLE	F	Vch Offset Enable
VCHOFFSET	QUANT	0	Vch Offset (V)
VCHFILTER	IQUANT	3	Vch Filter
IERANGELOWERLIMIT	IQUANT	4	I/E Range Lower Limit
IERANGEMODE	TOGGLE	F	I/E AutoRange
IERANGE	IQUANT	9	I/E Range
ACHSELECT	IQUANT	0	Ach Select
ACHRANGE	IQUANT	2	Ach Range
ACHOFFSETENABLE	TOGGLE	F	Ach Offset Enable
ACHOFFSET	QUANT	0	Ach Offset (V)
ACHFILTER	IQUANT	1	Ach Filter
SENSECABLEID	IQUANT	14	Sense Cable ID
PWRCABLEID	IQUANT	14	Power Cable ID
DCCALDATE	LABEL	1/24/2022	DC Calibration Date
ACCALDATE	LABEL	4/2/2018	AC Calibration Date
FRAMEWORKVERSION	QUANT	7.06	Framework Version
INSTRUMENTVERSION	LABEL	4.30	Instrument Version
CURVE	TABLE	98
	Pt	T	Vf	Im	Vu	Sig	Ach	IERange	Over	Temp
	#	s	V vs. Ref.	A	V	V	V	#	bits	deg C
	0	-0.4	2.99605E-001	8.78415E-006	0.00000E+000	3.00072E-001	0.00000E+000	9	...........	1426.04
	1	-0.3	3.00314E-001	8.68711E-006	0.00000E+000	3.00072E-001	0.00000E+000	9	...........	1426.04
	2	-0.2	3.00300E-001	8.59959E-006	0.00000E+000	3.00072E-001	0.00000E+000	9	...........	1426.04
	3	-0.1	3.00297E-001	8.49758E-006	0.00000E+000	3.00072E-001	0.00000E+000	9	...........	1426.04
	4	0	3.00295E-001	8.39755E-006	0.00000E+000	3.00072E-001	0.00000E+000	9	...........	1426.04
	5	0.1	4.00361E-001	4.71635E-004	0.00000E+000	4.00072E-001	0.00000E+000	9	...........	1426.04
	6	0.2	4.00361E-001	4.01298E-004	0.00000E+000	4.00072E-001	0.00000E+000	9	...........	1426.04
	7	0.3	4.00353E-001	3.50321E-004	0.00000E+000	4.00072E-001	0.00000E+000	9	...........	1426.04
	8	0.4	4.00347E-001	3.11749E-004	0.00000E+000	4.00072E-001	0.00000E+000	9	...........	1426.04
	9	0.5	4.00343E-001	2.81918E-004	0.00000E+000	4.00072E-001	0.00000E+000	9	...........	1426.04
	10	0.6	4.00349E-001	2.58190E-004	0.00000E+000	4.00072E-001	0.00000E+000	9	...........	1426.04
	11	0.7	4.00350E-001	2.38833E-004	0.00000E+000	4.00072E-001	0.00000E+000	9	...........	1426.04
	12	0.8	4.00367E-001	2.22743E-004	0.00000E+000	4.00072E-001	0.00000E+000	9	...........	1426.04
	13	0.9	4.00360E-001	2.09046E-004	0.00000E+000	4.00072E-001	0.00000E+000	9	...........	1426.04
	14	1	4.00360E-001	1.97251E-004	0.00000E+000	4.00072E-001	0.00000E+000	9	...........	1426.04
	15	1.1	4.00350E-001	1.86921E-004	0.00000E+000	4.00072E-001	0.00000E+000	9	...........	1426.04
	16	1.2	4.00353E-001	1.77791E-004	0.00000E+000	4.00072E-001	0.00000E+000	9	...........	1425.95
	17	1.3	4.00352E-001	1.69685E-004	0.00000E+000	4.00072E-001	0.00000E+000	9	...........	1425.95
	18	1.4	4.00351E-001	1.62480E-004	0.00000E+000	4.00072E-001	0.00000E+000	9	...........	1425.95
	19	1.5	4.00354E-001	1.56030E-004	0.00000E+000	4.00072E-001	0.00000E+000	9	...........	1425.95
	20	1.6	4.00354E-001	1.50229E-004	0.00000E+000	4.00072E-001	0.00000E+000	9	...........	1425.95
	21	1.7	4.00340E-001	1.44954E-004	0.00000E+000	4.00072E-001	0.00000E+000	9	...........	1425.95
	22	1.8	4.00363E-001	1.40199E-004	0.00000E+000	4.00072E-001	0.00000E+000	9	...........	1425.95
	23	1.9	4.00363E-001	1.35825E-004	0.00000E+000	4.00072E-001	0.00000E+000	9	...........	1425.95
	24	2	4.00361E-001	1.31852E-004	0.00000E+000	4.00072E-001	0.00000E+000	9	...........	1425.95
	25	2.1	4.00360E-001	1.28140E-004	0.00000E+000	4.00072E-001	0.00000E+000	9	...........	1425.95
	26	2.2	4.00355E-001	1.24677E-004	0.00000E+000	4.00072E-001	0.00000E+000	9	...........	1425.95
	27	2.3	4.00350E-001	1.21533E-004	0.00000E+000	4.00072E-001	0.00000E+000	9	...........	1425.95
	28	2.4	4.00355E-001	1.18558E-004	0.00000E+000	4.00072E-001	0.00000E+000	9	...........	1425.95
	29	2.5	4.00360E-001	1.15749E-004	0.00000E+000	4.00072E-001	0.00000E+000	9	...........	1425.95
	30	2.6	4.00350E-001	1.13121E-004	0.00000E+000	4.00072E-001	0.00000E+000	9	...........	1425.95
	31	2.7	4.00364E-001	1.10662E-004	0.00000E+000	4.00072E-001	0.00000E+000	9	...........	1425.95
	32	2.8	4.00353E-001	1.08298E-004	0.00000E+000	4.00072E-001	0.00000E+000	9	...........	1425.95
	33	2.9	4.00352E-001	1.06116E-004	0.00000E+000	4.00072E-001	0.00000E+000	9	...........	1425.95
	34	3	4.00356E-001	1.04046E-004	0.00000E+000	4.00072E-001	0.00000E+000	9	...........	1425.95
	35	3.1	4.00359E-001	1.02062E-004	0.00000E+000	4.00072E-001	0.00000E+000	9	...........	1425.95
	36	3.2	4.00357E-001	1.00143E-004	0.00000E+000	4.00072E-001	0.00000E+000	9	...........	1425.95
	37	3.3	4.00357E-001	9.83380E-005	0.00000E+000	4.00072E-001	0.00000E+000	9	...........	1425.95
	38	3.4	4.00358E-001	9.66228E-005	0.00000E+000	4.00072E-001	0.00000E+000	9	...........	1425.95
	39	3.5	4.00365E-001	9.49960E-005	0.00000E+000	4.00072E-001	0.00000E+000	9	...........	1425.95
	40	3.6	4.00357E-001	9.34068E-005	0.00000E+000	4.00072E-001	0.00000E+000	9	...........	1425.95
	41	3.7	4.00365E-001	9.18649E-005	0.00000E+000	4.00072E-001	0.00000E+000	9	...........	1425.95
	42	3.8	4.00350E-001	9.04078E-005	0.00000E+000	4.00072E-001	0.00000E+000	9	...........	1425.95
	43	3.9	4.00352E-001	8.90125E-005	0.00000E+000	4.00072E-001	0.00000E+000	9	...........	1425.95
	44	4	4.00356E-001	8.76759E-005	0.00000E+000	4.00072E-001	0.00000E+000	9	...........	1425.95
	45	4.1	4.00355E-001	8.63954E-005	0.00000E+000	4.00072E-001	0.00000E+000	9	...........	1425.95
	46	4.2	4.00366E-001	8.50936E-005	0.00000E+000	4.00072E-001	0.00000E+000	9	...........	1425.51
	47	4.3	4.00354E-001	8.38559E-005	0.00000E+000	4.00072E-001	0.00000E+000	9	...........	1425.51
	48	4.4	4.00359E-001	8.27387E-005	0.00000E+000	4.00072E-001	0.00000E+000	9	...........	1425.51
	49	4.5	4.00348E-001	8.15861E-005	0.00000E+000	4.00072E-001	0.00000E+000	9	...........	1425.51
	50	4.6	4.00346E-001	8.04940E-005	0.00000E+000	4.00072E-001	0.00000E+000	9	...........	1425.51
	51	4.7	4.00351E-001	7.94481E-005	0.00000E+000	4.00072E-001	0.00000E+000	9	...........	1425.51
	52	4.8	4.00353E-001	7.84065E-005	0.00000E+000	4.00072E-001	0.00000E+000	9	...........	1425.51
	53	4.9	4.00355E-001	7.73572E-005	0.00000E+000	4.00072E-001	0.00000E+000	9	...........	1425.51
	54	5	4.00358E-001	7.64129E-005	0.00000E+000	4.00072E-001	0.00000E+000	9	...........	1425.51
	55	5.1	4.00352E-001	7.54657E-005	0.00000E+000	4.00072E-001	0.00000E+000	9	...........	1425.51
	56	5.2	4.00353E-001	7.45553E-005	0.00000E+000	4.00072E-001	0.00000E+000	9	...........	1425.51
	57	5.3	4.00358E-001	7.36472E-005	0.00000E+000	4.00072E-001	0.00000E+000	9	...........	1425.51
	58	5.4	4.00356E-001	7.28161E-005	0.00000E+000	4.00072E-001	0.00000E+000	9	...........	1425.51
	59	5.5	4.00359E-001	7.20074E-005	0.00000E+000	4.00072E-001	0.00000E+000	9	...........	1425.51
	60	5.6	4.00353E-001	7.11762E-005	0.00000E+000	4.00072E-001	0.00000E+000	9	...........	1425.51
	61	5.7	4.00349E-001	7.03760E-005	0.00000E+000	4.00072E-001	0.00000E+000	9	...........	1425.51
	62	5.8	4.00354E-001	6.96287E-005	0.00000E+000	4.00072E-001	0.00000E+000	9	...........	1425.51
	63	5.9	4.00351E-001	6.88749E-005	0.00000E+000	4.00072E-001	0.00000E+000	9	...........	1425.51
	64	6	4.00359E-001	6.81747E-005	0.00000E+000	4.00072E-001	0.00000E+000	9	...........	1425.51
	65	6.1	4.00369E-001	6.74846E-005	0.00000E+000	4.00072E-001	0.00000E+000	9	...........	1425.51
	66	7.1	4.00364E-001	6.12972E-005	0.00000E+000	4.00072E-001	0.00000E+000	9	...........	1425.51
	67	8.1	4.00361E-001	5.65461E-005	0.00000E+000	4.00072E-001	0.00000E+000	9	...........	1425.78
	68	9.1	4.00364E-001	5.25218E-005	0.00000E+000	4.00072E-001	0.00000E+000	9	...........	1426.04
	69	10.1	4.00339E-001	4.90767E-005	0.00000E+000	4.00072E-001	0.00000E+000	9	...........	1426.04
	70	11.1	4.00345E-001	4.61306E-005	0.00000E+000	4.00072E-001	0.00000E+000	9	...........	1426.04
	71	12.1	4.00352E-001	4.36378E-005	0.00000E+000	4.00072E-001	0.00000E+000	9	...........	1426.04
	72	13.1	4.00356E-001	4.16580E-005	0.00000E+000	4.00072E-001	0.00000E+000	9	...........	1426.04
	73	14.1	4.00361E-001	3.99999E-005	0.00000E+000	4.00072E-001	0.00000E+000	9	...........	1425.60
	74	15.1	4.00358E-001	3.84014E-005	0.00000E+000	4.00072E-001	0.00000E+000	9	...........	1425.60
	75	16.1	4.00366E-001	3.68229E-005	0.00000E+000	4.00072E-001	0.00000E+000	9	...........	1425.78
	76	26.1	4.00366E-001	2.86802E-005	0.00000E+000	4.00072E-001	0.00000E+000	9	...........	1426.04
	77	36.1	4.00361E-001	2.47876E-005	0.00000E+000	4.00072E-001	0.00000E+000	9	...........	1426.04
	78	46.1	4.00357E-001	2.24412E-005	0.00000E+000	4.00072E-001	0.00000E+000	9	...........	1426.04
	79	56.1	4.00359E-001	2.12250E-005	0.00000E+000	4.00072E-001	0.00000E+000	9	...........	1426.04
	80	66.1	4.00354E-001	2.02543E-005	0.00000E+000	4.00072E-001	0.00000E+000	9	...........	1426.04
	81	76.1	4.00355E-001	1.94788E-005	0.00000E+000	4.00072E-001	0.00000E+000	9	...........	1426.04
	82	86.1	4.00362E-001	1.90864E-005	0.00000E+000	4.00072E-001	0.00000E+000	9	...........	1425.95
	83	96.1	4.00343E-001	1.88520E-005	0.00000E+000	4.00072E-001	0.00000E+000	9	...........	1426.04
	84	106.1	4.00365E-001	1.84235E-005	0.00000E+000	4.00072E-001	0.00000E+000	9	...........	1426.04
	85	116.1	4.00345E-001	1.84846E-005	0.00000E+000	4.00072E-001	0.00000E+000	9	...........	1426.04
	86	216.1	4.00355E-001	1.79477E-005	0.00000E+000	4.00072E-001	0.00000E+000	9	...........	1426.04
	87	300	4.00359E-001	1.77375E-005	0.00000E+000	4.00072E-001	0.00000E+000	9	...........	1426.04
	88	300.1	3.00319E-001	-4.40971E-004	0.00000E+000	3.00072E-001	0.00000E+000	9	...........	1426.04
	89	300.2	3.00317E-001	-3.86525E-004	0.00000E+000	3.00072E-001	0.00000E+000	9	...........	1426.04
	90	300.3	3.00314E-001	-3.41879E-004	0.00000E+000	3.00072E-001	0.00000E+000	9	...........	1426.04
	91	300.4	3.00306E-001	-3.03675E-004	0.00000E+000	3.00072E-001	0.00000E+000	9	...........	1426.04
	92	300.5	3.00310E-001	-2.70668E-004	0.00000E+000	3.00072E-001	0.00000E+000	9	...........	1426.04
	93	300.6	3.00304E-001	-2.41964E-004	0.00000E+000	3.00072E-001	0.00000E+000	9	...........	1426.04
	94	300.7	3.00307E-001	-2.17086E-004	0.00000E+000	3.00072E-001	0.00000E+000	9	...........	1426.04
	95	300.8	3.00303E-001	-1.95678E-004	0.00000E+000	3.00072E-001	0.00000E+000	9	...........	1426.04
	96	300.9	3.00312E-001	-1.77306E-004	0.00000E+000	3.00072E-001	0.00000E+000	9	...........	1426.04
	97	301	3.00309E-001	-1.61570E-004	0.00000E+000	3.00072E-001	0.00000E+000	9	...........	1426.04
