Data from AgNPs_FTO_APTES_UA_20uM_CRN_100uM_R6G_10uM_NaF_0.1M_Addition_RamanShift__13__17-33-44-879.txt Node

Date: Thu Feb 17 17:33:44 GMT 2022
User: TCL
Spectrometer: QEP01345
Trigger mode: 4
Integration Time (sec): 1.000000E1
Scans to average: 7
Electric dark correction enabled: true
Nonlinearity correction enabled: false
Boxcar width: 0
XAxis mode: Raman Shifts
Number of Pixels in Spectrum: 1044
>>>>>Begin Spectral Data<<<<<
46.04893	1.05357
50.45542	-0.80357
54.85868	-0.80357
59.25871	-1.08929
63.6555	77.33929
68.04907	72.19643
72.43941	76.33929
76.82654	82.19643
81.21044	90.33929
85.59113	89.05357
89.96862	92.33929
94.34289	90.91071
98.71396	99.91071
103.08183	100.625
107.4465	104.625
111.80798	103.33929
116.16626	102.33929
120.52136	111.19643
124.87327	114.05357
129.222	117.76786
133.56755	123.33929
137.90993	135.76786
142.24913	145.76786
146.58517	159.625
150.91804	176.76786
155.24774	217.33929
159.57429	261.91071
163.89768	333.48214
168.21792	433.625
172.53501	595.05357
176.84895	828.05357
181.15975	1172.76786
185.46741	1657.05357
189.77193	2293.625
194.07331	3100.19643
198.37157	4035.05357
202.6667	4998.33929
206.9587	5957.48214
211.24758	6912.91071
215.53334	7838.625
219.81599	8809.91071
224.09553	9870.91071
228.37195	11020.48214
232.64527	12348.91071
236.91549	13684.48214
241.18261	15130.33929
245.44663	16514.05357
249.70755	17789.76786
253.96539	18814.05357
258.22014	19732.91071
262.4718	20435.91071
266.72039	20911.76786
270.96589	21185.19643
275.20832	21201.19643
279.44768	21029.33929
283.68397	20756.91071
287.91719	20406.91071
292.14735	20171.48214
296.37445	20024.76786
300.59849	20049.48214
304.81948	20114.05357
309.03742	20109.05357
313.25231	20062.625
317.46415	19828.05357
321.67296	19520.33929
325.87872	19293.19643
330.08145	19200.76786
334.28114	19299.76786
338.47781	19478.48214
342.67145	19740.91071
346.86207	20022.76786
351.04966	20419.19643
355.23424	20820.19643
359.4158	21229.05357
363.59435	21542.76786
367.76989	21833.48214
371.94243	22004.91071
376.11196	22173.48214
380.27849	22345.625
384.44203	22453.33929
388.60257	22538.48214
392.76012	22668.91071
396.91468	22796.91071
401.06626	23043.05357
405.21485	23243.91071
409.36047	23257.48214
413.50311	23043.76786
417.64277	22797.48214
421.77947	22670.48214
425.9132	22719.05357
430.04396	22769.33929
434.17176	22899.76786
438.2966	23141.33929
442.41849	23449.05357
446.53742	23827.19643
450.6534	24271.19643
454.76644	24545.05357
458.87653	24724.625
462.98368	24723.91071
467.08789	24551.625
471.18916	24374.91071
475.2875	24219.625
479.38291	24029.19643
483.4754	23894.625
487.56496	23766.625
491.6516	23685.05357
495.73531	23711.625
499.81612	23651.19643
503.89401	23823.91071
507.96899	23935.625
512.04106	24061.48214
516.11023	24131.05357
520.1765	24203.33929
524.23987	24203.625
528.30034	24155.76786
532.35792	24142.91071
536.41261	24094.625
540.46441	23936.48214
544.51333	23864.625
548.55936	23904.19643
552.60252	24062.19643
556.64279	24193.19643
560.6802	24341.19643
564.71473	24321.05357
568.7464	24347.625
572.7752	24474.91071
576.80114	24543.05357
580.82422	24548.19643
584.84444	24684.05357
588.86181	24941.625
592.87633	25280.33929
596.888	25504.19643
600.89682	25696.05357
604.9028	26340.91071
608.90594	28199.33929
612.90624	30431.48214
616.90371	29603.33929
620.89834	26444.625
624.89015	25007.19643
628.87913	24866.19643
632.86528	24842.48214
636.84862	24799.05357
640.82913	24702.91071
644.80683	24404.76786
648.78172	24152.19643
652.75379	24168.76786
656.72306	24367.48214
660.68952	24654.76786
664.65319	24673.76786
668.61405	24482.48214
672.57211	24473.48214
676.52738	24651.33929
680.47986	24725.625
684.42955	24694.05357
688.37646	24583.76786
692.32058	24590.91071
696.26192	24674.33929
700.20048	24743.91071
704.13626	24733.33929
708.06928	24710.33929
711.99952	24585.48214
715.927	24506.48214
719.85171	24556.76786
723.77365	24533.05357
727.69284	24524.33929
731.60928	24499.19643
735.52295	24483.33929
739.43388	24504.76786
743.34206	24552.05357
747.24749	24564.76786
751.15017	24519.48214
755.05012	24597.05357
758.94733	24847.76786
762.8418	25407.33929
766.73354	26483.05357
770.62254	27733.91071
774.50882	28493.91071
778.39237	28057.19643
782.27321	26770.91071
786.15132	25602.76786
790.02671	24849.48214
793.89938	24491.19643
797.76935	24346.76786
801.6366	24309.76786
805.50115	24302.91071
809.36299	24226.33929
813.22213	24085.19643
817.07857	24032.91071
820.93231	24008.05357
824.78336	24014.91071
828.63172	24041.625
832.47738	24084.91071
836.32036	24118.33929
840.16066	24203.76786
843.99827	24251.625
847.8332	24252.76786
851.66546	24248.625
855.49504	24220.625
859.32195	24262.91071
863.1462	24324.91071
866.96777	24293.48214
870.78668	24306.48214
874.60293	24357.91071
878.41652	24361.625
882.22745	24415.76786
886.03573	24462.91071
889.84136	24507.91071
893.64433	24349.48214
897.44466	24261.76786
901.24235	24177.05357
905.0374	24085.76786
908.8298	24042.19643
912.61957	23988.33929
916.40671	23999.91071
920.19121	24140.33929
923.97308	24249.05357
927.75233	24364.76786
931.52895	24435.91071
935.30295	24337.76786
939.07433	24139.05357
942.84309	23951.05357
946.60924	23838.76786
950.37278	23808.19643
954.13371	23740.48214
957.89203	23632.48214
961.64774	23578.48214
965.40086	23467.76786
969.15137	23433.76786
972.89929	23360.91071
976.64461	23413.05357
980.38733	23455.48214
984.12747	23524.76786
987.86502	23660.76786
991.59999	23847.05357
995.33237	24106.76786
999.06217	24423.19643
1002.78939	24855.625
1006.51404	24997.625
1010.23611	25039.48214
1013.95561	25147.625
1017.67255	25220.33929
1021.38692	25139.76786
1025.09872	25048.33929
1028.80796	25140.33929
1032.51465	25605.48214
1036.21877	25946.91071
1039.92035	26076.91071
1043.61937	25788.48214
1047.31584	25515.625
1051.00976	25121.91071
1054.70114	24920.48214
1058.38998	24922.05357
1062.07627	24881.19643
1065.76003	24866.48214
1069.44126	24843.33929
1073.11995	24936.91071
1076.79611	25120.05357
1080.46974	25209.91071
1084.14085	25334.48214
1087.80943	25485.19643
1091.47549	25570.19643
1095.13903	25485.33929
1098.80005	25291.76786
1102.45857	25127.48214
1106.11456	25030.48214
1109.76805	25095.19643
1113.41903	25206.91071
1117.06751	25327.33929
1120.71348	25474.19643
1124.35696	25675.19643
1127.99793	25868.19643
1131.63641	25961.19643
1135.2724	25823.91071
1138.90589	25575.33929
1142.5369	25319.05357
1146.16542	25166.48214
1149.79145	25014.625
1153.415	24948.33929
1157.03607	24953.625
1160.65467	25122.33929
1164.27079	25593.05357
1167.88443	26155.91071
1171.49561	26906.91071
1175.10432	27970.91071
1178.71056	29352.625
1182.31434	30740.625
1185.91565	31485.19643
1189.51451	31404.19643
1193.11091	30619.625
1196.70485	29652.05357
1200.29634	28783.625
1203.88538	28158.76786
1207.47197	27518.625
1211.05612	27020.91071
1214.63782	26722.19643
1218.21708	26616.05357
1221.79391	26652.625
1225.36829	26816.19643
1228.94024	26728.19643
1232.50976	26483.05357
1236.07685	26206.33929
1239.6415	26144.48214
1243.20374	26155.625
1246.76355	26298.91071
1250.32093	26510.19643
1253.8759	26801.05357
1257.42845	27151.48214
1260.97859	27508.48214
1264.52631	27859.33929
1268.07163	28316.91071
1271.61453	28721.19643
1275.15503	29183.05357
1278.69312	29629.91071
1282.22882	29967.33929
1285.76211	30226.76786
1289.29301	30395.19643
1292.82151	30683.76786
1296.34761	31152.76786
1299.87133	32007.76786
1303.39266	33251.05357
1306.9116	34890.76786
1310.42815	36533.33929
1313.94233	37577.48214
1317.45412	37290.05357
1320.96354	36157.48214
1324.47058	34836.48214
1327.97525	33564.76786
1331.47754	32683.76786
1334.97747	32257.76786
1338.47502	32160.33929
1341.97022	32422.05357
1345.46305	32832.33929
1348.95352	33422.76786
1352.44163	34279.19643
1355.92738	35689.91071
1359.41078	37489.33929
1362.89183	38961.05357
1366.37053	38266.33929
1369.84688	35457.91071
1373.32088	32384.625
1376.79254	30227.05357
1380.26186	29182.33929
1383.72883	28672.76786
1387.19347	28268.05357
1390.65578	27797.19643
1394.11575	27420.625
1397.57339	27259.625
1401.0287	27344.91071
1404.48168	27476.76786
1407.93234	27497.19643
1411.38068	27516.05357
1414.82669	27499.48214
1418.27039	27359.33929
1421.71177	27184.76786
1425.15083	26853.76786
1428.58758	26673.48214
1432.02203	26663.48214
1435.45416	26891.76786
1438.88399	27108.91071
1442.31151	27242.625
1445.73673	27338.33929
1449.15965	27405.33929
1452.58027	27387.76786
1455.9986	27309.05357
1459.41463	27292.48214
1462.82837	27534.76786
1466.23982	27940.91071
1469.64898	28265.05357
1473.05586	28584.33929
1476.46045	28775.05357
1479.86276	28936.91071
1483.26279	28915.19643
1486.66054	28990.625
1490.05602	29138.48214
1493.44922	29407.33929
1496.84016	29758.05357
1500.22882	30466.625
1503.61521	31459.19643
1506.99934	32645.76786
1510.38121	33732.33929
1513.76081	33897.19643
1517.13816	33068.19643
1520.51324	31685.33929
1523.88607	30254.05357
1527.25665	29315.76786
1530.62498	28856.48214
1533.99105	28536.33929
1537.35488	28353.625
1540.71647	28366.19643
1544.07581	28265.625
1547.4329	28179.19643
1550.78776	28063.76786
1554.14038	27999.625
1557.49077	27962.48214
1560.83892	28022.05357
1564.18484	28082.05357
1567.52853	28217.33929
1570.86999	28368.48214
1574.20922	28560.76786
1577.54624	28541.05357
1580.88103	28255.33929
1584.2136	27854.48214
1587.54395	27777.48214
1590.87208	28213.76786
1594.19801	29207.91071
1597.52172	30505.05357
1600.84321	31233.19643
1604.16251	30773.05357
1607.47959	29678.76786
1610.79447	28427.19643
1614.10715	27245.91071
1617.41763	26257.19643
1620.7259	25576.625
1624.03199	25176.33929
1627.33587	25082.33929
1630.63757	25352.76786
1633.93707	25911.91071
1637.23439	26806.625
1640.52951	28095.33929
1643.82246	29597.33929
1647.11321	31012.48214
1650.40179	31547.76786
1653.68819	30553.91071
1656.97241	28506.76786
1660.25446	26470.33929
1663.53433	24975.05357
1666.81203	24054.48214
1670.08756	23498.625
1673.36092	23055.05357
1676.63211	22880.625
1679.90115	22647.19643
1683.16801	22505.91071
1686.43272	22335.05357
1689.69527	22286.625
1692.95567	22210.05357
1696.2139	22182.19643
1699.46999	22148.19643
1702.72392	22130.33929
1705.97571	22017.33929
1709.22535	22084.05357
1712.47284	22023.19643
1715.71819	22022.05357
1718.96139	21986.33929
1722.20246	21957.33929
1725.44139	21886.33929
1728.67818	21839.05357
1731.91284	21792.33929
1735.14537	21779.91071
1738.37576	21702.91071
1741.60403	21650.91071
1744.83017	21609.91071
1748.05418	21611.19643
1751.27607	21577.33929
1754.49584	21544.05357
1757.71349	21558.76786
1760.92903	21593.19643
1764.14244	21526.05357
1767.35375	21516.05357
1770.56294	21434.19643
1773.77002	21407.48214
1776.97499	21371.33929
1780.17785	21376.91071
1783.37861	21369.19643
1786.57727	21336.33929
1789.77382	21243.48214
1792.96828	21268.48214
1796.16064	21211.05357
1799.3509	21140.625
1802.53907	21099.76786
1805.72514	21073.19643
1808.90913	21055.05357
1812.09102	21027.33929
1815.27083	20973.33929
1818.44856	20977.625
1821.6242	20919.625
1824.79776	20906.05357
1827.96924	20878.91071
1831.13864	20818.91071
1834.30597	20828.48214
1837.47122	20829.19643
1840.6344	20831.33929
1843.7955	20810.625
1846.95454	20830.625
1850.11151	20797.48214
1853.26642	20799.76786
1856.41926	20751.91071
1859.57004	20706.625
1862.71876	20756.48214
1865.86542	20730.05357
1869.01003	20735.48214
1872.15258	20698.76786
1875.29308	20713.76786
1878.43152	20696.76786
1881.56792	20671.05357
1884.70227	20654.625
1887.83457	20621.91071
1890.96482	20602.625
1894.09304	20573.05357
1897.21921	20583.76786
1900.34335	20541.19643
1903.46544	20519.91071
1906.58551	20484.91071
1909.70353	20489.76786
1912.81953	20458.33929
1915.93349	20432.48214
1919.04543	20458.19643
1922.15534	20396.91071
1925.26322	20410.48214
1928.36908	20325.91071
1931.47292	20294.48214
1934.57473	20298.19643
1937.67453	20233.33929
1940.77232	20214.91071
1943.86808	20134.19643
1946.96184	20081.91071
1950.05358	20034.48214
1953.14331	20010.48214
1956.23103	19990.19643
1959.31675	19921.76786
1962.40046	19883.19643
1965.48217	19841.48214
1968.56188	19777.625
1971.63959	19713.05357
1974.7153	19641.625
1977.78901	19588.33929
1980.86073	19571.76786
1983.93046	19520.33929
1986.99819	19475.76786
1990.06394	19367.76786
1993.1277	19369.625
1996.18947	19300.91071
1999.24925	19245.76786
2002.30706	19182.33929
2005.36288	19113.76786
2008.41672	19076.48214
2011.46859	19028.19643
2014.51848	18985.91071
2017.56639	18973.48214
2020.61233	18932.19643
2023.6563	18847.91071
2026.6983	18840.91071
2029.73833	18794.76786
2032.7764	18762.91071
2035.8125	18732.48214
2038.84664	18662.05357
2041.87881	18712.625
2044.90903	18655.48214
2047.93729	18623.05357
2050.96359	18610.48214
2053.98794	18577.19643
2057.01034	18525.625
2060.03078	18531.19643
2063.04927	18504.05357
2066.06582	18520.76786
2069.08042	18491.05357
2072.09307	18526.19643
2075.10378	18491.625
2078.11255	18479.05357
2081.11938	18520.48214
2084.12426	18473.91071
2087.12722	18477.91071
2090.12824	18474.05357
2093.12732	18480.625
2096.12447	18436.48214
2099.11969	18472.91071
2102.11299	18518.625
2105.10435	18582.625
2108.09379	18513.625
2111.08131	18543.48214
2114.0669	18570.76786
2117.05057	18562.48214
2120.03233	18572.91071
2123.01216	18616.48214
2125.99008	18644.33929
2128.96609	18652.48214
2131.94018	18689.48214
2134.91236	18708.91071
2137.88263	18712.05357
2140.851	18718.76786
2143.81746	18750.76786
2146.78201	18747.33929
2149.74466	18740.05357
2152.7054	18794.19643
2155.66425	18763.625
2158.6212	18758.76786
2161.57625	18715.76786
2164.52941	18719.76786
2167.48067	18763.91071
2170.43004	18710.91071
2173.37752	18752.625
2176.32311	18771.19643
2179.26681	18728.19643
2182.20863	18720.05357
2185.14856	18770.19643
2188.08661	18770.19643
2191.02278	18777.33929
2193.95707	18749.76786
2196.88948	18739.625
2199.82001	18727.91071
2202.74867	18693.625
2205.67545	18721.05357
2208.60037	18701.19643
2211.52341	18679.48214
2214.44458	18688.625
2217.36388	18618.05357
2220.28132	18634.05357
2223.1969	18574.91071
2226.11061	18520.33929
2229.02246	18520.91071
2231.93245	18498.91071
2234.84058	18398.625
2237.74686	18392.05357
2240.65128	18397.625
2243.55385	18382.76786
2246.45456	18380.48214
2249.35343	18353.33929
2252.25044	18368.76786
2255.14561	18308.625
2258.03893	18306.91071
2260.93041	18242.19643
2263.82004	18220.19643
2266.70783	18195.625
2269.59378	18117.05357
2272.4779	18123.19643
2275.36017	18034.91071
2278.24061	18032.48214
2281.11922	18035.33929
2283.996	18026.91071
2286.87094	18029.76786
2289.74405	17954.05357
2292.61534	17999.33929
2295.4848	17970.91071
2298.35243	17973.05357
2301.21824	17922.19643
2304.08223	17957.91071
2306.94439	17916.76786
2309.80474	17933.48214
2312.66327	17931.76786
2315.51999	17945.48214
2318.37489	17936.33929
2321.22797	17914.19643
2324.07925	17859.05357
2326.92871	17842.05357
2329.77637	17821.48214
2332.62222	17807.33929
2335.46626	17814.76786
2338.3085	17771.91071
2341.14893	17739.05357
2343.98756	17784.76786
2346.8244	17753.76786
2349.65943	17716.625
2352.49267	17719.625
2355.32411	17759.33929
2358.15376	17728.625
2360.98161	17714.19643
2363.80768	17635.33929
2366.63195	17665.19643
2369.45444	17621.48214
2372.27514	17597.91071
2375.09405	17599.33929
2377.91118	17537.48214
2380.72652	17526.91071
2383.54009	17491.76786
2386.35187	17466.91071
2389.16188	17461.48214
2391.97011	17411.625
2394.77657	17378.91071
2397.58125	17376.48214
2400.38416	17356.05357
2403.18529	17353.76786
2405.98466	17346.19643
2408.78226	17284.76786
2411.57809	17242.05357
2414.37216	17176.33929
2417.16446	17206.33929
2419.955	17185.48214
2422.74378	17153.91071
2425.5308	17115.33929
2428.31606	17115.91071
2431.09956	17137.33929
2433.88131	17086.76786
2436.6613	17118.19643
2439.43954	17116.19643
2442.21603	17123.33929
2444.99077	17097.05357
2447.76377	17098.48214
2450.53501	17086.91071
2453.30451	17089.625
2456.07226	17033.76786
2458.83827	17030.91071
2461.60254	17018.33929
2464.36507	16999.05357
2467.12586	16948.19643
2469.88492	16914.33929
2472.64224	16933.76786
2475.39782	16955.19643
2478.15167	16964.625
2480.90379	16972.05357
2483.65417	17009.05357
2486.40283	16997.91071
2489.14976	16998.33929
2491.89497	17009.625
2494.63845	16996.48214
2497.3802	17003.625
2500.12024	16948.76786
2502.85855	16969.19643
2505.59514	16936.33929
2508.33002	16897.76786
2511.06318	16871.19643
2513.79462	16877.48214
2516.52435	16815.48214
2519.25237	16847.76786
2521.97867	16796.76786
2524.70327	16794.91071
2527.42616	16788.33929
2530.14734	16759.48214
2532.86681	16740.19643
2535.58458	16735.05357
2538.30065	16729.33929
2541.01501	16722.91071
2543.72768	16691.48214
2546.43864	16666.33929
2549.14791	16633.19643
2551.85548	16650.76786
2554.56136	16575.19643
2557.26554	16587.19643
2559.96803	16548.19643
2562.66883	16512.48214
2565.36794	16489.625
2568.06536	16478.19643
2570.7611	16459.48214
2573.45514	16446.19643
2576.14751	16412.91071
2578.83819	16402.33929
2581.52719	16428.05357
2584.21451	16328.19643
2586.90015	16369.91071
2589.58411	16359.91071
2592.2664	16308.91071
2594.94701	16257.625
2597.62594	16270.19643
2600.30321	16255.33929
2602.9788	16231.33929
2605.65273	16203.91071
2608.32498	16213.05357
2610.99557	16174.19643
2613.66449	16206.625
2616.33175	16192.19643
2618.99734	16184.91071
2621.66128	16162.91071
2624.32355	16121.05357
2626.98416	16122.91071
2629.64311	16092.19643
2632.30041	16115.625
2634.95605	16099.33929
2637.61004	16063.76786
2640.26238	16028.91071
2642.91306	16011.625
2645.56209	16051.76786
2648.20948	16048.625
2650.85521	15983.05357
2653.4993	15994.05357
2656.14175	16004.76786
2658.78255	16001.91071
2661.42171	15968.91071
2664.05923	16005.05357
2666.6951	15969.625
2669.32934	16027.48214
2671.96194	15988.76786
2674.59291	15986.91071
2677.22224	16010.625
2679.84993	15960.33929
2682.476	15964.625
2685.10043	15969.05357
2687.72324	15940.91071
2690.34441	15927.33929
2692.96396	15941.05357
2695.58188	15980.19643
2698.19818	15895.48214
2700.81285	15917.48214
2703.4259	15892.76786
2706.03733	15907.91071
2708.64714	15944.05357
2711.25533	15931.625
2713.86191	15931.48214
2716.46687	15994.48214
2719.07021	15967.76786
2721.67194	15982.05357
2724.27206	15964.625
2726.87057	15977.19643
2729.46747	15992.05357
2732.06276	15990.91071
2734.65644	15939.76786
2737.24852	15954.05357
2739.83899	15905.33929
2742.42786	15947.76786
2745.01513	15880.91071
2747.60079	15894.76786
2750.18486	15877.19643
2752.76733	15865.76786
2755.3482	15835.76786
2757.92747	15842.91071
2760.50515	15871.91071
2763.08123	15834.625
2765.65573	15791.19643
2768.22863	15785.48214
2770.79994	15783.76786
2773.36967	15751.48214
2775.9378	15703.625
2778.50435	15724.33929
2781.06932	15715.33929
2783.6327	15722.91071
2786.1945	15674.33929
2788.75471	15663.625
2791.31335	15622.05357
2793.87041	15627.19643
2796.42589	15597.48214
2798.97979	15582.33929
2801.53212	15519.76786
2804.08288	15568.48214
2806.63206	15493.625
2809.17967	15460.76786
2811.72571	15471.19643
2814.27018	15430.19643
2816.81308	15405.19643
2819.35442	15354.625
2821.89419	15299.33929
2824.43239	15265.76786
2826.96904	15316.48214
2829.50412	15299.19643
2832.03763	15281.48214
2834.56959	15285.05357
2837.1	15237.625
2839.62884	15221.625
2842.15613	15198.91071
2844.68186	15229.91071
2847.20604	15165.05357
2849.72867	15218.33929
2852.24974	15204.33929
2854.76927	15179.05357
2857.28724	15144.05357
2859.80367	15174.625
2862.31855	15132.76786
2864.83189	15135.91071
2867.34368	15113.19643
2869.85393	15074.33929
2872.36264	15078.19643
2874.8698	15051.76786
2877.37543	15076.19643
2879.87952	15060.48214
2882.38207	15074.48214
2884.88308	15055.19643
2887.38256	15088.33929
2889.88051	15087.05357
2892.37692	15126.76786
2894.8718	15094.91071
2897.36515	15131.48214
2899.85698	15108.19643
2902.34727	15166.33929
2904.83604	15168.625
2907.32328	15153.48214
2909.809	15177.33929
2912.29319	15219.76786
2914.77587	15223.48214
2917.25702	15214.625
2919.73665	15206.76786
2922.21476	15210.76786
2924.69136	15190.05357
2927.16644	15182.48214
2929.64	15171.05357
2932.11205	15158.76786
2934.58258	15094.48214
2937.05161	15131.19643
2939.51912	15160.625
2941.98513	15147.48214
2944.44962	15148.05357
2946.91261	15099.625
2949.37409	15140.48214
2951.83407	15119.76786
2954.29254	15144.76786
2956.74951	15125.48214
2959.20498	15150.19643
2961.65895	15088.33929
2964.11142	15084.76786
2966.56239	15024.48214
2969.01186	15062.33929
2971.45984	15037.91071
2973.90632	15045.625
2976.35131	14966.91071
2978.7948	14945.76786
2981.23681	14939.91071
2983.67732	14933.91071
2986.11635	14889.625
2988.55388	14860.625
2990.98993	14824.76786
2993.4245	14851.76786
2995.85758	14796.33929
2998.28917	14775.19643
3000.71928	14758.91071
3003.14791	14750.48214
3005.57506	14725.05357
3008.00073	14714.48214
3010.42493	14691.48214
3012.84764	14684.91071
3015.26888	14674.91071
3017.68865	14647.33929
3020.10694	14638.05357
3022.52376	14622.48214
3024.9391	14591.625
3027.35298	14554.48214
3029.76539	14581.48214
3032.17632	14531.48214
3034.5858	14541.33929
3036.9938	14519.05357
3039.40034	14493.76786
3041.80542	14503.91071
3044.20903	14453.76786
3046.61118	14495.625
3049.01187	14453.76786
3051.4111	14474.91071
3053.80888	14422.48214
3056.20519	14395.76786
3058.60005	14376.76786
3060.99345	14368.76786
3063.3854	14331.48214
3065.7759	14302.625
3068.16494	14294.33929
3070.55254	14276.76786
3072.93868	14248.91071
3075.32338	14222.48214
3077.70662	14192.76786
3080.08842	14157.19643
3082.46878	14170.91071
3084.84769	14148.19643
3087.22515	14141.625
3089.60118	14203.19643
3091.97576	14176.76786
3094.3489	14186.625
3096.72061	14175.76786
3099.09087	14187.05357
3101.4597	14165.33929
3103.82709	14175.19643
3106.19305	14192.625
3108.55757	14205.05357
3110.92066	14174.91071
3113.28232	14174.76786
3115.64255	14112.48214
3118.00134	14098.625
3120.35871	14091.33929
3122.71466	14065.91071
3125.06917	14041.33929
3127.42226	14028.625
3129.77393	14025.48214
3132.12417	14036.91071
3134.47299	14006.19643
3136.82039	13962.19643
3139.16636	13980.76786
3141.51092	14025.91071
3143.85406	13994.05357
3146.19579	14079.91071
3148.53609	14062.625
3150.87499	14069.625
3153.21246	14100.05357
3155.54853	14092.48214
3157.88318	14098.05357
3160.21642	14146.625
3162.54826	14159.625
3164.87868	14147.05357
3167.2077	14145.625
3169.5353	14149.91071
3171.86151	14134.19643
3174.18631	14138.91071
3176.5097	14162.33929
3178.83169	14115.48214
3181.15228	14139.91071
3183.47147	14100.05357
3185.78926	14102.33929
3188.10565	14063.33929
3190.42065	14065.76786
3192.73424	14089.33929
3195.04645	14060.625
3197.35725	14072.76786
3199.66667	14048.48214
3201.97469	14063.33929
3204.28132	14038.48214
3206.58656	14114.625
3208.8904	14110.625
3211.19287	14087.05357
3213.49394	14128.91071
3215.79363	14153.91071
3218.09193	14157.19643
3220.38884	14107.625
3222.68438	14184.76786
3224.97853	14166.625
3227.2713	14143.19643
3229.56269	14149.33929
3231.8527	14138.48214
3234.14133	14119.625
3236.42858	14076.33929
3238.71446	14088.33929
3240.99896	14075.33929
3243.28209	14017.91071
3245.56384	13996.19643
3247.84423	14019.625
3250.12324	14023.33929
3252.40088	14039.91071
3254.67715	14032.625
3256.95205	14005.76786
3259.22558	14022.48214
3261.49775	14010.91071
3263.76855	13989.76786
3266.03799	14006.48214
3268.30606	13990.19643
3270.57277	13975.76786
3272.83812	13983.91071
3275.10211	13890.76786
3277.36474	13897.91071
3279.62601	13887.91071
3281.88593	13872.625
3284.14448	13885.76786
3286.40168	13899.33929
3288.65753	13824.48214
3290.91202	13871.76786
3293.16516	13803.76786
3295.41695	13796.33929
3297.66738	13761.91071
3299.91647	13687.76786
3302.16421	13621.91071
3304.4106	13530.19643
3306.65564	13488.19643
3308.89933	13392.19643
3311.14169	13296.625
3313.38269	13221.19643
3315.62236	13126.05357
3317.86068	13043.33929
3320.09766	12976.05357
3322.3333	12883.19643
3324.5676	12826.05357
3326.80056	12661.91071
3329.03219	12571.91071
3331.26248	1.05357
3333.49143	-0.94643
3335.71905	0.19643
