Data from AgNPs_FTO_APTES_UA_20uM_CRN_200uM_R6G_10uM_NaF_0.1M_Addition_RamanShift__11__18-05-14-919.txt Node

Date: Thu Feb 17 18:05:14 GMT 2022
User: TCL
Spectrometer: QEP01345
Trigger mode: 4
Integration Time (sec): 1.000000E1
Scans to average: 7
Electric dark correction enabled: true
Nonlinearity correction enabled: false
Boxcar width: 0
XAxis mode: Raman Shifts
Number of Pixels in Spectrum: 1044
>>>>>Begin Spectral Data<<<<<
46.04893	-0.33929
50.45542	-1.05357
54.85868	0.08929
59.25871	-2.19643
63.6555	77.375
68.04907	79.94643
72.43941	80.375
76.82654	87.80357
81.21044	95.80357
85.59113	94.375
89.96862	97.66071
94.34289	92.80357
98.71396	103.375
103.08183	105.375
107.4465	111.94643
111.80798	108.94643
116.16626	112.66071
120.52136	117.375
124.87327	124.80357
129.222	130.375
133.56755	126.94643
137.90993	146.80357
142.24913	155.23214
146.58517	167.66071
150.91804	198.66071
155.24774	233.375
159.57429	281.51786
163.89768	354.375
168.21792	476.23214
172.53501	639.66071
176.84895	891.66071
181.15975	1272.375
185.46741	1793.66071
189.77193	2484.80357
194.07331	3358.94643
198.37157	4353.51786
202.6667	5391.66071
206.9587	6459.375
211.24758	7490.51786
215.53334	8511.375
219.81599	9559.51786
224.09553	10659.51786
228.37195	11896.375
232.64527	13244.23214
236.91549	14782.375
241.18261	16289.66071
245.44663	17824.08929
249.70755	19224.08929
253.96539	20455.23214
258.22014	21486.80357
262.4718	22325.94643
266.72039	22874.08929
270.96589	23101.66071
275.20832	23145.51786
279.44768	22979.08929
283.68397	22724.08929
287.91719	22476.51786
292.14735	22202.375
296.37445	22035.94643
300.59849	21942.66071
304.81948	21948.08929
309.03742	21903.23214
313.25231	21872.375
317.46415	21803.375
321.67296	21610.23214
325.87872	21476.23214
330.08145	21432.23214
334.28114	21542.51786
338.47781	21712.08929
342.67145	21938.51786
346.86207	22240.51786
351.04966	22558.66071
355.23424	22940.94643
359.4158	23215.23214
363.59435	23522.51786
367.76989	23736.08929
371.94243	23963.66071
376.11196	24065.80357
380.27849	24217.80357
384.44203	24431.23214
388.60257	24577.23214
392.76012	24798.80357
396.91468	25013.08929
401.06626	25354.08929
405.21485	25536.08929
409.36047	25593.94643
413.50311	25467.94643
417.64277	25431.66071
421.77947	25421.23214
425.9132	25531.51786
430.04396	25742.51786
434.17176	25880.23214
438.2966	26074.23214
442.41849	26361.94643
446.53742	26673.80357
450.6534	27055.23214
454.76644	27365.375
458.87653	27492.94643
462.98368	27520.94643
467.08789	27492.66071
471.18916	27392.23214
475.2875	27192.51786
479.38291	27037.375
483.4754	26815.80357
487.56496	26709.51786
491.6516	26681.08929
495.73531	26682.51786
499.81612	26664.23214
503.89401	26831.08929
507.96899	26958.23214
512.04106	27054.66071
516.11023	27089.51786
520.1765	27078.375
524.23987	27038.80357
528.30034	27060.80357
532.35792	27042.23214
536.41261	26997.23214
540.46441	26900.66071
544.51333	26901.375
548.55936	26962.08929
552.60252	27215.66071
556.64279	27434.94643
560.6802	27521.08929
564.71473	27608.23214
568.7464	27694.23214
572.7752	27844.94643
576.80114	28096.66071
580.82422	28412.08929
584.84444	28826.23214
588.86181	29273.23214
592.87633	29714.23214
596.888	30111.80357
600.89682	30119.375
604.9028	30292.66071
608.90594	31295.66071
612.90624	32609.51786
616.90371	31754.94643
620.89834	29340.23214
624.89015	28178.80357
628.87913	27993.375
632.86528	28153.66071
636.84862	28299.51786
640.82913	28220.80357
644.80683	27957.94643
648.78172	27775.08929
652.75379	27786.51786
656.72306	27965.94643
660.68952	28209.08929
664.65319	28222.94643
668.61405	28107.23214
672.57211	28145.08929
676.52738	28263.375
680.47986	28377.08929
684.42955	28371.23214
688.37646	28308.08929
692.32058	28328.23214
696.26192	28422.08929
700.20048	28636.94643
704.13626	28768.51786
708.06928	28795.51786
711.99952	28738.80357
715.927	28669.375
719.85171	28719.51786
723.77365	28651.08929
727.69284	28531.08929
731.60928	28431.80357
735.52295	28399.51786
739.43388	28399.80357
743.34206	28467.66071
747.24749	28552.08929
751.15017	28652.80357
755.05012	28810.66071
758.94733	29134.23214
762.8418	29752.51786
766.73354	30620.51786
770.62254	31623.80357
774.50882	31997.66071
778.39237	31529.66071
782.27321	30620.51786
786.15132	29701.80357
790.02671	29139.66071
793.89938	28790.23214
797.76935	28624.80357
801.6366	28504.94643
805.50115	28500.94643
809.36299	28406.66071
813.22213	28378.80357
817.07857	28360.23214
820.93231	28361.08929
824.78336	28373.23214
828.63172	28352.08929
832.47738	28386.80357
836.32036	28423.375
840.16066	28451.23214
843.99827	28454.94643
847.8332	28518.08929
851.66546	28549.94643
855.49504	28628.23214
859.32195	28633.51786
863.1462	28650.94643
866.96777	28654.375
870.78668	28665.375
874.60293	28764.94643
878.41652	28749.80357
882.22745	28819.375
886.03573	28896.23214
889.84136	28894.51786
893.64433	28869.66071
897.44466	28823.23214
901.24235	28808.23214
905.0374	28794.23214
908.8298	28708.375
912.61957	28661.80357
916.40671	28719.23214
920.19121	28810.66071
923.97308	28939.08929
927.75233	28901.66071
931.52895	28860.80357
935.30295	28747.375
939.07433	28611.08929
942.84309	28446.80357
946.60924	28393.375
950.37278	28294.23214
954.13371	28242.66071
957.89203	28240.80357
961.64774	28234.66071
965.40086	28200.80357
969.15137	28207.51786
972.89929	28153.51786
976.64461	28135.94643
980.38733	28150.375
984.12747	28188.08929
987.86502	28227.375
991.59999	28313.80357
995.33237	28353.23214
999.06217	28532.80357
1002.78939	28734.94643
1006.51404	28969.80357
1010.23611	29241.94643
1013.95561	29428.23214
1017.67255	29502.08929
1021.38692	29440.23214
1025.09872	29255.66071
1028.80796	29071.375
1032.51465	28988.375
1036.21877	28953.80357
1039.92035	28958.94643
1043.61937	29084.94643
1047.31584	29182.66071
1051.00976	29183.51786
1054.70114	29268.66071
1058.38998	29314.08929
1062.07627	29426.80357
1065.76003	29558.94643
1069.44126	29678.94643
1073.11995	29938.80357
1076.79611	30145.51786
1080.46974	30307.94643
1084.14085	30354.51786
1087.80943	30417.08929
1091.47549	30507.66071
1095.13903	30517.51786
1098.80005	30466.08929
1102.45857	30252.51786
1106.11456	30116.51786
1109.76805	29959.66071
1113.41903	29913.08929
1117.06751	29899.94643
1120.71348	30059.94643
1124.35696	30181.51786
1127.99793	30363.51786
1131.63641	30454.23214
1135.2724	30372.08929
1138.90589	30325.94643
1142.5369	30273.66071
1146.16542	30257.94643
1149.79145	30178.51786
1153.415	30161.08929
1157.03607	30221.94643
1160.65467	30401.80357
1164.27079	30775.51786
1167.88443	31300.08929
1171.49561	31983.51786
1175.10432	32857.08929
1178.71056	33887.23214
1182.31434	34950.80357
1185.91565	35695.80357
1189.51451	35945.08929
1193.11091	35880.80357
1196.70485	35465.375
1200.29634	34948.08929
1203.88538	34294.94643
1207.47197	33659.94643
1211.05612	33151.375
1214.63782	32716.08929
1218.21708	32326.51786
1221.79391	32154.94643
1225.36829	31981.94643
1228.94024	31918.51786
1232.50976	31895.94643
1236.07685	31832.66071
1239.6415	31794.80357
1243.20374	31834.51786
1246.76355	31839.66071
1250.32093	31986.80357
1253.8759	32184.66071
1257.42845	32523.51786
1260.97859	32890.94643
1264.52631	33267.80357
1268.07163	33607.08929
1271.61453	33878.23214
1275.15503	34132.375
1278.69312	34406.08929
1282.22882	34662.375
1285.76211	34968.94643
1289.29301	35331.51786
1292.82151	35829.51786
1296.34761	36338.80357
1299.87133	37077.66071
1303.39266	37880.375
1306.9116	38744.94643
1310.42815	39694.94643
1313.94233	40235.80357
1317.45412	40089.51786
1320.96354	39653.80357
1324.47058	39081.66071
1327.97525	38607.51786
1331.47754	38454.66071
1334.97747	38390.80357
1338.47502	38515.94643
1341.97022	38908.66071
1345.46305	39441.08929
1348.95352	40015.51786
1352.44163	40516.66071
1355.92738	40963.23214
1359.41078	41612.375
1362.89183	42055.94643
1366.37053	41504.375
1369.84688	39674.23214
1373.32088	37352.94643
1376.79254	35661.66071
1380.26186	34739.51786
1383.72883	34267.66071
1387.19347	33888.51786
1390.65578	33482.66071
1394.11575	33079.94643
1397.57339	32903.94643
1401.0287	32937.375
1404.48168	32990.80357
1407.93234	33034.80357
1411.38068	33002.51786
1414.82669	32892.23214
1418.27039	32644.375
1421.71177	32301.08929
1425.15083	32002.94643
1428.58758	31774.66071
1432.02203	31726.66071
1435.45416	31855.80357
1438.88399	32050.66071
1442.31151	32140.51786
1445.73673	32266.51786
1449.15965	32316.66071
1452.58027	32356.08929
1455.9986	32305.66071
1459.41463	32466.08929
1462.82837	32690.51786
1466.23982	33053.08929
1469.64898	33475.23214
1473.05586	33812.66071
1476.46045	34075.94643
1479.86276	34264.66071
1483.26279	34384.375
1486.66054	34497.23214
1490.05602	34726.51786
1493.44922	35095.08929
1496.84016	35635.80357
1500.22882	36322.80357
1503.61521	37175.23214
1506.99934	38041.375
1510.38121	38471.94643
1513.76081	38366.66071
1517.13816	37571.08929
1520.51324	36590.80357
1523.88607	35773.08929
1527.25665	35317.94643
1530.62498	35051.08929
1533.99105	34847.94643
1537.35488	34711.51786
1540.71647	34544.80357
1544.07581	34284.94643
1547.4329	33971.08929
1550.78776	33721.23214
1554.14038	33454.08929
1557.49077	33362.08929
1560.83892	33377.23214
1564.18484	33465.66071
1567.52853	33524.51786
1570.86999	33693.66071
1574.20922	33810.08929
1577.54624	33893.23214
1580.88103	33694.51786
1584.2136	33331.80357
1587.54395	33267.08929
1590.87208	33569.66071
1594.19801	34242.80357
1597.52172	35126.80357
1600.84321	35691.80357
1604.16251	35526.375
1607.47959	34840.23214
1610.79447	33868.375
1614.10715	32784.94643
1617.41763	31788.51786
1620.7259	30984.375
1624.03199	30400.80357
1627.33587	30167.23214
1630.63757	30316.51786
1633.93707	30768.94643
1637.23439	31600.66071
1640.52951	33007.375
1643.82246	34727.80357
1647.11321	36357.08929
1650.40179	36998.23214
1653.68819	36324.23214
1656.97241	34458.80357
1660.25446	32323.23214
1663.53433	30654.08929
1666.81203	29474.94643
1670.08756	28813.23214
1673.36092	28305.80357
1676.63211	27939.66071
1679.90115	27725.94643
1683.16801	27500.375
1686.43272	27330.375
1689.69527	27243.66071
1692.95567	27128.94643
1696.2139	27120.08929
1699.46999	27017.51786
1702.72392	27044.51786
1705.97571	27050.375
1709.22535	27045.94643
1712.47284	26963.23214
1715.71819	26951.51786
1718.96139	26940.375
1722.20246	26894.23214
1725.44139	26841.51786
1728.67818	26724.80357
1731.91284	26711.94643
1735.14537	26667.23214
1738.37576	26551.08929
1741.60403	26485.375
1744.83017	26447.80357
1748.05418	26375.23214
1751.27607	26345.23214
1754.49584	26304.80357
1757.71349	26298.375
1760.92903	26316.80357
1764.14244	26293.51786
1767.35375	26278.08929
1770.56294	26271.23214
1773.77002	26159.23214
1776.97499	26165.08929
1780.17785	26112.08929
1783.37861	26127.94643
1786.57727	26045.23214
1789.77382	25995.375
1792.96828	25977.51786
1796.16064	25925.66071
1799.3509	25831.23214
1802.53907	25835.375
1805.72514	25761.375
1808.90913	25738.66071
1812.09102	25671.375
1815.27083	25625.51786
1818.44856	25621.51786
1821.6242	25598.94643
1824.79776	25571.08929
1827.96924	25600.08929
1831.13864	25543.23214
1834.30597	25535.375
1837.47122	25461.94643
1840.6344	25461.51786
1843.7955	25503.08929
1846.95454	25388.375
1850.11151	25444.94643
1853.26642	25438.375
1856.41926	25391.66071
1859.57004	25428.66071
1862.71876	25352.80357
1865.86542	25351.80357
1869.01003	25372.66071
1872.15258	25272.08929
1875.29308	25241.66071
1878.43152	25249.08929
1881.56792	25234.94643
1884.70227	25176.66071
1887.83457	25111.66071
1890.96482	25123.23214
1894.09304	25096.23214
1897.21921	25048.80357
1900.34335	25035.51786
1903.46544	24997.08929
1906.58551	25004.51786
1909.70353	24943.23214
1912.81953	24881.375
1915.93349	24859.80357
1919.04543	24798.23214
1922.15534	24780.375
1925.26322	24698.80357
1928.36908	24739.94643
1931.47292	24677.08929
1934.57473	24627.80357
1937.67453	24577.66071
1940.77232	24515.51786
1943.86808	24412.375
1946.96184	24354.51786
1950.05358	24272.51786
1953.14331	24216.80357
1956.23103	24192.375
1959.31675	24137.94643
1962.40046	24092.23214
1965.48217	24017.94643
1968.56188	23973.375
1971.63959	23895.375
1974.7153	23774.94643
1977.78901	23729.66071
1980.86073	23695.08929
1983.93046	23611.94643
1986.99819	23507.94643
1990.06394	23479.80357
1993.1277	23446.51786
1996.18947	23264.08929
1999.24925	23210.51786
2002.30706	23182.94643
2005.36288	23074.23214
2008.41672	23044.51786
2011.46859	22975.80357
2014.51848	22925.23214
2017.56639	22846.66071
2020.61233	22813.375
2023.6563	22731.80357
2026.6983	22685.51786
2029.73833	22611.94643
2032.7764	22564.80357
2035.8125	22504.08929
2038.84664	22471.80357
2041.87881	22411.51786
2044.90903	22368.94643
2047.93729	22345.08929
2050.96359	22310.08929
2053.98794	22321.66071
2057.01034	22263.375
2060.03078	22245.66071
2063.04927	22237.80357
2066.06582	22232.08929
2069.08042	22206.08929
2072.09307	22208.51786
2075.10378	22192.375
2078.11255	22156.66071
2081.11938	22206.80357
2084.12426	22157.23214
2087.12722	22200.80357
2090.12824	22155.08929
2093.12732	22166.51786
2096.12447	22188.66071
2099.11969	22163.23214
2102.11299	22144.375
2105.10435	22150.80357
2108.09379	22154.80357
2111.08131	22237.08929
2114.0669	22247.80357
2117.05057	22216.23214
2120.03233	22243.66071
2123.01216	22295.80357
2125.99008	22276.08929
2128.96609	22302.66071
2131.94018	22385.94643
2134.91236	22338.51786
2137.88263	22362.51786
2140.851	22343.375
2143.81746	22405.80357
2146.78201	22375.66071
2149.74466	22386.66071
2152.7054	22380.80357
2155.66425	22357.80357
2158.6212	22355.08929
2161.57625	22354.94643
2164.52941	22398.51786
2167.48067	22369.23214
2170.43004	22328.94643
2173.37752	22304.80357
2176.32311	22299.94643
2179.26681	22277.80357
2182.20863	22280.51786
2185.14856	22312.66071
2188.08661	22314.66071
2191.02278	22264.80357
2193.95707	22286.23214
2196.88948	22264.80357
2199.82001	22256.66071
2202.74867	22240.375
2205.67545	22222.66071
2208.60037	22127.80357
2211.52341	22090.23214
2214.44458	22083.08929
2217.36388	22027.375
2220.28132	22009.51786
2223.1969	21928.51786
2226.11061	21896.23214
2229.02246	21831.375
2231.93245	21798.94643
2234.84058	21721.375
2237.74686	21729.23214
2240.65128	21767.51786
2243.55385	21733.08929
2246.45456	21720.51786
2249.35343	21626.94643
2252.25044	21614.51786
2255.14561	21615.375
2258.03893	21577.23214
2260.93041	21550.66071
2263.82004	21461.51786
2266.70783	21469.375
2269.59378	21358.08929
2272.4779	21305.08929
2275.36017	21302.08929
2278.24061	21254.94643
2281.11922	21205.66071
2283.996	21206.08929
2286.87094	21166.23214
2289.74405	21126.08929
2292.61534	21136.66071
2295.4848	21081.23214
2298.35243	21060.80357
2301.21824	21053.94643
2304.08223	21018.80357
2306.94439	20988.23214
2309.80474	20993.23214
2312.66327	20945.94643
2315.51999	20903.80357
2318.37489	20892.51786
2321.22797	20901.08929
2324.07925	20831.51786
2326.92871	20773.94643
2329.77637	20712.375
2332.62222	20717.94643
2335.46626	20686.08929
2338.3085	20685.08929
2341.14893	20634.66071
2343.98756	20621.23214
2346.8244	20571.66071
2349.65943	20561.23214
2352.49267	20529.94643
2355.32411	20506.80357
2358.15376	20496.375
2360.98161	20507.23214
2363.80768	20447.375
2366.63195	20422.80357
2369.45444	20397.66071
2372.27514	20385.08929
2375.09405	20368.51786
2377.91118	20366.08929
2380.72652	20304.51786
2383.54009	20243.23214
2386.35187	20236.23214
2389.16188	20204.51786
2391.97011	20150.08929
2394.77657	20124.66071
2397.58125	20126.51786
2400.38416	20052.94643
2403.18529	20043.80357
2405.98466	20036.80357
2408.78226	19937.94643
2411.57809	19934.80357
2414.37216	19876.94643
2417.16446	19914.80357
2419.955	19844.375
2422.74378	19843.08929
2425.5308	19812.375
2428.31606	19820.94643
2431.09956	19779.08929
2433.88131	19770.08929
2436.6613	19700.23214
2439.43954	19729.66071
2442.21603	19716.08929
2444.99077	19701.66071
2447.76377	19680.94643
2450.53501	19625.23214
2453.30451	19626.51786
2456.07226	19554.80357
2458.83827	19538.08929
2461.60254	19512.66071
2464.36507	19535.94643
2467.12586	19506.375
2469.88492	19477.23214
2472.64224	19494.23214
2475.39782	19409.80357
2478.15167	19361.94643
2480.90379	19427.80357
2483.65417	19436.66071
2486.40283	19431.375
2489.14976	19406.94643
2491.89497	19414.51786
2494.63845	19426.23214
2497.3802	19391.51786
2500.12024	19357.80357
2502.85855	19314.94643
2505.59514	19287.23214
2508.33002	19252.375
2511.06318	19223.23214
2513.79462	19196.80357
2516.52435	19212.94643
2519.25237	19171.375
2521.97867	19131.375
2524.70327	19118.94643
2527.42616	19082.51786
2530.14734	19009.80357
2532.86681	19009.375
2535.58458	18989.51786
2538.30065	18983.08929
2541.01501	18963.94643
2543.72768	18961.23214
2546.43864	18882.94643
2549.14791	18878.66071
2551.85548	18815.94643
2554.56136	18764.375
2557.26554	18756.51786
2559.96803	18736.94643
2562.66883	18681.66071
2565.36794	18667.51786
2568.06536	18597.375
2570.7611	18586.66071
2573.45514	18556.66071
2576.14751	18522.94643
2578.83819	18438.66071
2581.52719	18442.66071
2584.21451	18431.375
2586.90015	18405.80357
2589.58411	18360.80357
2592.2664	18347.375
2594.94701	18282.66071
2597.62594	18265.80357
2600.30321	18170.08929
2602.9788	18177.94643
2605.65273	18131.66071
2608.32498	18139.51786
2610.99557	18118.375
2613.66449	18084.08929
2616.33175	18034.23214
2618.99734	18084.23214
2621.66128	18023.94643
2624.32355	17980.80357
2626.98416	17982.80357
2629.64311	17935.08929
2632.30041	17884.94643
2634.95605	17864.375
2637.61004	17824.23214
2640.26238	17815.23214
2642.91306	17756.80357
2645.56209	17780.94643
2648.20948	17812.51786
2650.85521	17762.08929
2653.4993	17754.23214
2656.14175	17797.51786
2658.78255	17746.375
2661.42171	17718.80357
2664.05923	17735.94643
2666.6951	17752.66071
2669.32934	17725.23214
2671.96194	17721.375
2674.59291	17717.80357
2677.22224	17738.08929
2679.84993	17727.23214
2682.476	17685.08929
2685.10043	17687.80357
2687.72324	17636.94643
2690.34441	17663.08929
2692.96396	17670.23214
2695.58188	17665.23214
2698.19818	17661.23214
2700.81285	17660.66071
2703.4259	17688.51786
2706.03733	17679.51786
2708.64714	17679.94643
2711.25533	17676.375
2713.86191	17669.66071
2716.46687	17711.375
2719.07021	17653.80357
2721.67194	17680.23214
2724.27206	17625.23214
2726.87057	17630.51786
2729.46747	17650.94643
2732.06276	17599.80357
2734.65644	17609.23214
2737.24852	17580.80357
2739.83899	17573.23214
2742.42786	17556.375
2745.01513	17528.23214
2747.60079	17489.94643
2750.18486	17462.51786
2752.76733	17468.94643
2755.3482	17445.08929
2757.92747	17432.80357
2760.50515	17447.08929
2763.08123	17382.08929
2765.65573	17336.51786
2768.22863	17329.94643
2770.79994	17239.80357
2773.36967	17268.94643
2775.9378	17262.80357
2778.50435	17227.08929
2781.06932	17198.94643
2783.6327	17178.94643
2786.1945	17117.375
2788.75471	17105.23214
2791.31335	17056.375
2793.87041	17051.94643
2796.42589	17035.51786
2798.97979	17002.23214
2801.53212	16940.51786
2804.08288	16920.51786
2806.63206	16848.375
2809.17967	16880.80357
2811.72571	16808.51786
2814.27018	16761.80357
2816.81308	16701.375
2819.35442	16657.66071
2821.89419	16639.375
2824.43239	16615.23214
2826.96904	16595.08929
2829.50412	16563.51786
2832.03763	16527.80357
2834.56959	16576.94643
2837.1	16532.80357
2839.62884	16519.23214
2842.15613	16475.375
2844.68186	16458.375
2847.20604	16419.94643
2849.72867	16448.80357
2852.24974	16429.08929
2854.76927	16422.375
2857.28724	16398.08929
2859.80367	16351.94643
2862.31855	16312.23214
2864.83189	16285.51786
2867.34368	16245.94643
2869.85393	16271.94643
2872.36264	16209.08929
2874.8698	16224.66071
2877.37543	16164.66071
2879.87952	16210.23214
2882.38207	16202.23214
2884.88308	16131.94643
2887.38256	16163.08929
2889.88051	16134.80357
2892.37692	16152.08929
2894.8718	16102.23214
2897.36515	16162.08929
2899.85698	16131.23214
2902.34727	16157.23214
2904.83604	16161.51786
2907.32328	16126.375
2909.809	16127.51786
2912.29319	16174.94643
2914.77587	16166.51786
2917.25702	16156.94643
2919.73665	16132.375
2922.21476	16124.375
2924.69136	16111.375
2927.16644	16109.08929
2929.64	16040.94643
2932.11205	16095.94643
2934.58258	15991.94643
2937.05161	16045.66071
2939.51912	16012.66071
2941.98513	16049.80357
2944.44962	16020.80357
2946.91261	15995.375
2949.37409	15995.51786
2951.83407	15973.80357
2954.29254	15974.375
2956.74951	15970.375
2959.20498	15943.80357
2961.65895	15949.66071
2964.11142	15942.94643
2966.56239	15905.94643
2969.01186	15890.51786
2971.45984	15859.80357
2973.90632	15866.51786
2976.35131	15781.375
2978.7948	15774.375
2981.23681	15764.23214
2983.67732	15749.80357
2986.11635	15680.51786
2988.55388	15660.375
2990.98993	15652.08929
2993.4245	15600.94643
2995.85758	15581.94643
2998.28917	15562.94643
3000.71928	15550.375
3003.14791	15506.375
3005.57506	15484.51786
3008.00073	15464.66071
3010.42493	15440.51786
3012.84764	15395.80357
3015.26888	15371.23214
3017.68865	15324.08929
3020.10694	15279.23214
3022.52376	15281.66071
3024.9391	15300.94643
3027.35298	15205.80357
3029.76539	15235.375
3032.17632	15221.23214
3034.5858	15221.94643
3036.9938	15181.375
3039.40034	15197.23214
3041.80542	15149.23214
3044.20903	15130.94643
3046.61118	15117.51786
3049.01187	15073.23214
3051.4111	15081.375
3053.80888	15058.08929
3056.20519	15001.51786
3058.60005	14972.80357
3060.99345	14943.375
3063.3854	14905.375
3065.7759	14899.94643
3068.16494	14853.23214
3070.55254	14808.375
3072.93868	14776.94643
3075.32338	14739.66071
3077.70662	14698.51786
3080.08842	14684.66071
3082.46878	14708.08929
3084.84769	14667.23214
3087.22515	14671.08929
3089.60118	14665.80357
3091.97576	14655.51786
3094.3489	14646.51786
3096.72061	14685.66071
3099.09087	14644.08929
3101.4597	14615.51786
3103.82709	14668.08929
3106.19305	14619.23214
3108.55757	14615.08929
3110.92066	14575.94643
3113.28232	14520.94643
3115.64255	14509.94643
3118.00134	14453.23214
3120.35871	14487.66071
3122.71466	14415.80357
3125.06917	14422.66071
3127.42226	14381.80357
3129.77393	14351.94643
3132.12417	14342.51786
3134.47299	14336.66071
3136.82039	14324.23214
3139.16636	14342.66071
3141.51092	14311.51786
3143.85406	14328.94643
3146.19579	14336.66071
3148.53609	14348.51786
3150.87499	14317.80357
3153.21246	14347.23214
3155.54853	14367.94643
3157.88318	14355.23214
3160.21642	14337.94643
3162.54826	14387.80357
3164.87868	14378.80357
3167.2077	14333.51786
3169.5353	14352.80357
3171.86151	14350.375
3174.18631	14342.80357
3176.5097	14335.80357
3178.83169	14286.375
3181.15228	14292.375
3183.47147	14234.375
3185.78926	14234.94643
3188.10565	14221.08929
3190.42065	14178.80357
3192.73424	14177.51786
3195.04645	14179.08929
3197.35725	14158.80357
3199.66667	14136.94643
3201.97469	14114.80357
3204.28132	14124.94643
3206.58656	14173.66071
3208.8904	14152.94643
3211.19287	14164.51786
3213.49394	14193.375
3215.79363	14180.66071
3218.09193	14225.51786
3220.38884	14201.80357
3222.68438	14214.94643
3224.97853	14190.80357
3227.2713	14169.94643
3229.56269	14143.08929
3231.8527	14112.08929
3234.14133	14097.23214
3236.42858	14028.66071
3238.71446	13996.66071
3240.99896	14008.80357
3243.28209	13957.08929
3245.56384	13936.08929
3247.84423	13942.51786
3250.12324	13930.94643
3252.40088	13928.51786
3254.67715	13928.23214
3256.95205	13912.23214
3259.22558	13884.51786
3261.49775	13847.94643
3263.76855	13846.66071
3266.03799	13814.94643
3268.30606	13818.08929
3270.57277	13815.66071
3272.83812	13804.375
3275.10211	13761.23214
3277.36474	13731.80357
3279.62601	13705.94643
3281.88593	13708.80357
3284.14448	13675.80357
3286.40168	13641.23214
3288.65753	13638.23214
3290.91202	13630.66071
3293.16516	13580.23214
3295.41695	13555.66071
3297.66738	13484.94643
3299.91647	13405.23214
3302.16421	13339.23214
3304.4106	13272.94643
3306.65564	13195.23214
3308.89933	13099.94643
3311.14169	13010.94643
3313.38269	12905.66071
3315.62236	12820.23214
3317.86068	12675.375
3320.09766	12610.23214
3322.3333	12527.23214
3324.5676	12473.80357
3326.80056	12258.80357
3329.03219	12230.375
3331.26248	2.23214
3333.49143	-0.19643
3335.71905	-0.05357
