Data from AgNPs_FTO_APTES_UA_20uM_CRN_20uM_R6G_10uM_NaF_0.1M_Addition_RamanShift__27__15-21-32-273.txt Node

Date: Thu Feb 17 15:21:32 GMT 2022
User: TCL
Spectrometer: QEP01345
Trigger mode: 4
Integration Time (sec): 7.000000E0
Scans to average: 10
Electric dark correction enabled: true
Nonlinearity correction enabled: false
Boxcar width: 0
XAxis mode: Raman Shifts
Number of Pixels in Spectrum: 1044
>>>>>Begin Spectral Data<<<<<
46.04893	0.9625
50.45542	-2.0375
54.85868	-2.3375
59.25871	-0.6375
63.6555	95.5625
68.04907	97.1625
72.43941	103.4625
76.82654	101.8625
81.21044	109.0625
85.59113	115.3625
89.96862	113.4625
94.34289	119.7625
98.71396	121.7625
103.08183	125.1625
107.4465	131.3625
111.80798	130.2625
116.16626	137.2625
120.52136	139.5625
124.87327	143.8625
129.222	154.0625
133.56755	162.2625
137.90993	172.1625
142.24913	188.8625
146.58517	216.4625
150.91804	248.2625
155.24774	291.9625
159.57429	361.8625
163.89768	476.8625
168.21792	622.9625
172.53501	846.6625
176.84895	1186.4625
181.15975	1689.0625
185.46741	2365.8625
189.77193	3285.2625
194.07331	4435.0625
198.37157	5713.6625
202.6667	7107.0625
206.9587	8453.4625
211.24758	9825.2625
215.53334	11155.4625
219.81599	12559.0625
224.09553	14099.5625
228.37195	15840.8625
232.64527	17801.0625
236.91549	19833.9625
241.18261	21969.4625
245.44663	23947.0625
249.70755	25684.7625
253.96539	27272.0625
258.22014	28588.9625
262.4718	29730.0625
266.72039	30486.2625
270.96589	30926.9625
275.20832	30953.9625
279.44768	30724.1625
283.68397	30318.3625
287.91719	29956.7625
292.14735	29692.7625
296.37445	29679.1625
300.59849	29994.5625
304.81948	30275.1625
309.03742	30487.2625
313.25231	30326.0625
317.46415	29837.1625
321.67296	29070.3625
325.87872	28437.6625
330.08145	28184.0625
334.28114	28257.9625
338.47781	28580.9625
342.67145	29049.5625
346.86207	29658.6625
351.04966	30455.1625
355.23424	31343.3625
359.4158	32135.2625
363.59435	32682.5625
367.76989	33117.5625
371.94243	33481.7625
376.11196	33672.0625
380.27849	33887.7625
384.44203	34003.5625
388.60257	34047.9625
392.76012	34191.2625
396.91468	34500.6625
401.06626	34937.0625
405.21485	35378.9625
409.36047	35382.0625
413.50311	34835.7625
417.64277	34301.4625
421.77947	34053.7625
425.9132	33972.1625
430.04396	34134.8625
434.17176	34419.7625
438.2966	34781.8625
442.41849	35291.1625
446.53742	36045.7625
450.6534	36739.8625
454.76644	37428.7625
458.87653	37658.8625
462.98368	37658.4625
467.08789	37295.5625
471.18916	36751.8625
475.2875	36189.5625
479.38291	35768.6625
483.4754	35477.7625
487.56496	35188.0625
491.6516	35021.6625
495.73531	34847.7625
499.81612	34773.9625
503.89401	34924.4625
507.96899	35099.7625
512.04106	35288.6625
516.11023	35538.8625
520.1765	35772.6625
524.23987	35791.5625
528.30034	35667.8625
532.35792	35418.1625
536.41261	35235.3625
540.46441	34921.8625
544.51333	34879.6625
548.55936	35039.4625
552.60252	35340.2625
556.64279	35678.4625
560.6802	35850.4625
564.71473	35887.8625
568.7464	36217.3625
572.7752	36558.7625
576.80114	36451.0625
580.82422	36365.3625
584.84444	36443.8625
588.86181	36746.0625
592.87633	37112.8625
596.888	37480.6625
600.89682	38130.5625
604.9028	39972.1625
608.90594	44500.6625
612.90624	49861.9625
616.90371	48370.6625
620.89834	41291.0625
624.89015	38155.8625
628.87913	37671.6625
632.86528	37453.2625
636.84862	37235.2625
640.82913	36859.5625
644.80683	36211.5625
648.78172	35731.4625
652.75379	35745.3625
656.72306	36316.7625
660.68952	37027.5625
664.65319	36987.6625
668.61405	36421.6625
672.57211	36158.7625
676.52738	36189.5625
680.47986	36197.4625
684.42955	36197.4625
688.37646	36261.1625
692.32058	36475.4625
696.26192	36694.4625
700.20048	36925.2625
704.13626	37063.7625
708.06928	36924.4625
711.99952	36672.9625
715.927	36686.4625
719.85171	36723.9625
723.77365	36743.6625
727.69284	36624.3625
731.60928	36479.2625
735.52295	36526.9625
739.43388	36653.3625
743.34206	36767.5625
747.24749	36955.7625
751.15017	37102.8625
755.05012	37494.3625
758.94733	38195.0625
762.8418	39574.4625
766.73354	41904.1625
770.62254	44519.7625
774.50882	45923.8625
778.39237	44781.3625
782.27321	41859.5625
786.15132	39292.2625
790.02671	37930.9625
793.89938	37288.5625
797.76935	37075.5625
801.6366	37033.7625
805.50115	36884.9625
809.36299	36776.4625
813.22213	36716.9625
817.07857	36674.2625
820.93231	36792.7625
824.78336	36852.6625
828.63172	36983.2625
832.47738	37118.5625
836.32036	37189.3625
840.16066	37288.1625
843.99827	37509.3625
847.8332	37458.7625
851.66546	37353.8625
855.49504	37325.2625
859.32195	37352.4625
863.1462	37259.0625
866.96777	37100.2625
870.78668	37092.4625
874.60293	37166.5625
878.41652	37187.1625
882.22745	37291.1625
886.03573	37397.9625
889.84136	37360.9625
893.64433	37223.5625
897.44466	37134.1625
901.24235	37075.2625
905.0374	37077.1625
908.8298	37066.7625
912.61957	37078.7625
916.40671	37275.9625
920.19121	37526.0625
923.97308	37856.2625
927.75233	38069.7625
931.52895	38180.4625
935.30295	38064.8625
939.07433	37571.3625
942.84309	37271.7625
946.60924	37054.1625
950.37278	36902.6625
954.13371	36788.8625
957.89203	36475.8625
961.64774	36440.0625
965.40086	36304.3625
969.15137	36200.3625
972.89929	36120.6625
976.64461	36137.0625
980.38733	36197.6625
984.12747	36300.1625
987.86502	36578.1625
991.59999	36995.6625
995.33237	37545.5625
999.06217	38539.5625
1002.78939	39673.9625
1006.51404	40313.7625
1010.23611	40491.9625
1013.95561	40731.6625
1017.67255	40805.8625
1021.38692	40748.0625
1025.09872	40818.6625
1028.80796	41542.7625
1032.51465	42875.9625
1036.21877	43942.8625
1039.92035	43958.0625
1043.61937	43287.7625
1047.31584	42006.6625
1051.00976	40727.9625
1054.70114	39956.2625
1058.38998	39642.0625
1062.07627	39510.9625
1065.76003	39421.5625
1069.44126	39358.1625
1073.11995	39458.1625
1076.79611	39639.4625
1080.46974	39869.5625
1084.14085	40214.2625
1087.80943	40556.9625
1091.47549	40643.8625
1095.13903	40311.0625
1098.80005	39852.5625
1102.45857	39459.8625
1106.11456	39418.1625
1109.76805	39648.1625
1113.41903	40112.3625
1117.06751	40544.7625
1120.71348	41021.6625
1124.35696	41417.8625
1127.99793	41751.0625
1131.63641	41676.7625
1135.2724	41115.7625
1138.90589	40577.3625
1142.5369	40066.0625
1146.16542	39781.6625
1149.79145	39667.9625
1153.415	39726.8625
1157.03607	39904.9625
1160.65467	40245.6625
1164.27079	40887.1625
1167.88443	41917.2625
1171.49561	43459.1625
1175.10432	45875.8625
1178.71056	49053.3625
1182.31434	52099.0625
1185.91565	53601.5625
1189.51451	53109.9625
1193.11091	51119.3625
1196.70485	48801.3625
1200.29634	47013.8625
1203.88538	45842.8625
1207.47197	44862.5625
1211.05612	44018.7625
1214.63782	43473.6625
1218.21708	43485.8625
1221.79391	43757.9625
1225.36829	44014.0625
1228.94024	43935.6625
1232.50976	43387.5625
1236.07685	43085.6625
1239.6415	43118.6625
1243.20374	43323.7625
1246.76355	43740.8625
1250.32093	44307.3625
1253.8759	45127.6625
1257.42845	46132.0625
1260.97859	46785.2625
1264.52631	47187.8625
1268.07163	47815.9625
1271.61453	48549.1625
1275.15503	49520.0625
1278.69312	50467.7625
1282.22882	51248.4625
1285.76211	51731.3625
1289.29301	52180.5625
1292.82151	52763.5625
1296.34761	53659.8625
1299.87133	55362.0625
1303.39266	58024.0625
1306.9116	61706.5625
1310.42815	65417.6625
1313.94233	67195.2625
1317.45412	66158.9625
1320.96354	63536.6625
1324.47058	60605.2625
1327.97525	58019.2625
1331.47754	56484.7625
1334.97747	56335.3625
1338.47502	57022.6625
1341.97022	58221.2625
1345.46305	59255.7625
1348.95352	60043.4625
1352.44163	61036.7625
1355.92738	63291.2625
1359.41078	67489.9625
1362.89183	71540.5625
1366.37053	69991.2625
1369.84688	63492.1625
1373.32088	56909.7625
1376.79254	52484.7625
1380.26186	50152.1625
1383.72883	48974.8625
1387.19347	48280.7625
1390.65578	47609.2625
1394.11575	47121.3625
1397.57339	46966.0625
1401.0287	47376.7625
1404.48168	47963.9625
1407.93234	48776.6625
1411.38068	49674.3625
1414.82669	50126.0625
1418.27039	49756.6625
1421.71177	48974.2625
1425.15083	48114.2625
1428.58758	47646.4625
1432.02203	47677.1625
1435.45416	47852.3625
1438.88399	47961.8625
1442.31151	48113.8625
1445.73673	48307.6625
1449.15965	48399.7625
1452.58027	48364.5625
1455.9986	48032.3625
1459.41463	47851.8625
1462.82837	48041.8625
1466.23982	48636.4625
1469.64898	49451.9625
1473.05586	50204.8625
1476.46045	50812.2625
1479.86276	51416.2625
1483.26279	52062.4625
1486.66054	52716.4625
1490.05602	53609.9625
1493.44922	54595.2625
1496.84016	55661.4625
1500.22882	57098.6625
1503.61521	59291.3625
1506.99934	62084.0625
1510.38121	64466.1625
1513.76081	64956.2625
1517.13816	62800.5625
1520.51324	59219.6625
1523.88607	55898.9625
1527.25665	53576.4625
1530.62498	52200.3625
1533.99105	51398.6625
1537.35488	50956.8625
1540.71647	50844.8625
1544.07581	50796.8625
1547.4329	50738.8625
1550.78776	50686.0625
1554.14038	50469.9625
1557.49077	50493.2625
1560.83892	50496.5625
1564.18484	50552.6625
1567.52853	50649.2625
1570.86999	50698.5625
1574.20922	50796.4625
1577.54624	50647.4625
1580.88103	50005.9625
1584.2136	49350.3625
1587.54395	49536.5625
1590.87208	51036.2625
1594.19801	53615.3625
1597.52172	56783.5625
1600.84321	58220.6625
1604.16251	57089.2625
1607.47959	54269.1625
1610.79447	51141.1625
1614.10715	48365.7625
1617.41763	46211.8625
1620.7259	44818.8625
1624.03199	44124.2625
1627.33587	44373.4625
1630.63757	45085.2625
1633.93707	46469.6625
1637.23439	48252.7625
1640.52951	50233.7625
1643.82246	52406.3625
1647.11321	54449.3625
1650.40179	55329.5625
1653.68819	53669.7625
1656.97241	49655.4625
1660.25446	45627.4625
1663.53433	42730.5625
1666.81203	40999.1625
1670.08756	39897.5625
1673.36092	39201.4625
1676.63211	38739.0625
1679.90115	38361.1625
1683.16801	38017.8625
1686.43272	37805.1625
1689.69527	37689.9625
1692.95567	37580.6625
1696.2139	37528.3625
1699.46999	37502.3625
1702.72392	37516.0625
1705.97571	37474.4625
1709.22535	37414.9625
1712.47284	37505.3625
1715.71819	37487.6625
1718.96139	37460.2625
1722.20246	37400.8625
1725.44139	37269.1625
1728.67818	37188.9625
1731.91284	37048.4625
1735.14537	36942.7625
1738.37576	36896.6625
1741.60403	36838.8625
1744.83017	36767.6625
1748.05418	36695.2625
1751.27607	36655.0625
1754.49584	36670.3625
1757.71349	36656.0625
1760.92903	36694.1625
1764.14244	36612.9625
1767.35375	36639.5625
1770.56294	36556.6625
1773.77002	36534.2625
1776.97499	36548.5625
1780.17785	36486.4625
1783.37861	36436.2625
1786.57727	36465.4625
1789.77382	36413.3625
1792.96828	36420.9625
1796.16064	36389.9625
1799.3509	36295.8625
1802.53907	36293.0625
1805.72514	36254.4625
1808.90913	36171.2625
1812.09102	36128.2625
1815.27083	36074.9625
1818.44856	36028.6625
1821.6242	36020.0625
1824.79776	35986.3625
1827.96924	35988.2625
1831.13864	35950.1625
1834.30597	35993.4625
1837.47122	35923.3625
1840.6344	35950.6625
1843.7955	35932.2625
1846.95454	35893.9625
1850.11151	35942.5625
1853.26642	35911.0625
1856.41926	35888.8625
1859.57004	35872.7625
1862.71876	35871.3625
1865.86542	35885.0625
1869.01003	35911.9625
1872.15258	35882.8625
1875.29308	35925.2625
1878.43152	35909.1625
1881.56792	35865.5625
1884.70227	35836.2625
1887.83457	35753.6625
1890.96482	35811.9625
1894.09304	35782.8625
1897.21921	35824.2625
1900.34335	35725.3625
1903.46544	35676.2625
1906.58551	35655.4625
1909.70353	35686.0625
1912.81953	35692.2625
1915.93349	35644.5625
1919.04543	35567.0625
1922.15534	35566.4625
1925.26322	35539.6625
1928.36908	35431.2625
1931.47292	35443.7625
1934.57473	35413.9625
1937.67453	35335.0625
1940.77232	35292.6625
1943.86808	35231.3625
1946.96184	35198.1625
1950.05358	35116.5625
1953.14331	34989.4625
1956.23103	34887.7625
1959.31675	34845.5625
1962.40046	34695.0625
1965.48217	34592.3625
1968.56188	34606.6625
1971.63959	34471.5625
1974.7153	34357.9625
1977.78901	34250.7625
1980.86073	34191.7625
1983.93046	34116.9625
1986.99819	33978.1625
1990.06394	33925.2625
1993.1277	33862.3625
1996.18947	33748.6625
1999.24925	33664.3625
2002.30706	33587.9625
2005.36288	33521.1625
2008.41672	33414.4625
2011.46859	33284.9625
2014.51848	33261.6625
2017.56639	33174.5625
2020.61233	33080.4625
2023.6563	33019.8625
2026.6983	32942.5625
2029.73833	32967.5625
2032.7764	32883.5625
2035.8125	32841.9625
2038.84664	32746.0625
2041.87881	32746.8625
2044.90903	32657.0625
2047.93729	32591.8625
2050.96359	32678.5625
2053.98794	32629.6625
2057.01034	32608.0625
2060.03078	32587.5625
2063.04927	32556.8625
2066.06582	32574.3625
2069.08042	32535.1625
2072.09307	32509.8625
2075.10378	32442.5625
2078.11255	32390.8625
2081.11938	32391.4625
2084.12426	32457.1625
2087.12722	32435.0625
2090.12824	32373.9625
2093.12732	32427.3625
2096.12447	32446.1625
2099.11969	32447.1625
2102.11299	32449.2625
2105.10435	32527.7625
2108.09379	32497.8625
2111.08131	32515.0625
2114.0669	32487.1625
2117.05057	32545.8625
2120.03233	32624.9625
2123.01216	32680.0625
2125.99008	32655.0625
2128.96609	32665.3625
2131.94018	32697.6625
2134.91236	32748.9625
2137.88263	32792.3625
2140.851	32778.2625
2143.81746	32867.1625
2146.78201	32856.9625
2149.74466	32866.2625
2152.7054	32960.0625
2155.66425	32899.2625
2158.6212	32862.8625
2161.57625	32866.4625
2164.52941	32837.3625
2167.48067	32815.8625
2170.43004	32813.7625
2173.37752	32883.7625
2176.32311	32924.3625
2179.26681	32905.5625
2182.20863	32943.8625
2185.14856	32943.4625
2188.08661	32937.9625
2191.02278	32958.5625
2193.95707	32940.0625
2196.88948	32943.7625
2199.82001	32929.2625
2202.74867	32910.4625
2205.67545	32956.9625
2208.60037	32953.7625
2211.52341	32898.7625
2214.44458	32903.5625
2217.36388	32861.3625
2220.28132	32791.7625
2223.1969	32749.6625
2226.11061	32703.7625
2229.02246	32626.5625
2231.93245	32602.7625
2234.84058	32529.4625
2237.74686	32469.0625
2240.65128	32430.0625
2243.55385	32399.8625
2246.45456	32429.4625
2249.35343	32362.3625
2252.25044	32342.3625
2255.14561	32321.2625
2258.03893	32303.3625
2260.93041	32275.6625
2263.82004	32182.4625
2266.70783	32152.3625
2269.59378	32030.3625
2272.4779	31962.0625
2275.36017	31889.2625
2278.24061	31836.9625
2281.11922	31818.1625
2283.996	31741.5625
2286.87094	31715.5625
2289.74405	31701.8625
2292.61534	31723.5625
2295.4848	31711.7625
2298.35243	31699.2625
2301.21824	31698.6625
2304.08223	31698.6625
2306.94439	31749.3625
2309.80474	31735.4625
2312.66327	31758.6625
2315.51999	31749.5625
2318.37489	31758.0625
2321.22797	31808.7625
2324.07925	31708.3625
2326.92871	31655.5625
2329.77637	31648.5625
2332.62222	31614.3625
2335.46626	31602.6625
2338.3085	31630.9625
2341.14893	31628.3625
2343.98756	31695.3625
2346.8244	31618.1625
2349.65943	31631.9625
2352.49267	31644.9625
2355.32411	31646.1625
2358.15376	31654.4625
2360.98161	31640.4625
2363.80768	31505.9625
2366.63195	31518.6625
2369.45444	31460.9625
2372.27514	31362.1625
2375.09405	31323.2625
2377.91118	31257.6625
2380.72652	31162.8625
2383.54009	31147.9625
2386.35187	31090.6625
2389.16188	31011.1625
2391.97011	30985.5625
2394.77657	30940.1625
2397.58125	30948.4625
2400.38416	30840.2625
2403.18529	30766.3625
2405.98466	30755.0625
2408.78226	30677.3625
2411.57809	30611.1625
2414.37216	30570.4625
2417.16446	30505.8625
2419.955	30509.4625
2422.74378	30540.1625
2425.5308	30478.1625
2428.31606	30446.2625
2431.09956	30464.3625
2433.88131	30410.3625
2436.6613	30467.9625
2439.43954	30489.7625
2442.21603	30448.6625
2444.99077	30355.7625
2447.76377	30378.7625
2450.53501	30340.8625
2453.30451	30326.8625
2456.07226	30274.6625
2458.83827	30292.2625
2461.60254	30251.8625
2464.36507	30214.0625
2467.12586	30214.7625
2469.88492	30228.3625
2472.64224	30204.7625
2475.39782	30228.8625
2478.15167	30250.5625
2480.90379	30273.3625
2483.65417	30322.5625
2486.40283	30293.8625
2489.14976	30367.8625
2491.89497	30316.5625
2494.63845	30371.7625
2497.3802	30358.4625
2500.12024	30323.6625
2502.85855	30274.5625
2505.59514	30264.4625
2508.33002	30248.7625
2511.06318	30216.4625
2513.79462	30154.6625
2516.52435	30049.7625
2519.25237	30042.0625
2521.97867	30005.3625
2524.70327	30012.4625
2527.42616	29989.8625
2530.14734	30011.1625
2532.86681	29921.9625
2535.58458	29954.6625
2538.30065	29897.8625
2541.01501	29921.4625
2543.72768	29878.1625
2546.43864	29926.2625
2549.14791	29815.2625
2551.85548	29796.7625
2554.56136	29779.9625
2557.26554	29711.1625
2559.96803	29673.9625
2562.66883	29602.8625
2565.36794	29610.7625
2568.06536	29620.0625
2570.7611	29574.3625
2573.45514	29502.9625
2576.14751	29538.6625
2578.83819	29495.8625
2581.52719	29506.4625
2584.21451	29420.0625
2586.90015	29427.8625
2589.58411	29361.3625
2592.2664	29404.9625
2594.94701	29342.7625
2597.62594	29362.4625
2600.30321	29326.7625
2602.9788	29329.1625
2605.65273	29275.9625
2608.32498	29262.6625
2610.99557	29243.4625
2613.66449	29248.2625
2616.33175	29258.3625
2618.99734	29288.8625
2621.66128	29261.6625
2624.32355	29234.5625
2626.98416	29245.5625
2629.64311	29225.5625
2632.30041	29200.4625
2634.95605	29164.3625
2637.61004	29165.3625
2640.26238	29110.4625
2642.91306	29077.7625
2645.56209	29049.0625
2648.20948	29063.4625
2650.85521	28969.4625
2653.4993	28931.6625
2656.14175	28977.4625
2658.78255	28981.0625
2661.42171	28980.4625
2664.05923	29004.2625
2666.6951	29002.4625
2669.32934	29055.5625
2671.96194	29017.4625
2674.59291	29026.5625
2677.22224	29057.5625
2679.84993	29072.7625
2682.476	29053.1625
2685.10043	29063.4625
2687.72324	28965.0625
2690.34441	29010.9625
2692.96396	28949.1625
2695.58188	28948.3625
2698.19818	28960.8625
2700.81285	28947.4625
2703.4259	28894.4625
2706.03733	28959.8625
2708.64714	28933.1625
2711.25533	28944.6625
2713.86191	28915.9625
2716.46687	28988.1625
2719.07021	29036.0625
2721.67194	29030.0625
2724.27206	29038.5625
2726.87057	29033.6625
2729.46747	29052.8625
2732.06276	29088.7625
2734.65644	29036.7625
2737.24852	29015.4625
2739.83899	28958.0625
2742.42786	29002.6625
2745.01513	28983.6625
2747.60079	28963.6625
2750.18486	28903.4625
2752.76733	28887.8625
2755.3482	28865.4625
2757.92747	28855.5625
2760.50515	28824.5625
2763.08123	28826.5625
2765.65573	28777.2625
2768.22863	28758.5625
2770.79994	28696.3625
2773.36967	28714.1625
2775.9378	28690.0625
2778.50435	28735.5625
2781.06932	28695.4625
2783.6327	28672.0625
2786.1945	28636.5625
2788.75471	28632.5625
2791.31335	28566.7625
2793.87041	28550.8625
2796.42589	28478.6625
2798.97979	28473.6625
2801.53212	28324.4625
2804.08288	28345.4625
2806.63206	28264.0625
2809.17967	28201.7625
2811.72571	28127.1625
2814.27018	28140.5625
2816.81308	28065.2625
2819.35442	28049.9625
2821.89419	28047.4625
2824.43239	28117.7625
2826.96904	28073.3625
2829.50412	28037.3625
2832.03763	27974.5625
2834.56959	27989.1625
2837.1	27915.1625
2839.62884	27916.3625
2842.15613	27904.3625
2844.68186	27919.7625
2847.20604	27854.4625
2849.72867	27825.2625
2852.24974	27769.7625
2854.76927	27751.1625
2857.28724	27804.1625
2859.80367	27705.4625
2862.31855	27684.2625
2864.83189	27653.6625
2867.34368	27630.5625
2869.85393	27612.4625
2872.36264	27607.4625
2874.8698	27638.2625
2877.37543	27591.8625
2879.87952	27562.4625
2882.38207	27570.0625
2884.88308	27546.1625
2887.38256	27571.4625
2889.88051	27575.7625
2892.37692	27573.9625
2894.8718	27615.2625
2897.36515	27644.0625
2899.85698	27596.4625
2902.34727	27672.6625
2904.83604	27655.6625
2907.32328	27712.7625
2909.809	27712.3625
2912.29319	27726.6625
2914.77587	27744.9625
2917.25702	27761.7625
2919.73665	27682.5625
2922.21476	27704.6625
2924.69136	27647.1625
2927.16644	27650.4625
2929.64	27599.3625
2932.11205	27566.4625
2934.58258	27491.2625
2937.05161	27549.8625
2939.51912	27563.9625
2941.98513	27562.5625
2944.44962	27577.6625
2946.91261	27488.9625
2949.37409	27556.2625
2951.83407	27573.3625
2954.29254	27530.2625
2956.74951	27541.3625
2959.20498	27578.2625
2961.65895	27490.7625
2964.11142	27533.5625
2966.56239	27494.2625
2969.01186	27465.3625
2971.45984	27415.7625
2973.90632	27376.4625
2976.35131	27329.3625
2978.7948	27309.2625
2981.23681	27220.5625
2983.67732	27221.9625
2986.11635	27202.8625
2988.55388	27131.4625
2990.98993	27067.0625
2993.4245	26980.4625
2995.85758	26965.3625
2998.28917	26876.8625
3000.71928	26907.4625
3003.14791	26818.5625
3005.57506	26815.5625
3008.00073	26692.0625
3010.42493	26677.4625
3012.84764	26695.1625
3015.26888	26697.5625
3017.68865	26636.6625
3020.10694	26615.0625
3022.52376	26521.2625
3024.9391	26526.6625
3027.35298	26505.1625
3029.76539	26468.0625
3032.17632	26443.8625
3034.5858	26430.3625
3036.9938	26412.5625
3039.40034	26376.1625
3041.80542	26425.1625
3044.20903	26340.7625
3046.61118	26340.0625
3049.01187	26254.2625
3051.4111	26226.0625
3053.80888	26173.2625
3056.20519	26131.7625
3058.60005	26083.8625
3060.99345	26066.1625
3063.3854	25975.8625
3065.7759	25885.1625
3068.16494	25845.2625
3070.55254	25744.7625
3072.93868	25725.4625
3075.32338	25657.4625
3077.70662	25610.1625
3080.08842	25515.3625
3082.46878	25536.7625
3084.84769	25470.5625
3087.22515	25492.3625
3089.60118	25475.9625
3091.97576	25468.4625
3094.3489	25452.4625
3096.72061	25482.5625
3099.09087	25500.6625
3101.4597	25505.2625
3103.82709	25523.3625
3106.19305	25459.5625
3108.55757	25477.6625
3110.92066	25361.5625
3113.28232	25406.5625
3115.64255	25280.1625
3118.00134	25243.8625
3120.35871	25205.9625
3122.71466	25202.8625
3125.06917	25162.1625
3127.42226	25086.9625
3129.77393	25080.9625
3132.12417	24989.9625
3134.47299	24997.8625
3136.82039	24979.2625
3139.16636	24933.3625
3141.51092	24953.6625
3143.85406	24957.8625
3146.19579	24954.5625
3148.53609	24946.6625
3150.87499	24979.1625
3153.21246	25010.8625
3155.54853	25049.1625
3157.88318	25052.8625
3160.21642	25074.7625
3162.54826	25023.1625
3164.87868	25036.2625
3167.2077	25047.8625
3169.5353	25056.5625
3171.86151	25032.8625
3174.18631	24993.4625
3176.5097	24958.8625
3178.83169	24900.8625
3181.15228	24933.9625
3183.47147	24848.2625
3185.78926	24815.0625
3188.10565	24815.0625
3190.42065	24832.3625
3192.73424	24780.3625
3195.04645	24731.1625
3197.35725	24765.5625
3199.66667	24752.9625
3201.97469	24827.2625
3204.28132	24755.8625
3206.58656	24819.9625
3208.8904	24856.5625
3211.19287	24853.3625
3213.49394	24824.3625
3215.79363	24806.9625
3218.09193	24862.0625
3220.38884	24851.4625
3222.68438	24924.3625
3224.97853	24884.6625
3227.2713	24854.3625
3229.56269	24845.1625
3231.8527	24823.9625
3234.14133	24749.0625
3236.42858	24707.6625
3238.71446	24709.1625
3240.99896	24614.3625
3243.28209	24630.6625
3245.56384	24582.6625
3247.84423	24616.8625
3250.12324	24559.6625
3252.40088	24539.8625
3254.67715	24506.6625
3256.95205	24502.0625
3259.22558	24517.0625
3261.49775	24496.3625
3263.76855	24479.2625
3266.03799	24401.8625
3268.30606	24441.8625
3270.57277	24415.9625
3272.83812	24376.1625
3275.10211	24279.3625
3277.36474	24246.9625
3279.62601	24262.1625
3281.88593	24234.8625
3284.14448	24255.2625
3286.40168	24263.5625
3288.65753	24238.0625
3290.91202	24256.4625
3293.16516	24164.7625
3295.41695	24132.3625
3297.66738	23993.9625
3299.91647	23875.9625
3302.16421	23766.6625
3304.4106	23637.1625
3306.65564	23541.4625
3308.89933	23351.7625
3311.14169	23245.0625
3313.38269	23024.9625
3315.62236	22914.2625
3317.86068	22742.0625
3320.09766	22589.3625
3322.3333	22452.9625
3324.5676	22355.9625
3326.80056	22018.7625
3329.03219	21911.6625
3331.26248	6.2625
3333.49143	0.9625
3335.71905	-1.5375
