Data from AgNPs_FTO_APTES_UA_20uM_CRN_200uM_R6G_10uM_NaF_0.1M_Addition_RamanShift__14__18-08-44-923.txt Node

Date: Thu Feb 17 18:08:44 GMT 2022
User: TCL
Spectrometer: QEP01345
Trigger mode: 4
Integration Time (sec): 1.000000E1
Scans to average: 7
Electric dark correction enabled: true
Nonlinearity correction enabled: false
Boxcar width: 0
XAxis mode: Raman Shifts
Number of Pixels in Spectrum: 1044
>>>>>Begin Spectral Data<<<<<
46.04893	-1.21429
50.45542	-0.5
54.85868	-0.35714
59.25871	-1.21429
63.6555	75.35714
68.04907	80.64286
72.43941	83.07143
76.82654	84.92857
81.21044	88.64286
85.59113	94.35714
89.96862	95.5
94.34289	95.07143
98.71396	100.5
103.08183	99.35714
107.4465	110.07143
111.80798	106.21429
116.16626	112.21429
120.52136	111.78571
124.87327	119.07143
129.222	123.21429
133.56755	124.5
137.90993	138.21429
142.24913	146.64286
146.58517	165.64286
150.91804	188.92857
155.24774	222.35714
159.57429	269.5
163.89768	336.92857
168.21792	446.21429
172.53501	598.35714
176.84895	844.64286
181.15975	1189.5
185.46741	1690.5
189.77193	2327.21429
194.07331	3166.5
198.37157	4103.35714
202.6667	5121.35714
206.9587	6108.64286
211.24758	7096.5
215.53334	8058.5
219.81599	9014.35714
224.09553	10112.21429
228.37195	11220.5
232.64527	12557.64286
236.91549	13947.64286
241.18261	15429.35714
245.44663	16866.5
249.70755	18266.21429
253.96539	19519.5
258.22014	20493.5
262.4718	21318.78571
266.72039	21899.78571
270.96589	22122.21429
275.20832	22184.07143
279.44768	22061.64286
283.68397	21817.92857
287.91719	21484.5
292.14735	21232.35714
296.37445	21060.5
300.59849	20920.21429
304.81948	20887.78571
309.03742	20834.92857
313.25231	20781.64286
317.46415	20650.5
321.67296	20525.35714
325.87872	20452.5
330.08145	20442.64286
334.28114	20575.07143
338.47781	20827.92857
342.67145	21067.07143
346.86207	21344.64286
351.04966	21671.64286
355.23424	22006.78571
359.4158	22303.35714
363.59435	22602.78571
367.76989	22916.35714
371.94243	23131.21429
376.11196	23356.5
380.27849	23497.21429
384.44203	23697.35714
388.60257	23895.5
392.76012	24056.92857
396.91468	24290.21429
401.06626	24505.92857
405.21485	24709.78571
409.36047	24791.21429
413.50311	24782.78571
417.64277	24687.07143
421.77947	24661.07143
425.9132	24752.64286
430.04396	24896.64286
434.17176	25067.07143
438.2966	25227.07143
442.41849	25476.92857
446.53742	25745.92857
450.6534	26004.78571
454.76644	26170.64286
458.87653	26361.92857
462.98368	26543.35714
467.08789	26590.5
471.18916	26593.07143
475.2875	26558.92857
479.38291	26490.07143
483.4754	26459.64286
487.56496	26393.92857
491.6516	26470.5
495.73531	26462.92857
499.81612	26472.35714
503.89401	26630.35714
507.96899	26734.78571
512.04106	26808.21429
516.11023	26888.92857
520.1765	26941.5
524.23987	27018.21429
528.30034	26973.92857
532.35792	27020.78571
536.41261	27031.5
540.46441	27005.35714
544.51333	26938.5
548.55936	27089.78571
552.60252	27218.35714
556.64279	27357.07143
560.6802	27459.64286
564.71473	27561.35714
568.7464	27592.35714
572.7752	27658.21429
576.80114	27657.64286
580.82422	27736.92857
584.84444	27833.78571
588.86181	27958.78571
592.87633	28061.92857
596.888	28244.07143
600.89682	28462.35714
604.9028	29024.64286
608.90594	30167.35714
612.90624	31537.78571
616.90371	31117.5
620.89834	29275.78571
624.89015	28344.07143
628.87913	28222.07143
632.86528	28363.35714
636.84862	28497.07143
640.82913	28539.35714
644.80683	28445.64286
648.78172	28311.5
652.75379	28340.5
656.72306	28524.21429
660.68952	28815.07143
664.65319	28838.5
668.61405	28793.78571
672.57211	28907.64286
676.52738	29091.21429
680.47986	29187.35714
684.42955	29198.21429
688.37646	29192.5
692.32058	29235.64286
696.26192	29359.21429
700.20048	29499.35714
704.13626	29574.21429
708.06928	29551.21429
711.99952	29462.92857
715.927	29419.35714
719.85171	29442.64286
723.77365	29455.64286
727.69284	29424.92857
731.60928	29363.64286
735.52295	29337.78571
739.43388	29393.07143
743.34206	29448.64286
747.24749	29437.07143
751.15017	29497.92857
755.05012	29593.64286
758.94733	29751.78571
762.8418	30106.78571
766.73354	30727.5
770.62254	31479.64286
774.50882	31887.21429
778.39237	31752.64286
782.27321	31189.92857
786.15132	30564.35714
790.02671	30088.21429
793.89938	29805.92857
797.76935	29653.21429
801.6366	29601.92857
805.50115	29549.35714
809.36299	29539.64286
813.22213	29585.5
817.07857	29588.21429
820.93231	29619.5
824.78336	29650.21429
828.63172	29704.64286
832.47738	29737.07143
836.32036	29738.5
840.16066	29777.35714
843.99827	29841.5
847.8332	29909.64286
851.66546	29926.21429
855.49504	30033.5
859.32195	30005.35714
863.1462	30027.35714
866.96777	30064.78571
870.78668	30126.64286
874.60293	30171.07143
878.41652	30232.78571
882.22745	30268.64286
886.03573	30312.5
889.84136	30319.07143
893.64433	30277.21429
897.44466	30261.64286
901.24235	30231.64286
905.0374	30242.64286
908.8298	30159.07143
912.61957	30108.07143
916.40671	30189.64286
920.19121	30191.78571
923.97308	30190.35714
927.75233	30223.21429
931.52895	30277.21429
935.30295	30189.92857
939.07433	30078.5
942.84309	30038.78571
946.60924	29940.07143
950.37278	29881.92857
954.13371	29865.78571
957.89203	29878.78571
961.64774	29842.92857
965.40086	29826.64286
969.15137	29838.5
972.89929	29769.92857
976.64461	29744.92857
980.38733	29777.35714
984.12747	29829.35714
987.86502	29870.35714
991.59999	29961.21429
995.33237	30017.78571
999.06217	30100.78571
1002.78939	30241.92857
1006.51404	30335.5
1010.23611	30498.64286
1013.95561	30614.64286
1017.67255	30687.21429
1021.38692	30659.35714
1025.09872	30586.07143
1028.80796	30500.35714
1032.51465	30472.64286
1036.21877	30506.92857
1039.92035	30535.5
1043.61937	30570.64286
1047.31584	30657.64286
1051.00976	30696.07143
1054.70114	30743.21429
1058.38998	30765.07143
1062.07627	30818.78571
1065.76003	30951.92857
1069.44126	31080.64286
1073.11995	31194.21429
1076.79611	31420.5
1080.46974	31522.07143
1084.14085	31509.35714
1087.80943	31527.35714
1091.47549	31556.64286
1095.13903	31553.5
1098.80005	31504.5
1102.45857	31479.35714
1106.11456	31446.35714
1109.76805	31384.78571
1113.41903	31322.35714
1117.06751	31283.5
1120.71348	31310.35714
1124.35696	31392.78571
1127.99793	31498.78571
1131.63641	31533.5
1135.2724	31528.92857
1138.90589	31379.07143
1142.5369	31305.5
1146.16542	31209.07143
1149.79145	31117.64286
1153.415	30988.5
1157.03607	30982.21429
1160.65467	31068.78571
1164.27079	31201.35714
1167.88443	31491.5
1171.49561	31931.21429
1175.10432	32440.5
1178.71056	33156.92857
1182.31434	33863.35714
1185.91565	34329.92857
1189.51451	34458.78571
1193.11091	34435.21429
1196.70485	34151.07143
1200.29634	33812.92857
1203.88538	33484.35714
1207.47197	33043.92857
1211.05612	32585.35714
1214.63782	32334.21429
1218.21708	32136.35714
1221.79391	31953.78571
1225.36829	31824.78571
1228.94024	31839.35714
1232.50976	31802.78571
1236.07685	31849.5
1239.6415	31884.07143
1243.20374	31968.78571
1246.76355	31980.07143
1250.32093	32103.78571
1253.8759	32243.64286
1257.42845	32403.5
1260.97859	32596.78571
1264.52631	32829.78571
1268.07163	32989.35714
1271.61453	33188.35714
1275.15503	33269.78571
1278.69312	33349.64286
1282.22882	33419.64286
1285.76211	33434.35714
1289.29301	33564.21429
1292.82151	33714.21429
1296.34761	33931.92857
1299.87133	34291.92857
1303.39266	34702.07143
1306.9116	35244.5
1310.42815	35854.21429
1313.94233	36240.78571
1317.45412	36120.92857
1320.96354	35875.5
1324.47058	35512.64286
1327.97525	35118.64286
1331.47754	34877.64286
1334.97747	34778.35714
1338.47502	34835.21429
1341.97022	35209.64286
1345.46305	35623.5
1348.95352	36302.21429
1352.44163	36842.5
1355.92738	37151.07143
1359.41078	37605.64286
1362.89183	37960.21429
1366.37053	37526.35714
1369.84688	36201.07143
1373.32088	34673.35714
1376.79254	33615.92857
1380.26186	32960.07143
1383.72883	32502.35714
1387.19347	32143.78571
1390.65578	31823.64286
1394.11575	31502.35714
1397.57339	31224.5
1401.0287	31103.07143
1404.48168	31039.07143
1407.93234	31097.21429
1411.38068	31093.64286
1414.82669	31083.07143
1418.27039	31075.07143
1421.71177	30948.64286
1425.15083	30866.78571
1428.58758	30732.07143
1432.02203	30634.78571
1435.45416	30579.35714
1438.88399	30663.92857
1442.31151	30655.92857
1445.73673	30631.92857
1449.15965	30684.07143
1452.58027	30651.92857
1455.9986	30638.64286
1459.41463	30612.64286
1462.82837	30761.21429
1466.23982	31009.21429
1469.64898	31231.64286
1473.05586	31496.78571
1476.46045	31740.92857
1479.86276	31897.78571
1483.26279	31995.07143
1486.66054	32095.64286
1490.05602	32282.64286
1493.44922	32561.35714
1496.84016	32984.35714
1500.22882	33555.5
1503.61521	34406.21429
1506.99934	35160.07143
1510.38121	35623.64286
1513.76081	35623.35714
1517.13816	34972.21429
1520.51324	34072.35714
1523.88607	33306.64286
1527.25665	32828.35714
1530.62498	32495.35714
1533.99105	32372.92857
1537.35488	32256.78571
1540.71647	32269.78571
1544.07581	32195.92857
1547.4329	32131.64286
1550.78776	32128.21429
1554.14038	32024.21429
1557.49077	31986.92857
1560.83892	32020.21429
1564.18484	32119.07143
1567.52853	32233.35714
1570.86999	32343.35714
1574.20922	32433.5
1577.54624	32418.21429
1580.88103	32228.07143
1584.2136	31951.35714
1587.54395	31770.5
1590.87208	31774.78571
1594.19801	31996.07143
1597.52172	32459.5
1600.84321	32692.92857
1604.16251	32653.21429
1607.47959	32469.21429
1610.79447	32019.92857
1614.10715	31591.5
1617.41763	31000.35714
1620.7259	30555.64286
1624.03199	30220.5
1627.33587	30062.92857
1630.63757	30045.07143
1633.93707	30209.07143
1637.23439	30557.21429
1640.52951	31179.78571
1643.82246	31940.5
1647.11321	32727.92857
1650.40179	33193.21429
1653.68819	32927.64286
1656.97241	31980.5
1660.25446	30877.5
1663.53433	30099.35714
1666.81203	29478.35714
1670.08756	29086.35714
1673.36092	28843.64286
1676.63211	28705.78571
1679.90115	28517.5
1683.16801	28416.78571
1686.43272	28324.21429
1689.69527	28237.78571
1692.95567	28118.64286
1696.2139	28082.07143
1699.46999	28099.35714
1702.72392	28071.21429
1705.97571	28076.21429
1709.22535	28098.92857
1712.47284	28067.5
1715.71819	28088.64286
1718.96139	28075.5
1722.20246	28029.92857
1725.44139	27928.07143
1728.67818	27893.92857
1731.91284	27843.07143
1735.14537	27821.21429
1738.37576	27733.64286
1741.60403	27638.35714
1744.83017	27530.35714
1748.05418	27530.92857
1751.27607	27536.35714
1754.49584	27484.5
1757.71349	27493.21429
1760.92903	27514.35714
1764.14244	27474.5
1767.35375	27467.35714
1770.56294	27405.21429
1773.77002	27343.35714
1776.97499	27334.64286
1780.17785	27261.78571
1783.37861	27223.35714
1786.57727	27215.78571
1789.77382	27087.92857
1792.96828	27061.92857
1796.16064	27054.92857
1799.3509	26974.07143
1802.53907	26946.07143
1805.72514	26881.64286
1808.90913	26860.5
1812.09102	26837.35714
1815.27083	26752.92857
1818.44856	26764.35714
1821.6242	26737.64286
1824.79776	26710.78571
1827.96924	26665.92857
1831.13864	26650.07143
1834.30597	26615.07143
1837.47122	26574.64286
1840.6344	26564.35714
1843.7955	26532.78571
1846.95454	26564.07143
1850.11151	26489.78571
1853.26642	26483.78571
1856.41926	26482.5
1859.57004	26440.78571
1862.71876	26411.78571
1865.86542	26372.92857
1869.01003	26364.07143
1872.15258	26314.21429
1875.29308	26321.35714
1878.43152	26297.64286
1881.56792	26228.5
1884.70227	26229.92857
1887.83457	26214.07143
1890.96482	26151.5
1894.09304	26088.92857
1897.21921	26036.07143
1900.34335	26043.64286
1903.46544	25984.07143
1906.58551	25956.92857
1909.70353	25892.35714
1912.81953	25868.5
1915.93349	25807.21429
1919.04543	25816.78571
1922.15534	25755.92857
1925.26322	25668.92857
1928.36908	25699.78571
1931.47292	25696.07143
1934.57473	25646.21429
1937.67453	25582.92857
1940.77232	25492.78571
1943.86808	25400.21429
1946.96184	25312.35714
1950.05358	25282.5
1953.14331	25218.21429
1956.23103	25154.35714
1959.31675	25103.07143
1962.40046	25049.78571
1965.48217	24943.35714
1968.56188	24910.35714
1971.63959	24764.35714
1974.7153	24733.35714
1977.78901	24641.92857
1980.86073	24597.5
1983.93046	24492.5
1986.99819	24424.78571
1990.06394	24391.07143
1993.1277	24289.07143
1996.18947	24228.78571
1999.24925	24149.5
2002.30706	24070.64286
2005.36288	23988.78571
2008.41672	23903.92857
2011.46859	23825.78571
2014.51848	23756.07143
2017.56639	23683.64286
2020.61233	23601.35714
2023.6563	23569.5
2026.6983	23523.5
2029.73833	23491.64286
2032.7764	23422.5
2035.8125	23312.07143
2038.84664	23286.78571
2041.87881	23292.21429
2044.90903	23218.78571
2047.93729	23151.35714
2050.96359	23176.92857
2053.98794	23095.92857
2057.01034	23077.64286
2060.03078	23055.35714
2063.04927	22999.07143
2066.06582	23044.07143
2069.08042	22984.78571
2072.09307	22996.64286
2075.10378	22973.07143
2078.11255	22973.07143
2081.11938	22949.21429
2084.12426	22918.5
2087.12722	22928.21429
2090.12824	22906.35714
2093.12732	22932.35714
2096.12447	22979.07143
2099.11969	22963.35714
2102.11299	22932.64286
2105.10435	22909.78571
2108.09379	22910.5
2111.08131	22994.07143
2114.0669	22990.78571
2117.05057	23010.64286
2120.03233	23024.92857
2123.01216	23056.5
2125.99008	23056.35714
2128.96609	23090.5
2131.94018	23108.5
2134.91236	23130.64286
2137.88263	23087.5
2140.851	23090.64286
2143.81746	23137.07143
2146.78201	23112.5
2149.74466	23165.07143
2152.7054	23177.21429
2155.66425	23107.64286
2158.6212	23116.35714
2161.57625	23077.92857
2164.52941	23093.92857
2167.48067	23044.78571
2170.43004	23037.5
2173.37752	23061.92857
2176.32311	23041.64286
2179.26681	22997.35714
2182.20863	22987.07143
2185.14856	23032.64286
2188.08661	22985.5
2191.02278	22977.92857
2193.95707	23011.35714
2196.88948	22897.78571
2199.82001	22948.92857
2202.74867	22892.35714
2205.67545	22871.78571
2208.60037	22838.64286
2211.52341	22802.92857
2214.44458	22749.64286
2217.36388	22692.21429
2220.28132	22656.35714
2223.1969	22554.92857
2226.11061	22539.78571
2229.02246	22480.64286
2231.93245	22449.64286
2234.84058	22403.07143
2237.74686	22339.78571
2240.65128	22378.78571
2243.55385	22414.35714
2246.45456	22333.21429
2249.35343	22298.5
2252.25044	22233.07143
2255.14561	22199.5
2258.03893	22196.78571
2260.93041	22144.64286
2263.82004	22117.92857
2266.70783	22039.92857
2269.59378	21966.35714
2272.4779	21904.78571
2275.36017	21896.64286
2278.24061	21858.64286
2281.11922	21787.78571
2283.996	21787.5
2286.87094	21753.21429
2289.74405	21724.21429
2292.61534	21645.92857
2295.4848	21613.21429
2298.35243	21630.5
2301.21824	21566.07143
2304.08223	21559.07143
2306.94439	21477.35714
2309.80474	21490.64286
2312.66327	21474.5
2315.51999	21458.92857
2318.37489	21410.21429
2321.22797	21399.78571
2324.07925	21358.64286
2326.92871	21284.35714
2329.77637	21237.92857
2332.62222	21192.64286
2335.46626	21200.92857
2338.3085	21179.21429
2341.14893	21145.78571
2343.98756	21135.64286
2346.8244	21080.92857
2349.65943	21036.35714
2352.49267	20980.07143
2355.32411	20961.35714
2358.15376	20998.35714
2360.98161	20956.78571
2363.80768	20957.5
2366.63195	20885.64286
2369.45444	20836.64286
2372.27514	20806.5
2375.09405	20805.35714
2377.91118	20778.35714
2380.72652	20776.78571
2383.54009	20680.07143
2386.35187	20656.78571
2389.16188	20591.92857
2391.97011	20554.64286
2394.77657	20524.64286
2397.58125	20541.35714
2400.38416	20456.92857
2403.18529	20459.5
2405.98466	20413.78571
2408.78226	20362.07143
2411.57809	20333.5
2414.37216	20232.5
2417.16446	20287.92857
2419.955	20258.35714
2422.74378	20208.5
2425.5308	20179.5
2428.31606	20177.92857
2431.09956	20166.5
2433.88131	20116.64286
2436.6613	20090.07143
2439.43954	20097.21429
2442.21603	20045.35714
2444.99077	20028.21429
2447.76377	19991.78571
2450.53501	19995.35714
2453.30451	19947.21429
2456.07226	19917.35714
2458.83827	19911.5
2461.60254	19883.07143
2464.36507	19839.78571
2467.12586	19785.64286
2469.88492	19766.35714
2472.64224	19736.07143
2475.39782	19703.78571
2478.15167	19674.35714
2480.90379	19680.92857
2483.65417	19721.78571
2486.40283	19679.07143
2489.14976	19691.35714
2491.89497	19671.21429
2494.63845	19672.64286
2497.3802	19599.5
2500.12024	19592.07143
2502.85855	19564.21429
2505.59514	19501.64286
2508.33002	19471.35714
2511.06318	19442.5
2513.79462	19420.35714
2516.52435	19380.64286
2519.25237	19407.78571
2521.97867	19308.07143
2524.70327	19306.5
2527.42616	19265.07143
2530.14734	19251.21429
2532.86681	19190.78571
2535.58458	19163.07143
2538.30065	19120.07143
2541.01501	19133.07143
2543.72768	19062.35714
2546.43864	19045.35714
2549.14791	19025.07143
2551.85548	18991.78571
2554.56136	18939.21429
2557.26554	18881.5
2559.96803	18892.78571
2562.66883	18825.64286
2565.36794	18767.07143
2568.06536	18712.78571
2570.7611	18690.78571
2573.45514	18665.92857
2576.14751	18603.78571
2578.83819	18577.07143
2581.52719	18541.07143
2584.21451	18512.21429
2586.90015	18467.35714
2589.58411	18409.35714
2592.2664	18437.35714
2594.94701	18366.78571
2597.62594	18323.92857
2600.30321	18244.07143
2602.9788	18235.78571
2605.65273	18186.35714
2608.32498	18183.5
2610.99557	18133.35714
2613.66449	18141.64286
2616.33175	18082.92857
2618.99734	18085.64286
2621.66128	18055.78571
2624.32355	18021.64286
2626.98416	17966.78571
2629.64311	17921.21429
2632.30041	17886.64286
2634.95605	17875.92857
2637.61004	17813.07143
2640.26238	17813.21429
2642.91306	17791.35714
2645.56209	17776.07143
2648.20948	17803.78571
2650.85521	17754.21429
2653.4993	17753.78571
2656.14175	17698.21429
2658.78255	17726.35714
2661.42171	17703.5
2664.05923	17742.35714
2666.6951	17689.78571
2669.32934	17667.5
2671.96194	17678.92857
2674.59291	17674.5
2677.22224	17660.5
2679.84993	17642.07143
2682.476	17594.5
2685.10043	17593.07143
2687.72324	17630.21429
2690.34441	17607.64286
2692.96396	17616.64286
2695.58188	17634.78571
2698.19818	17556.5
2700.81285	17584.35714
2703.4259	17575.92857
2706.03733	17546.78571
2708.64714	17560.78571
2711.25533	17565.92857
2713.86191	17570.07143
2716.46687	17588.07143
2719.07021	17565.78571
2721.67194	17555.07143
2724.27206	17500.64286
2726.87057	17508.64286
2729.46747	17503.92857
2732.06276	17454.21429
2734.65644	17464.92857
2737.24852	17457.78571
2739.83899	17409.5
2742.42786	17436.78571
2745.01513	17364.5
2747.60079	17365.78571
2750.18486	17291.5
2752.76733	17281.21429
2755.3482	17292.21429
2757.92747	17292.64286
2760.50515	17238.64286
2763.08123	17195.5
2765.65573	17142.78571
2768.22863	17090.35714
2770.79994	17118.5
2773.36967	17067.64286
2775.9378	17044.78571
2778.50435	17048.07143
2781.06932	16977.35714
2783.6327	17004.07143
2786.1945	16906.78571
2788.75471	16913.64286
2791.31335	16836.07143
2793.87041	16779.92857
2796.42589	16754.07143
2798.97979	16741.78571
2801.53212	16713.07143
2804.08288	16699.21429
2806.63206	16619.35714
2809.17967	16570.64286
2811.72571	16519.64286
2814.27018	16507.92857
2816.81308	16442.78571
2819.35442	16404.07143
2821.89419	16371.78571
2824.43239	16342.5
2826.96904	16336.78571
2829.50412	16314.5
2832.03763	16288.07143
2834.56959	16262.92857
2837.1	16240.21429
2839.62884	16220.35714
2842.15613	16149.35714
2844.68186	16150.21429
2847.20604	16178.78571
2849.72867	16121.64286
2852.24974	16116.64286
2854.76927	16091.64286
2857.28724	16075.92857
2859.80367	16057.35714
2862.31855	15988.92857
2864.83189	15940.64286
2867.34368	15905.64286
2869.85393	15917.5
2872.36264	15889.92857
2874.8698	15863.5
2877.37543	15817.35714
2879.87952	15838.78571
2882.38207	15844.07143
2884.88308	15777.07143
2887.38256	15790.21429
2889.88051	15822.64286
2892.37692	15780.64286
2894.8718	15773.64286
2897.36515	15791.78571
2899.85698	15764.21429
2902.34727	15809.92857
2904.83604	15762.92857
2907.32328	15781.92857
2909.809	15796.35714
2912.29319	15776.07143
2914.77587	15767.92857
2917.25702	15772.5
2919.73665	15695.92857
2922.21476	15715.35714
2924.69136	15721.35714
2927.16644	15729.07143
2929.64	15701.07143
2932.11205	15653.21429
2934.58258	15622.07143
2937.05161	15671.92857
2939.51912	15671.21429
2941.98513	15676.35714
2944.44962	15623.78571
2946.91261	15621.5
2949.37409	15645.92857
2951.83407	15621.35714
2954.29254	15613.35714
2956.74951	15575.92857
2959.20498	15568.64286
2961.65895	15547.78571
2964.11142	15583.78571
2966.56239	15495.5
2969.01186	15516.07143
2971.45984	15473.78571
2973.90632	15437.21429
2976.35131	15463.92857
2978.7948	15400.92857
2981.23681	15353.35714
2983.67732	15363.78571
2986.11635	15308.78571
2988.55388	15294.21429
2990.98993	15260.07143
2993.4245	15210.07143
2995.85758	15201.5
2998.28917	15182.07143
3000.71928	15143.21429
3003.14791	15139.5
3005.57506	15084.35714
3008.00073	15061.92857
3010.42493	15084.64286
3012.84764	15008.35714
3015.26888	15016.35714
3017.68865	14974.64286
3020.10694	14958.21429
3022.52376	14912.21429
3024.9391	14881.07143
3027.35298	14879.21429
3029.76539	14845.64286
3032.17632	14848.92857
3034.5858	14827.21429
3036.9938	14815.64286
3039.40034	14799.5
3041.80542	14808.92857
3044.20903	14757.21429
3046.61118	14726.5
3049.01187	14704.92857
3051.4111	14687.07143
3053.80888	14674.64286
3056.20519	14639.78571
3058.60005	14599.64286
3060.99345	14597.35714
3063.3854	14540.5
3065.7759	14523.92857
3068.16494	14479.21429
3070.55254	14418.21429
3072.93868	14411.78571
3075.32338	14372.21429
3077.70662	14377.07143
3080.08842	14320.78571
3082.46878	14306.92857
3084.84769	14301.35714
3087.22515	14273.64286
3089.60118	14265.5
3091.97576	14284.07143
3094.3489	14293.64286
3096.72061	14294.07143
3099.09087	14273.07143
3101.4597	14249.07143
3103.82709	14269.07143
3106.19305	14221.07143
3108.55757	14267.21429
3110.92066	14218.21429
3113.28232	14196.92857
3115.64255	14140.64286
3118.00134	14087.78571
3120.35871	14074.35714
3122.71466	14077.64286
3125.06917	14023.5
3127.42226	13979.07143
3129.77393	14021.5
3132.12417	13979.07143
3134.47299	13968.07143
3136.82039	13959.35714
3139.16636	13940.35714
3141.51092	13957.21429
3143.85406	13961.92857
3146.19579	13950.5
3148.53609	13956.07143
3150.87499	13978.21429
3153.21246	13942.92857
3155.54853	13992.64286
3157.88318	13959.64286
3160.21642	13981.64286
3162.54826	14018.21429
3164.87868	14013.78571
3167.2077	13979.78571
3169.5353	13994.21429
3171.86151	13955.78571
3174.18631	13956.78571
3176.5097	13976.92857
3178.83169	13909.78571
3181.15228	13896.21429
3183.47147	13888.64286
3185.78926	13855.92857
3188.10565	13834.07143
3190.42065	13798.64286
3192.73424	13820.5
3195.04645	13799.78571
3197.35725	13792.35714
3199.66667	13752.35714
3201.97469	13769.35714
3204.28132	13783.07143
3206.58656	13830.07143
3208.8904	13790.64286
3211.19287	13819.78571
3213.49394	13840.64286
3215.79363	13824.21429
3218.09193	13821.78571
3220.38884	13811.5
3222.68438	13828.78571
3224.97853	13803.64286
3227.2713	13768.21429
3229.56269	13763.78571
3231.8527	13747.5
3234.14133	13720.35714
3236.42858	13654.78571
3238.71446	13652.78571
3240.99896	13644.64286
3243.28209	13590.21429
3245.56384	13555.5
3247.84423	13508.07143
3250.12324	13534.5
3252.40088	13517.35714
3254.67715	13565.35714
3256.95205	13511.21429
3259.22558	13540.21429
3261.49775	13467.21429
3263.76855	13483.07143
3266.03799	13473.35714
3268.30606	13475.21429
3270.57277	13418.78571
3272.83812	13372.64286
3275.10211	13342.78571
3277.36474	13328.92857
3279.62601	13373.21429
3281.88593	13296.64286
3284.14448	13299.35714
3286.40168	13287.5
3288.65753	13268.92857
3290.91202	13259.92857
3293.16516	13198.21429
3295.41695	13195.92857
3297.66738	13127.5
3299.91647	13042.07143
3302.16421	12939.35714
3304.4106	12920.78571
3306.65564	12825.78571
3308.89933	12745.21429
3311.14169	12661.78571
3313.38269	12550.64286
3315.62236	12468.21429
3317.86068	12352.92857
3320.09766	12251.35714
3322.3333	12172.92857
3324.5676	12120.21429
3326.80056	11939.92857
3329.03219	11880.07143
3331.26248	1.92857
3333.49143	0.35714
3335.71905	0.64286
