Data from AgNPs_FTO_APTES_UA_20uM_CRN_0uM_R6G_10uM_NaF_0.1M_Addition_RamanShift__42__11-38-41-981.txt Node

Date: Thu Feb 17 11:38:41 GMT 2022
User: TCL
Spectrometer: QEP01345
Trigger mode: 4
Integration Time (sec): 7.000000E0
Scans to average: 10
Electric dark correction enabled: true
Nonlinearity correction enabled: false
Boxcar width: 0
XAxis mode: Raman Shifts
Number of Pixels in Spectrum: 1044
>>>>>Begin Spectral Data<<<<<
46.04893	-0.9375
50.45542	-0.4375
54.85868	-3.0375
59.25871	-1.4375
63.6555	100.7625
68.04907	99.1625
72.43941	103.8625
76.82654	108.9625
81.21044	108.8625
85.59113	119.5625
89.96862	122.0625
94.34289	122.4625
98.71396	123.6625
103.08183	131.0625
107.4465	133.8625
111.80798	135.5625
116.16626	143.7625
120.52136	151.8625
124.87327	154.6625
129.222	166.6625
133.56755	175.4625
137.90993	188.8625
142.24913	206.9625
146.58517	237.1625
150.91804	281.8625
155.24774	329.1625
159.57429	416.6625
163.89768	543.0625
168.21792	726.1625
172.53501	994.2625
176.84895	1392.9625
181.15975	1972.6625
185.46741	2779.3625
189.77193	3840.1625
194.07331	5156.5625
198.37157	6642.7625
202.6667	8238.5625
206.9587	9827.0625
211.24758	11338.7625
215.53334	12833.8625
219.81599	14374.8625
224.09553	16083.6625
228.37195	17935.1625
232.64527	20062.2625
236.91549	22289.4625
241.18261	24650.5625
245.44663	26931.5625
249.70755	28998.4625
253.96539	30778.1625
258.22014	32288.1625
262.4718	33459.1625
266.72039	34254.5625
270.96589	34668.5625
275.20832	34661.0625
279.44768	34445.9625
283.68397	34130.4625
287.91719	33798.8625
292.14735	33523.7625
296.37445	33378.9625
300.59849	33221.2625
304.81948	33186.0625
309.03742	33168.2625
313.25231	33054.4625
317.46415	32951.2625
321.67296	32764.8625
325.87872	32540.4625
330.08145	32513.0625
334.28114	32551.9625
338.47781	32755.3625
342.67145	33178.8625
346.86207	33632.4625
351.04966	34154.4625
355.23424	34646.9625
359.4158	35041.1625
363.59435	35371.8625
367.76989	35553.8625
371.94243	35631.2625
376.11196	35798.8625
380.27849	35881.2625
384.44203	36068.3625
388.60257	36386.2625
392.76012	36788.5625
396.91468	37299.3625
401.06626	37839.4625
405.21485	38182.7625
409.36047	38222.6625
413.50311	38020.9625
417.64277	38085.8625
421.77947	38349.2625
425.9132	38748.5625
430.04396	39095.7625
434.17176	39316.1625
438.2966	39542.3625
442.41849	40031.7625
446.53742	40758.4625
450.6534	41505.3625
454.76644	42034.2625
458.87653	42175.5625
462.98368	42107.8625
467.08789	41867.7625
471.18916	41470.7625
475.2875	41036.9625
479.38291	40690.4625
483.4754	40452.1625
487.56496	40253.7625
491.6516	40083.7625
495.73531	39800.1625
499.81612	39686.5625
503.89401	39791.0625
507.96899	39978.9625
512.04106	40100.7625
516.11023	39989.1625
520.1765	39723.5625
524.23987	39513.6625
528.30034	39404.0625
532.35792	39168.0625
536.41261	38915.6625
540.46441	38632.3625
544.51333	38567.2625
548.55936	38749.2625
552.60252	39215.2625
556.64279	39823.6625
560.6802	40417.8625
564.71473	40857.8625
568.7464	41492.2625
572.7752	42740.1625
576.80114	44424.5625
580.82422	46260.9625
584.84444	47995.2625
588.86181	50358.4625
592.87633	53038.3625
596.888	53809.7625
600.89682	51449.0625
604.9028	48912.4625
608.90594	48478.5625
612.90624	48734.5625
616.90371	46376.7625
620.89834	42659.8625
624.89015	41186.9625
628.87913	41273.5625
632.86528	41604.7625
636.84862	41523.5625
640.82913	40885.1625
644.80683	40042.3625
648.78172	39635.0625
652.75379	39538.1625
656.72306	39799.6625
660.68952	40186.8625
664.65319	40197.2625
668.61405	39881.7625
672.57211	39840.1625
676.52738	39967.3625
680.47986	40031.4625
684.42955	39872.1625
688.37646	39768.7625
692.32058	39959.9625
696.26192	40406.3625
700.20048	40782.9625
704.13626	41102.8625
708.06928	41318.1625
711.99952	41371.9625
715.927	41349.7625
719.85171	41291.6625
723.77365	41134.7625
727.69284	40707.4625
731.60928	40325.0625
735.52295	40134.6625
739.43388	40152.4625
743.34206	40261.5625
747.24749	40531.2625
751.15017	40894.9625
755.05012	41407.1625
758.94733	42246.3625
762.8418	43389.8625
766.73354	44991.8625
770.62254	46378.7625
774.50882	46351.1625
778.39237	45042.8625
782.27321	43482.8625
786.15132	42191.2625
790.02671	41409.4625
793.89938	40826.6625
797.76935	40615.9625
801.6366	40464.8625
805.50115	40370.0625
809.36299	40338.8625
813.22213	40153.5625
817.07857	40095.4625
820.93231	40030.0625
824.78336	39978.5625
828.63172	39864.1625
832.47738	39830.4625
836.32036	39810.3625
840.16066	39884.5625
843.99827	39899.7625
847.8332	39996.4625
851.66546	40137.5625
855.49504	40167.4625
859.32195	40278.6625
863.1462	40248.7625
866.96777	40284.4625
870.78668	40292.3625
874.60293	40321.4625
878.41652	40387.1625
882.22745	40505.0625
886.03573	40631.3625
889.84136	40659.4625
893.64433	40602.9625
897.44466	40458.9625
901.24235	40430.8625
905.0374	40370.4625
908.8298	40348.0625
912.61957	40382.8625
916.40671	40607.8625
920.19121	41004.9625
923.97308	41436.3625
927.75233	41518.9625
931.52895	41184.5625
935.30295	40546.8625
939.07433	40047.0625
942.84309	39686.2625
946.60924	39556.4625
950.37278	39498.1625
954.13371	39506.2625
957.89203	39449.1625
961.64774	39447.4625
965.40086	39481.0625
969.15137	39478.1625
972.89929	39339.0625
976.64461	39280.2625
980.38733	39160.8625
984.12747	39242.3625
987.86502	39274.1625
991.59999	39443.8625
995.33237	39724.6625
999.06217	40105.9625
1002.78939	40689.3625
1006.51404	41435.2625
1010.23611	42159.9625
1013.95561	42622.7625
1017.67255	42631.3625
1021.38692	42203.5625
1025.09872	41522.2625
1028.80796	40985.3625
1032.51465	40759.9625
1036.21877	40761.6625
1039.92035	40807.9625
1043.61937	40906.6625
1047.31584	41026.0625
1051.00976	41165.2625
1054.70114	41391.9625
1058.38998	41538.6625
1062.07627	41838.7625
1065.76003	42200.0625
1069.44126	42751.9625
1073.11995	43417.3625
1076.79611	43918.8625
1080.46974	44144.4625
1084.14085	44306.2625
1087.80943	44679.7625
1091.47549	45020.9625
1095.13903	45107.5625
1098.80005	44682.1625
1102.45857	43945.1625
1106.11456	43305.7625
1109.76805	42921.9625
1113.41903	42871.2625
1117.06751	42979.1625
1120.71348	43167.8625
1124.35696	43379.1625
1127.99793	43698.8625
1131.63641	43861.6625
1135.2724	43936.6625
1138.90589	43976.9625
1142.5369	44142.7625
1146.16542	44457.4625
1149.79145	44809.6625
1153.415	45181.6625
1157.03607	45640.1625
1160.65467	46325.0625
1164.27079	47507.7625
1167.88443	49120.4625
1171.49561	50729.1625
1175.10432	52676.6625
1178.71056	54923.6625
1182.31434	57020.7625
1185.91565	58075.6625
1189.51451	57930.7625
1193.11091	57273.1625
1196.70485	56203.0625
1200.29634	55030.0625
1203.88538	54246.1625
1207.47197	54077.3625
1211.05612	54129.8625
1214.63782	53777.9625
1218.21708	52916.5625
1221.79391	51806.0625
1225.36829	51055.5625
1228.94024	50612.8625
1232.50976	50127.8625
1236.07685	49625.7625
1239.6415	49147.7625
1243.20374	48938.5625
1246.76355	49066.4625
1250.32093	49473.4625
1253.8759	50165.0625
1257.42845	51062.9625
1260.97859	52149.4625
1264.52631	53329.7625
1268.07163	54603.9625
1271.61453	55809.3625
1275.15503	56910.9625
1278.69312	58196.0625
1282.22882	59616.7625
1285.76211	61335.4625
1289.29301	63233.9625
1292.82151	65292.6625
1296.34761	67675.5625
1299.87133	70544.6625
1303.39266	73352.1625
1306.9116	75715.8625
1310.42815	77411.7625
1313.94233	78022.1625
1317.45412	77467.9625
1320.96354	76264.7625
1324.47058	75531.9625
1327.97525	75057.2625
1331.47754	74808.2625
1334.97747	74485.9625
1338.47502	74135.4625
1341.97022	73841.1625
1345.46305	73466.9625
1348.95352	72865.4625
1352.44163	72181.5625
1355.92738	72170.4625
1359.41078	73125.5625
1362.89183	74104.5625
1366.37053	73523.8625
1369.84688	70277.7625
1373.32088	65405.8625
1376.79254	61692.7625
1380.26186	60230.2625
1383.72883	60170.3625
1387.19347	60253.3625
1390.65578	59797.0625
1394.11575	59691.6625
1397.57339	59991.2625
1401.0287	60735.5625
1404.48168	61346.6625
1407.93234	61220.1625
1411.38068	60345.7625
1414.82669	58835.1625
1418.27039	57112.0625
1421.71177	55477.9625
1425.15083	54299.6625
1428.58758	53773.4625
1432.02203	54192.5625
1435.45416	55178.2625
1438.88399	56426.9625
1442.31151	57357.3625
1445.73673	57815.2625
1449.15965	58125.1625
1452.58027	58385.1625
1455.9986	58438.7625
1459.41463	58880.9625
1462.82837	59556.7625
1466.23982	60426.5625
1469.64898	61168.1625
1473.05586	61734.7625
1476.46045	61886.2625
1479.86276	61829.1625
1483.26279	61667.6625
1486.66054	61515.1625
1490.05602	61821.8625
1493.44922	62393.2625
1496.84016	62929.8625
1500.22882	63308.0625
1503.61521	63537.5625
1506.99934	63531.8625
1510.38121	63459.2625
1513.76081	63087.0625
1517.13816	62547.7625
1520.51324	62138.2625
1523.88607	62320.0625
1527.25665	62838.8625
1530.62498	63207.9625
1533.99105	62949.5625
1537.35488	62076.7625
1540.71647	60758.8625
1544.07581	59413.4625
1547.4329	58143.5625
1550.78776	57022.9625
1554.14038	56291.2625
1557.49077	55905.9625
1560.83892	55751.7625
1564.18484	55640.9625
1567.52853	55564.7625
1570.86999	55774.1625
1574.20922	56370.7625
1577.54624	57027.6625
1580.88103	57235.5625
1584.2136	57862.8625
1587.54395	59590.9625
1590.87208	62189.1625
1594.19801	65239.3625
1597.52172	67971.1625
1600.84321	68546.2625
1604.16251	66143.3625
1607.47959	62031.1625
1610.79447	57797.8625
1614.10715	54074.0625
1617.41763	51090.3625
1620.7259	48972.0625
1624.03199	48000.8625
1627.33587	48024.2625
1630.63757	49010.9625
1633.93707	51473.6625
1637.23439	55606.9625
1640.52951	61879.5625
1643.82246	69288.8625
1647.11321	75164.6625
1650.40179	75863.6625
1653.68819	70827.9625
1656.97241	62728.9625
1660.25446	55116.5625
1663.53433	49575.7625
1666.81203	46141.3625
1670.08756	44060.8625
1673.36092	42817.0625
1676.63211	41875.0625
1679.90115	41242.9625
1683.16801	40709.9625
1686.43272	40406.3625
1689.69527	40116.4625
1692.95567	39879.2625
1696.2139	39723.9625
1699.46999	39691.7625
1702.72392	39565.7625
1705.97571	39503.9625
1709.22535	39378.4625
1712.47284	39375.7625
1715.71819	39406.2625
1718.96139	39293.0625
1722.20246	39221.8625
1725.44139	39104.0625
1728.67818	38921.2625
1731.91284	38710.3625
1735.14537	38556.7625
1738.37576	38415.6625
1741.60403	38388.6625
1744.83017	38276.9625
1748.05418	38142.4625
1751.27607	38136.9625
1754.49584	38123.7625
1757.71349	38109.6625
1760.92903	38049.9625
1764.14244	37994.2625
1767.35375	37925.7625
1770.56294	37926.8625
1773.77002	37866.9625
1776.97499	37881.2625
1780.17785	37827.8625
1783.37861	37815.9625
1786.57727	37716.2625
1789.77382	37638.7625
1792.96828	37639.7625
1796.16064	37579.2625
1799.3509	37513.2625
1802.53907	37409.8625
1805.72514	37327.9625
1808.90913	37252.1625
1812.09102	37127.6625
1815.27083	37134.2625
1818.44856	37081.7625
1821.6242	36943.9625
1824.79776	36920.0625
1827.96924	36900.5625
1831.13864	36883.5625
1834.30597	36890.7625
1837.47122	36852.2625
1840.6344	36778.0625
1843.7955	36827.7625
1846.95454	36867.4625
1850.11151	36881.1625
1853.26642	36878.9625
1856.41926	36904.9625
1859.57004	36899.2625
1862.71876	36844.7625
1865.86542	36823.3625
1869.01003	36733.9625
1872.15258	36675.1625
1875.29308	36660.2625
1878.43152	36588.5625
1881.56792	36543.1625
1884.70227	36512.4625
1887.83457	36502.6625
1890.96482	36464.9625
1894.09304	36390.5625
1897.21921	36305.9625
1900.34335	36282.3625
1903.46544	36245.3625
1906.58551	36229.6625
1909.70353	36181.5625
1912.81953	36119.2625
1915.93349	36053.8625
1919.04543	35940.1625
1922.15534	35945.7625
1925.26322	35832.8625
1928.36908	35827.1625
1931.47292	35692.6625
1934.57473	35550.2625
1937.67453	35509.5625
1940.77232	35376.0625
1943.86808	35329.4625
1946.96184	35232.6625
1950.05358	35091.2625
1953.14331	35002.9625
1956.23103	34917.4625
1959.31675	34823.9625
1962.40046	34679.1625
1965.48217	34534.2625
1968.56188	34462.4625
1971.63959	34412.5625
1974.7153	34279.0625
1977.78901	34182.4625
1980.86073	34051.1625
1983.93046	33961.9625
1986.99819	33842.3625
1990.06394	33805.9625
1993.1277	33702.4625
1996.18947	33573.8625
1999.24925	33492.3625
2002.30706	33436.7625
2005.36288	33283.4625
2008.41672	33212.4625
2011.46859	33116.9625
2014.51848	33017.3625
2017.56639	32948.2625
2020.61233	32837.5625
2023.6563	32759.0625
2026.6983	32635.1625
2029.73833	32577.0625
2032.7764	32471.9625
2035.8125	32442.5625
2038.84664	32410.5625
2041.87881	32347.0625
2044.90903	32254.5625
2047.93729	32207.8625
2050.96359	32153.6625
2053.98794	32117.9625
2057.01034	32138.5625
2060.03078	32143.9625
2063.04927	32151.2625
2066.06582	32130.1625
2069.08042	32113.3625
2072.09307	32083.2625
2075.10378	31999.0625
2078.11255	31958.0625
2081.11938	31989.5625
2084.12426	31920.5625
2087.12722	31944.1625
2090.12824	31891.9625
2093.12732	31964.9625
2096.12447	31903.6625
2099.11969	31892.5625
2102.11299	31876.6625
2105.10435	31957.2625
2108.09379	31922.0625
2111.08131	31983.3625
2114.0669	31934.6625
2117.05057	31921.7625
2120.03233	31920.4625
2123.01216	31974.4625
2125.99008	32030.3625
2128.96609	32058.3625
2131.94018	32100.4625
2134.91236	32134.1625
2137.88263	32163.7625
2140.851	32141.5625
2143.81746	32126.8625
2146.78201	32172.2625
2149.74466	32235.0625
2152.7054	32199.9625
2155.66425	32197.3625
2158.6212	32150.9625
2161.57625	32131.1625
2164.52941	32153.2625
2167.48067	32106.7625
2170.43004	32045.9625
2173.37752	32063.5625
2176.32311	32108.3625
2179.26681	32120.1625
2182.20863	32106.9625
2185.14856	32116.9625
2188.08661	32067.2625
2191.02278	32076.7625
2193.95707	32009.7625
2196.88948	31951.1625
2199.82001	31994.0625
2202.74867	31959.5625
2205.67545	31903.6625
2208.60037	31814.5625
2211.52341	31758.4625
2214.44458	31724.1625
2217.36388	31675.7625
2220.28132	31627.8625
2223.1969	31577.9625
2226.11061	31543.1625
2229.02246	31419.5625
2231.93245	31416.7625
2234.84058	31394.1625
2237.74686	31393.7625
2240.65128	31361.3625
2243.55385	31291.9625
2246.45456	31204.6625
2249.35343	31189.5625
2252.25044	31124.1625
2255.14561	31078.4625
2258.03893	31023.7625
2260.93041	30906.0625
2263.82004	30849.8625
2266.70783	30767.4625
2269.59378	30694.3625
2272.4779	30607.9625
2275.36017	30590.2625
2278.24061	30550.1625
2281.11922	30457.2625
2283.996	30370.3625
2286.87094	30371.2625
2289.74405	30303.8625
2292.61534	30283.6625
2295.4848	30247.3625
2298.35243	30217.2625
2301.21824	30160.6625
2304.08223	30166.0625
2306.94439	30110.2625
2309.80474	30126.4625
2312.66327	30118.6625
2315.51999	30053.3625
2318.37489	29999.7625
2321.22797	29955.7625
2324.07925	29943.7625
2326.92871	29840.3625
2329.77637	29777.4625
2332.62222	29745.7625
2335.46626	29740.6625
2338.3085	29716.9625
2341.14893	29689.1625
2343.98756	29636.8625
2346.8244	29616.4625
2349.65943	29624.7625
2352.49267	29655.4625
2355.32411	29579.6625
2358.15376	29543.5625
2360.98161	29556.3625
2363.80768	29559.6625
2366.63195	29508.8625
2369.45444	29471.4625
2372.27514	29454.9625
2375.09405	29395.0625
2377.91118	29350.8625
2380.72652	29276.0625
2383.54009	29226.4625
2386.35187	29168.0625
2389.16188	29063.3625
2391.97011	28960.8625
2394.77657	28966.0625
2397.58125	28978.6625
2400.38416	28853.2625
2403.18529	28841.4625
2405.98466	28830.9625
2408.78226	28771.3625
2411.57809	28758.3625
2414.37216	28720.4625
2417.16446	28708.6625
2419.955	28672.8625
2422.74378	28644.3625
2425.5308	28607.9625
2428.31606	28626.0625
2431.09956	28643.6625
2433.88131	28608.6625
2436.6613	28593.6625
2439.43954	28545.4625
2442.21603	28500.3625
2444.99077	28436.4625
2447.76377	28487.3625
2450.53501	28397.1625
2453.30451	28445.5625
2456.07226	28391.7625
2458.83827	28347.3625
2461.60254	28316.9625
2464.36507	28355.5625
2467.12586	28274.8625
2469.88492	28250.5625
2472.64224	28235.7625
2475.39782	28240.9625
2478.15167	28274.1625
2480.90379	28215.1625
2483.65417	28248.8625
2486.40283	28222.0625
2489.14976	28199.4625
2491.89497	28189.4625
2494.63845	28184.9625
2497.3802	28115.7625
2500.12024	28125.6625
2502.85855	28080.3625
2505.59514	28086.7625
2508.33002	27989.6625
2511.06318	27981.7625
2513.79462	27974.3625
2516.52435	27966.2625
2519.25237	27920.4625
2521.97867	27936.3625
2524.70327	27873.4625
2527.42616	27839.2625
2530.14734	27834.5625
2532.86681	27782.3625
2535.58458	27758.7625
2538.30065	27744.2625
2541.01501	27731.1625
2543.72768	27732.6625
2546.43864	27670.3625
2549.14791	27567.2625
2551.85548	27570.2625
2554.56136	27557.6625
2557.26554	27486.5625
2559.96803	27429.0625
2562.66883	27384.3625
2565.36794	27343.3625
2568.06536	27329.7625
2570.7611	27259.7625
2573.45514	27213.7625
2576.14751	27193.6625
2578.83819	27151.4625
2581.52719	27156.9625
2584.21451	27098.3625
2586.90015	27057.6625
2589.58411	26990.1625
2592.2664	26987.9625
2594.94701	26928.2625
2597.62594	26950.7625
2600.30321	26886.3625
2602.9788	26916.4625
2605.65273	26859.4625
2608.32498	26862.2625
2610.99557	26789.4625
2613.66449	26841.0625
2616.33175	26792.1625
2618.99734	26745.7625
2621.66128	26670.2625
2624.32355	26644.4625
2626.98416	26614.8625
2629.64311	26577.9625
2632.30041	26581.9625
2634.95605	26507.7625
2637.61004	26488.1625
2640.26238	26516.5625
2642.91306	26485.9625
2645.56209	26463.1625
2648.20948	26462.4625
2650.85521	26457.7625
2653.4993	26465.9625
2656.14175	26470.9625
2658.78255	26458.5625
2661.42171	26465.6625
2664.05923	26500.9625
2666.6951	26496.4625
2669.32934	26475.5625
2671.96194	26470.7625
2674.59291	26455.7625
2677.22224	26452.8625
2679.84993	26479.0625
2682.476	26434.2625
2685.10043	26438.1625
2687.72324	26391.7625
2690.34441	26425.2625
2692.96396	26467.0625
2695.58188	26471.0625
2698.19818	26410.3625
2700.81285	26387.9625
2703.4259	26384.3625
2706.03733	26431.5625
2708.64714	26381.3625
2711.25533	26413.6625
2713.86191	26414.4625
2716.46687	26462.3625
2719.07021	26430.4625
2721.67194	26491.2625
2724.27206	26407.0625
2726.87057	26499.0625
2729.46747	26433.7625
2732.06276	26471.9625
2734.65644	26483.2625
2737.24852	26480.0625
2739.83899	26402.6625
2742.42786	26438.8625
2745.01513	26411.7625
2747.60079	26343.8625
2750.18486	26329.9625
2752.76733	26359.0625
2755.3482	26282.1625
2757.92747	26268.4625
2760.50515	26202.2625
2763.08123	26187.6625
2765.65573	26160.6625
2768.22863	26146.6625
2770.79994	26076.5625
2773.36967	26106.6625
2775.9378	26084.7625
2778.50435	26094.5625
2781.06932	26048.7625
2783.6327	26051.6625
2786.1945	26042.1625
2788.75471	25931.8625
2791.31335	25906.6625
2793.87041	25861.4625
2796.42589	25794.6625
2798.97979	25762.3625
2801.53212	25721.6625
2804.08288	25686.3625
2806.63206	25629.2625
2809.17967	25548.7625
2811.72571	25489.0625
2814.27018	25412.3625
2816.81308	25347.6625
2819.35442	25305.5625
2821.89419	25226.1625
2824.43239	25232.1625
2826.96904	25189.8625
2829.50412	25230.4625
2832.03763	25141.8625
2834.56959	25110.4625
2837.1	25027.4625
2839.62884	24987.8625
2842.15613	24968.6625
2844.68186	24990.3625
2847.20604	24958.7625
2849.72867	24958.1625
2852.24974	24906.3625
2854.76927	24863.6625
2857.28724	24770.9625
2859.80367	24768.4625
2862.31855	24777.6625
2864.83189	24738.5625
2867.34368	24692.9625
2869.85393	24675.3625
2872.36264	24594.7625
2874.8698	24572.5625
2877.37543	24519.4625
2879.87952	24491.8625
2882.38207	24511.1625
2884.88308	24544.2625
2887.38256	24534.2625
2889.88051	24551.8625
2892.37692	24505.8625
2894.8718	24490.4625
2897.36515	24541.8625
2899.85698	24507.7625
2902.34727	24556.8625
2904.83604	24485.9625
2907.32328	24552.1625
2909.809	24509.8625
2912.29319	24550.7625
2914.77587	24581.1625
2917.25702	24528.2625
2919.73665	24535.9625
2922.21476	24540.8625
2924.69136	24493.6625
2927.16644	24499.1625
2929.64	24470.5625
2932.11205	24435.4625
2934.58258	24368.1625
2937.05161	24416.6625
2939.51912	24396.5625
2941.98513	24403.1625
2944.44962	24340.2625
2946.91261	24285.0625
2949.37409	24337.5625
2951.83407	24293.9625
2954.29254	24301.6625
2956.74951	24286.3625
2959.20498	24284.1625
2961.65895	24243.0625
2964.11142	24250.2625
2966.56239	24241.8625
2969.01186	24228.5625
2971.45984	24133.0625
2973.90632	24088.2625
2976.35131	24053.2625
2978.7948	23996.1625
2981.23681	23969.7625
2983.67732	23923.3625
2986.11635	23838.4625
2988.55388	23781.7625
2990.98993	23754.4625
2993.4245	23710.8625
2995.85758	23629.0625
2998.28917	23583.9625
3000.71928	23511.9625
3003.14791	23496.8625
3005.57506	23438.4625
3008.00073	23381.9625
3010.42493	23351.3625
3012.84764	23343.0625
3015.26888	23311.0625
3017.68865	23259.9625
3020.10694	23212.0625
3022.52376	23135.0625
3024.9391	23097.8625
3027.35298	23082.4625
3029.76539	23050.8625
3032.17632	23045.9625
3034.5858	22968.7625
3036.9938	22947.4625
3039.40034	22922.3625
3041.80542	22920.7625
3044.20903	22893.7625
3046.61118	22883.4625
3049.01187	22786.2625
3051.4111	22750.0625
3053.80888	22731.5625
3056.20519	22627.6625
3058.60005	22603.4625
3060.99345	22599.6625
3063.3854	22495.2625
3065.7759	22429.9625
3068.16494	22385.2625
3070.55254	22309.1625
3072.93868	22243.5625
3075.32338	22149.8625
3077.70662	22124.1625
3080.08842	22057.4625
3082.46878	22012.7625
3084.84769	21983.7625
3087.22515	21989.1625
3089.60118	21953.3625
3091.97576	21918.9625
3094.3489	21930.6625
3096.72061	21910.2625
3099.09087	21922.5625
3101.4597	21873.9625
3103.82709	21898.3625
3106.19305	21856.8625
3108.55757	21848.7625
3110.92066	21791.5625
3113.28232	21763.0625
3115.64255	21697.5625
3118.00134	21619.8625
3120.35871	21555.8625
3122.71466	21499.8625
3125.06917	21433.3625
3127.42226	21445.3625
3129.77393	21434.7625
3132.12417	21350.2625
3134.47299	21353.4625
3136.82039	21295.1625
3139.16636	21298.6625
3141.51092	21284.4625
3143.85406	21280.6625
3146.19579	21271.7625
3148.53609	21231.5625
3150.87499	21235.8625
3153.21246	21249.7625
3155.54853	21271.6625
3157.88318	21235.1625
3160.21642	21248.2625
3162.54826	21223.1625
3164.87868	21185.0625
3167.2077	21142.4625
3169.5353	21116.5625
3171.86151	21118.8625
3174.18631	21101.1625
3176.5097	21148.7625
3178.83169	21059.3625
3181.15228	21003.2625
3183.47147	20908.8625
3185.78926	20933.2625
3188.10565	20878.6625
3190.42065	20831.6625
3192.73424	20834.8625
3195.04645	20745.9625
3197.35725	20760.3625
3199.66667	20724.4625
3201.97469	20764.1625
3204.28132	20735.3625
3206.58656	20687.7625
3208.8904	20712.4625
3211.19287	20707.0625
3213.49394	20698.5625
3215.79363	20657.9625
3218.09193	20729.4625
3220.38884	20710.2625
3222.68438	20715.2625
3224.97853	20654.3625
3227.2713	20590.2625
3229.56269	20530.3625
3231.8527	20550.2625
3234.14133	20540.1625
3236.42858	20511.0625
3238.71446	20468.0625
3240.99896	20383.3625
3243.28209	20419.1625
3245.56384	20350.2625
3247.84423	20325.7625
3250.12324	20288.1625
3252.40088	20273.6625
3254.67715	20255.9625
3256.95205	20194.4625
3259.22558	20171.4625
3261.49775	20160.8625
3263.76855	20161.8625
3266.03799	20065.6625
3268.30606	20061.3625
3270.57277	20025.6625
3272.83812	19981.3625
3275.10211	19933.6625
3277.36474	19869.2625
3279.62601	19919.2625
3281.88593	19842.4625
3284.14448	19848.7625
3286.40168	19819.3625
3288.65753	19827.0625
3290.91202	19785.2625
3293.16516	19743.2625
3295.41695	19708.0625
3297.66738	19585.5625
3299.91647	19467.4625
3302.16421	19325.5625
3304.4106	19226.8625
3306.65564	19098.6625
3308.89933	18947.0625
3311.14169	18851.8625
3313.38269	18687.9625
3315.62236	18565.7625
3317.86068	18412.0625
3320.09766	18217.0625
3322.3333	18086.6625
3324.5676	18003.1625
3326.80056	17737.5625
3329.03219	17596.0625
3331.26248	5.2625
3333.49143	0.8625
3335.71905	-0.3375
