Data from AgNPs_FTO_APTES_UA_20uM_CRN_200uM_R6G_10uM_NaF_0.1M_Addition_RamanShift__16__18-11-04-926.txt Node

Date: Thu Feb 17 18:11:04 GMT 2022
User: TCL
Spectrometer: QEP01345
Trigger mode: 4
Integration Time (sec): 1.000000E1
Scans to average: 7
Electric dark correction enabled: true
Nonlinearity correction enabled: false
Boxcar width: 0
XAxis mode: Raman Shifts
Number of Pixels in Spectrum: 1044
>>>>>Begin Spectral Data<<<<<
46.04893	0.48214
50.45542	-0.80357
54.85868	0.33929
59.25871	-1.375
63.6555	81.05357
68.04907	84.05357
72.43941	88.05357
76.82654	98.48214
81.21044	99.48214
85.59113	98.19643
89.96862	107.48214
94.34289	101.05357
98.71396	105.76786
103.08183	111.33929
107.4465	117.05357
111.80798	119.91071
116.16626	118.48214
120.52136	125.33929
124.87327	133.625
129.222	131.625
133.56755	138.05357
137.90993	150.91071
142.24913	165.48214
146.58517	186.625
150.91804	210.05357
155.24774	252.05357
159.57429	307.625
163.89768	391.91071
168.21792	519.625
172.53501	713.33929
176.84895	1001.76786
181.15975	1396.91071
185.46741	1984.33929
189.77193	2763.05357
194.07331	3726.625
198.37157	4839.625
202.6667	6022.76786
206.9587	7182.91071
211.24758	8338.91071
215.53334	9464.48214
219.81599	10660.05357
224.09553	11893.48214
228.37195	13310.19643
232.64527	14850.33929
236.91549	16543.05357
241.18261	18249.625
245.44663	19871.76786
249.70755	21375.19643
253.96539	22743.91071
258.22014	23841.33929
262.4718	24678.625
266.72039	25302.91071
270.96589	25638.91071
275.20832	25687.33929
279.44768	25486.33929
283.68397	25098.33929
287.91719	24773.48214
292.14735	24507.05357
296.37445	24358.05357
300.59849	24345.19643
304.81948	24465.05357
309.03742	24459.91071
313.25231	24344.625
317.46415	24106.91071
321.67296	23729.33929
325.87872	23432.48214
330.08145	23365.33929
334.28114	23473.33929
338.47781	23709.625
342.67145	23936.76786
346.86207	24334.48214
351.04966	24828.625
355.23424	25269.19643
359.4158	25739.625
363.59435	26112.625
367.76989	26426.91071
371.94243	26646.625
376.11196	26858.625
380.27849	27039.625
384.44203	27168.19643
388.60257	27309.76786
392.76012	27497.48214
396.91468	27673.19643
401.06626	27973.76786
405.21485	28199.05357
409.36047	28178.625
413.50311	27939.05357
417.64277	27709.19643
421.77947	27560.05357
425.9132	27592.625
430.04396	27687.33929
434.17176	27852.48214
438.2966	28043.33929
442.41849	28401.05357
446.53742	28892.05357
450.6534	29338.05357
454.76644	29772.19643
458.87653	29916.19643
462.98368	29919.76786
467.08789	29784.91071
471.18916	29580.33929
475.2875	29378.76786
479.38291	29183.33929
483.4754	28997.76786
487.56496	28888.48214
491.6516	28831.33929
495.73531	28784.05357
499.81612	28802.48214
503.89401	28996.05357
507.96899	29091.91071
512.04106	29214.625
516.11023	29250.91071
520.1765	29285.05357
524.23987	29278.33929
528.30034	29284.76786
532.35792	29220.625
536.41261	29136.48214
540.46441	28991.625
544.51333	28952.91071
548.55936	28966.33929
552.60252	29200.76786
556.64279	29438.05357
560.6802	29577.33929
564.71473	29633.48214
568.7464	29669.33929
572.7752	29883.625
576.80114	29956.48214
580.82422	29963.76786
584.84444	30073.05357
588.86181	30363.76786
592.87633	30725.48214
596.888	31002.625
600.89682	31184.33929
604.9028	31936.48214
608.90594	34116.33929
612.90624	36663.05357
616.90371	35725.19643
620.89834	31946.76786
624.89015	30195.625
628.87913	29933.48214
632.86528	29982.33929
636.84862	30067.33929
640.82913	29983.33929
644.80683	29619.76786
648.78172	29348.19643
652.75379	29323.48214
656.72306	29646.19643
660.68952	29993.33929
664.65319	29966.19643
668.61405	29746.05357
672.57211	29791.05357
676.52738	29986.625
680.47986	30125.33929
684.42955	30031.76786
688.37646	29889.76786
692.32058	29876.33929
696.26192	29945.91071
700.20048	30091.05357
704.13626	30226.48214
708.06928	30152.48214
711.99952	29999.76786
715.927	29871.91071
719.85171	29937.76786
723.77365	29937.91071
727.69284	29885.05357
731.60928	29768.33929
735.52295	29780.05357
739.43388	29796.91071
743.34206	29851.625
747.24749	29900.05357
751.15017	29930.76786
755.05012	30014.625
758.94733	30282.33929
762.8418	30985.33929
766.73354	32241.625
770.62254	33735.33929
774.50882	34551.05357
778.39237	33975.19643
782.27321	32585.19643
786.15132	31214.76786
790.02671	30329.05357
793.89938	29820.48214
797.76935	29645.33929
801.6366	29612.19643
805.50115	29544.33929
809.36299	29480.91071
813.22213	29395.19643
817.07857	29312.19643
820.93231	29321.19643
824.78336	29303.48214
828.63172	29315.91071
832.47738	29310.76786
836.32036	29342.625
840.16066	29354.76786
843.99827	29473.76786
847.8332	29464.91071
851.66546	29490.76786
855.49504	29466.33929
859.32195	29508.76786
863.1462	29579.48214
866.96777	29617.19643
870.78668	29614.48214
874.60293	29645.76786
878.41652	29606.48214
882.22745	29655.76786
886.03573	29743.19643
889.84136	29767.48214
893.64433	29603.48214
897.44466	29502.48214
901.24235	29456.19643
905.0374	29368.625
908.8298	29287.33929
912.61957	29191.33929
916.40671	29262.625
920.19121	29368.05357
923.97308	29501.19643
927.75233	29579.625
931.52895	29635.48214
935.30295	29521.76786
939.07433	29249.33929
942.84309	29089.48214
946.60924	28983.48214
950.37278	28876.05357
954.13371	28784.19643
957.89203	28751.91071
961.64774	28720.05357
965.40086	28648.76786
969.15137	28582.91071
972.89929	28518.76786
976.64461	28552.91071
980.38733	28584.48214
984.12747	28645.76786
987.86502	28767.33929
991.59999	28974.48214
995.33237	29196.76786
999.06217	29491.76786
1002.78939	29775.19643
1006.51404	30021.05357
1010.23611	30172.48214
1013.95561	30253.05357
1017.67255	30321.33929
1021.38692	30268.33929
1025.09872	30107.91071
1028.80796	30119.76786
1032.51465	30365.625
1036.21877	30611.33929
1039.92035	30716.19643
1043.61937	30580.625
1047.31584	30382.19643
1051.00976	30090.91071
1054.70114	29983.05357
1058.38998	29991.76786
1062.07627	30061.625
1065.76003	30090.76786
1069.44126	30146.48214
1073.11995	30261.76786
1076.79611	30462.76786
1080.46974	30597.48214
1084.14085	30733.625
1087.80943	30915.91071
1091.47549	30976.91071
1095.13903	30907.91071
1098.80005	30772.48214
1102.45857	30540.05357
1106.11456	30412.48214
1109.76805	30459.48214
1113.41903	30545.76786
1117.06751	30650.19643
1120.71348	30869.91071
1124.35696	31040.91071
1127.99793	31241.48214
1131.63641	31362.625
1135.2724	31125.19643
1138.90589	30913.05357
1142.5369	30685.48214
1146.16542	30494.33929
1149.79145	30349.19643
1153.415	30271.91071
1157.03607	30303.91071
1160.65467	30573.19643
1164.27079	31008.76786
1167.88443	31627.33929
1171.49561	32540.76786
1175.10432	33746.33929
1178.71056	35384.76786
1182.31434	36834.625
1185.91565	37632.91071
1189.51451	37564.48214
1193.11091	36770.33929
1196.70485	35764.05357
1200.29634	34963.48214
1203.88538	34214.91071
1207.47197	33439.76786
1211.05612	32794.76786
1214.63782	32347.48214
1218.21708	32195.05357
1221.79391	32196.91071
1225.36829	32243.19643
1228.94024	32243.19643
1232.50976	31994.19643
1236.07685	31720.76786
1239.6415	31626.48214
1243.20374	31714.19643
1246.76355	31713.48214
1250.32093	31961.625
1253.8759	32225.05357
1257.42845	32619.48214
1260.97859	33023.625
1264.52631	33384.625
1268.07163	33798.625
1271.61453	34259.76786
1275.15503	34742.625
1278.69312	35151.19643
1282.22882	35522.91071
1285.76211	35748.91071
1289.29301	36056.76786
1292.82151	36459.19643
1296.34761	37067.05357
1299.87133	37991.625
1303.39266	39229.48214
1306.9116	40844.48214
1310.42815	42641.33929
1313.94233	43691.48214
1317.45412	43481.19643
1320.96354	42411.76786
1324.47058	41138.05357
1327.97525	40046.05357
1331.47754	39310.625
1334.97747	38896.19643
1338.47502	38832.05357
1341.97022	39072.625
1345.46305	39495.76786
1348.95352	40183.91071
1352.44163	41059.05357
1355.92738	42372.625
1359.41078	44139.33929
1362.89183	45681.05357
1366.37053	45028.76786
1369.84688	41945.33929
1373.32088	38574.76786
1376.79254	36222.625
1380.26186	35004.625
1383.72883	34370.76786
1387.19347	33952.33929
1390.65578	33474.19643
1394.11575	32985.33929
1397.57339	32802.91071
1401.0287	32870.91071
1404.48168	33009.91071
1407.93234	33118.625
1411.38068	33109.33929
1414.82669	33068.48214
1418.27039	32838.19643
1421.71177	32599.19643
1425.15083	32237.625
1428.58758	31973.05357
1432.02203	31935.91071
1435.45416	32090.76786
1438.88399	32402.76786
1442.31151	32545.05357
1445.73673	32667.05357
1449.15965	32686.19643
1452.58027	32731.625
1455.9986	32713.19643
1459.41463	32698.625
1462.82837	32889.48214
1466.23982	33271.33929
1469.64898	33695.625
1473.05586	34102.33929
1476.46045	34339.33929
1479.86276	34471.91071
1483.26279	34481.91071
1486.66054	34577.91071
1490.05602	34781.76786
1493.44922	35093.76786
1496.84016	35525.19643
1500.22882	36294.33929
1503.61521	37533.91071
1506.99934	38927.48214
1510.38121	40110.76786
1513.76081	40365.48214
1517.13816	39452.76786
1520.51324	37757.19643
1523.88607	36122.05357
1527.25665	35153.33929
1530.62498	34564.76786
1533.99105	34252.33929
1537.35488	34052.19643
1540.71647	33955.76786
1544.07581	33788.05357
1547.4329	33682.625
1550.78776	33485.48214
1554.14038	33380.05357
1557.49077	33376.19643
1560.83892	33411.19643
1564.18484	33586.05357
1567.52853	33665.76786
1570.86999	33879.76786
1574.20922	34060.33929
1577.54624	34019.48214
1580.88103	33711.19643
1584.2136	33222.48214
1587.54395	33098.48214
1590.87208	33503.625
1594.19801	34484.76786
1597.52172	35798.48214
1600.84321	36509.05357
1604.16251	36107.19643
1607.47959	35076.48214
1610.79447	33797.19643
1614.10715	32495.76786
1617.41763	31379.33929
1620.7259	30549.625
1624.03199	30015.625
1627.33587	29887.76786
1630.63757	30099.19643
1633.93707	30729.19643
1637.23439	31762.48214
1640.52951	33205.625
1643.82246	35145.76786
1647.11321	36854.76786
1650.40179	37521.48214
1653.68819	36486.19643
1656.97241	34112.33929
1660.25446	31679.76786
1663.53433	29924.33929
1666.81203	28819.05357
1670.08756	28027.76786
1673.36092	27621.05357
1676.63211	27318.48214
1679.90115	27053.33929
1683.16801	26851.48214
1686.43272	26649.33929
1689.69527	26607.91071
1692.95567	26477.33929
1696.2139	26465.19643
1699.46999	26352.19643
1702.72392	26365.625
1705.97571	26341.76786
1709.22535	26335.48214
1712.47284	26272.76786
1715.71819	26290.91071
1718.96139	26222.33929
1722.20246	26181.19643
1725.44139	26136.48214
1728.67818	26099.625
1731.91284	25960.19643
1735.14537	25912.76786
1738.37576	25881.19643
1741.60403	25805.91071
1744.83017	25716.19643
1748.05418	25692.76786
1751.27607	25745.19643
1754.49584	25675.05357
1757.71349	25670.76786
1760.92903	25652.48214
1764.14244	25624.76786
1767.35375	25588.625
1770.56294	25533.48214
1773.77002	25419.91071
1776.97499	25434.48214
1780.17785	25363.76786
1783.37861	25368.05357
1786.57727	25285.76786
1789.77382	25195.05357
1792.96828	25242.76786
1796.16064	25142.91071
1799.3509	25134.48214
1802.53907	25068.19643
1805.72514	25037.33929
1808.90913	24949.05357
1812.09102	24937.48214
1815.27083	24869.05357
1818.44856	24880.625
1821.6242	24873.33929
1824.79776	24821.91071
1827.96924	24776.19643
1831.13864	24770.05357
1834.30597	24704.05357
1837.47122	24684.05357
1840.6344	24677.19643
1843.7955	24674.76786
1846.95454	24680.19643
1850.11151	24623.33929
1853.26642	24640.625
1856.41926	24618.48214
1859.57004	24596.05357
1862.71876	24564.76786
1865.86542	24598.33929
1869.01003	24540.05357
1872.15258	24491.48214
1875.29308	24522.48214
1878.43152	24446.76786
1881.56792	24442.625
1884.70227	24445.91071
1887.83457	24406.48214
1890.96482	24387.19643
1894.09304	24359.05357
1897.21921	24277.05357
1900.34335	24271.33929
1903.46544	24277.625
1906.58551	24196.76786
1909.70353	24177.76786
1912.81953	24111.19643
1915.93349	24124.48214
1919.04543	24121.625
1922.15534	24095.05357
1925.26322	24060.625
1928.36908	23980.625
1931.47292	23982.76786
1934.57473	23917.91071
1937.67453	23891.33929
1940.77232	23800.625
1943.86808	23733.91071
1946.96184	23634.91071
1950.05358	23588.19643
1953.14331	23500.05357
1956.23103	23521.19643
1959.31675	23456.91071
1962.40046	23368.625
1965.48217	23299.76786
1968.56188	23253.76786
1971.63959	23166.33929
1974.7153	23134.625
1977.78901	23046.19643
1980.86073	23000.19643
1983.93046	22932.19643
1986.99819	22838.19643
1990.06394	22804.76786
1993.1277	22742.76786
1996.18947	22640.33929
1999.24925	22614.48214
2002.30706	22530.76786
2005.36288	22457.05357
2008.41672	22415.48214
2011.46859	22356.625
2014.51848	22292.91071
2017.56639	22250.625
2020.61233	22150.76786
2023.6563	22087.05357
2026.6983	22040.19643
2029.73833	22001.33929
2032.7764	21982.19643
2035.8125	21933.76786
2038.84664	21846.33929
2041.87881	21852.91071
2044.90903	21801.76786
2047.93729	21752.625
2050.96359	21747.05357
2053.98794	21709.76786
2057.01034	21710.48214
2060.03078	21692.05357
2063.04927	21643.48214
2066.06582	21689.625
2069.08042	21670.76786
2072.09307	21634.48214
2075.10378	21626.33929
2078.11255	21636.19643
2081.11938	21589.625
2084.12426	21600.625
2087.12722	21628.05357
2090.12824	21567.625
2093.12732	21593.76786
2096.12447	21562.19643
2099.11969	21614.19643
2102.11299	21600.91071
2105.10435	21552.05357
2108.09379	21572.91071
2111.08131	21619.05357
2114.0669	21595.91071
2117.05057	21661.05357
2120.03233	21697.33929
2123.01216	21661.625
2125.99008	21706.33929
2128.96609	21778.33929
2131.94018	21791.76786
2134.91236	21761.19643
2137.88263	21784.33929
2140.851	21785.48214
2143.81746	21800.05357
2146.78201	21783.33929
2149.74466	21834.91071
2152.7054	21830.05357
2155.66425	21828.91071
2158.6212	21759.48214
2161.57625	21780.05357
2164.52941	21785.48214
2167.48067	21766.91071
2170.43004	21730.19643
2173.37752	21737.48214
2176.32311	21763.48214
2179.26681	21765.76786
2182.20863	21716.625
2185.14856	21764.91071
2188.08661	21754.05357
2191.02278	21751.91071
2193.95707	21736.19643
2196.88948	21704.625
2199.82001	21704.33929
2202.74867	21721.76786
2205.67545	21714.76786
2208.60037	21632.48214
2211.52341	21566.19643
2214.44458	21587.76786
2217.36388	21547.33929
2220.28132	21516.48214
2223.1969	21480.625
2226.11061	21455.76786
2229.02246	21363.05357
2231.93245	21340.91071
2234.84058	21246.625
2237.74686	21283.33929
2240.65128	21291.05357
2243.55385	21304.33929
2246.45456	21230.48214
2249.35343	21159.625
2252.25044	21182.19643
2255.14561	21139.76786
2258.03893	21128.48214
2260.93041	21084.33929
2263.82004	21023.05357
2266.70783	20975.91071
2269.59378	20920.625
2272.4779	20875.48214
2275.36017	20828.48214
2278.24061	20796.625
2281.11922	20757.05357
2283.996	20760.33929
2286.87094	20762.05357
2289.74405	20686.05357
2292.61534	20665.48214
2295.4848	20645.625
2298.35243	20674.625
2301.21824	20626.05357
2304.08223	20606.48214
2306.94439	20610.05357
2309.80474	20575.91071
2312.66327	20561.19643
2315.51999	20567.91071
2318.37489	20587.19643
2321.22797	20494.05357
2324.07925	20484.48214
2326.92871	20438.625
2329.77637	20414.33929
2332.62222	20377.33929
2335.46626	20339.19643
2338.3085	20345.48214
2341.14893	20310.48214
2343.98756	20319.33929
2346.8244	20310.76786
2349.65943	20260.19643
2352.49267	20229.625
2355.32411	20259.05357
2358.15376	20252.33929
2360.98161	20207.76786
2363.80768	20240.19643
2366.63195	20190.19643
2369.45444	20117.625
2372.27514	20129.625
2375.09405	20022.76786
2377.91118	20058.05357
2380.72652	20049.33929
2383.54009	19966.91071
2386.35187	19962.05357
2389.16188	19894.05357
2391.97011	19831.625
2394.77657	19830.76786
2397.58125	19870.76786
2400.38416	19776.76786
2403.18529	19746.76786
2405.98466	19704.91071
2408.78226	19691.33929
2411.57809	19656.625
2414.37216	19613.33929
2417.16446	19652.76786
2419.955	19594.19643
2422.74378	19594.48214
2425.5308	19526.48214
2428.31606	19510.76786
2431.09956	19523.33929
2433.88131	19474.625
2436.6613	19461.33929
2439.43954	19498.33929
2442.21603	19482.625
2444.99077	19424.76786
2447.76377	19428.91071
2450.53501	19380.48214
2453.30451	19388.76786
2456.07226	19360.33929
2458.83827	19321.625
2461.60254	19304.33929
2464.36507	19300.05357
2467.12586	19256.625
2469.88492	19252.33929
2472.64224	19258.91071
2475.39782	19235.91071
2478.15167	19243.33929
2480.90379	19244.19643
2483.65417	19263.19643
2486.40283	19273.19643
2489.14976	19257.76786
2491.89497	19242.48214
2494.63845	19244.19643
2497.3802	19226.625
2500.12024	19175.05357
2502.85855	19175.76786
2505.59514	19112.625
2508.33002	19083.19643
2511.06318	19068.76786
2513.79462	19061.48214
2516.52435	19028.48214
2519.25237	19009.91071
2521.97867	18979.48214
2524.70327	18963.625
2527.42616	18942.76786
2530.14734	18896.625
2532.86681	18916.19643
2535.58458	18889.48214
2538.30065	18855.05357
2541.01501	18831.19643
2543.72768	18836.91071
2546.43864	18788.19643
2549.14791	18781.76786
2551.85548	18731.19643
2554.56136	18725.19643
2557.26554	18673.33929
2559.96803	18653.625
2562.66883	18616.91071
2565.36794	18591.19643
2568.06536	18507.91071
2570.7611	18481.19643
2573.45514	18462.48214
2576.14751	18416.33929
2578.83819	18398.33929
2581.52719	18381.19643
2584.21451	18358.91071
2586.90015	18333.625
2589.58411	18333.91071
2592.2664	18327.76786
2594.94701	18251.76786
2597.62594	18257.05357
2600.30321	18172.05357
2602.9788	18184.33929
2605.65273	18132.05357
2608.32498	18129.91071
2610.99557	18129.91071
2613.66449	18132.91071
2616.33175	18067.76786
2618.99734	18071.33929
2621.66128	18064.05357
2624.32355	18063.05357
2626.98416	18057.19643
2629.64311	17992.625
2632.30041	18005.19643
2634.95605	17936.33929
2637.61004	17887.19643
2640.26238	17882.91071
2642.91306	17848.19643
2645.56209	17859.19643
2648.20948	17860.625
2650.85521	17817.19643
2653.4993	17833.76786
2656.14175	17804.33929
2658.78255	17807.76786
2661.42171	17824.19643
2664.05923	17825.625
2666.6951	17795.48214
2669.32934	17820.05357
2671.96194	17825.91071
2674.59291	17888.91071
2677.22224	17842.33929
2679.84993	17813.91071
2682.476	17792.48214
2685.10043	17783.19643
2687.72324	17757.19643
2690.34441	17741.625
2692.96396	17786.625
2695.58188	17751.91071
2698.19818	17768.625
2700.81285	17757.33929
2703.4259	17755.05357
2706.03733	17741.48214
2708.64714	17767.625
2711.25533	17773.76786
2713.86191	17764.76786
2716.46687	17778.48214
2719.07021	17750.05357
2721.67194	17780.76786
2724.27206	17758.48214
2726.87057	17775.76786
2729.46747	17725.625
2732.06276	17725.05357
2734.65644	17760.625
2737.24852	17753.91071
2739.83899	17682.05357
2742.42786	17726.625
2745.01513	17667.625
2747.60079	17623.19643
2750.18486	17615.625
2752.76733	17611.33929
2755.3482	17597.48214
2757.92747	17617.05357
2760.50515	17570.33929
2763.08123	17538.91071
2765.65573	17511.05357
2768.22863	17495.48214
2770.79994	17465.625
2773.36967	17439.91071
2775.9378	17472.19643
2778.50435	17448.19643
2781.06932	17420.48214
2783.6327	17384.625
2786.1945	17374.48214
2788.75471	17317.33929
2791.31335	17278.76786
2793.87041	17263.33929
2796.42589	17238.625
2798.97979	17243.625
2801.53212	17194.48214
2804.08288	17164.19643
2806.63206	17113.05357
2809.17967	17089.91071
2811.72571	17060.91071
2814.27018	17041.05357
2816.81308	16975.33929
2819.35442	16936.48214
2821.89419	16887.05357
2824.43239	16862.33929
2826.96904	16899.91071
2829.50412	16865.625
2832.03763	16838.76786
2834.56959	16856.625
2837.1	16834.48214
2839.62884	16803.19643
2842.15613	16775.76786
2844.68186	16785.05357
2847.20604	16768.625
2849.72867	16765.33929
2852.24974	16720.05357
2854.76927	16705.625
2857.28724	16672.05357
2859.80367	16682.76786
2862.31855	16591.05357
2864.83189	16646.05357
2867.34368	16599.48214
2869.85393	16619.19643
2872.36264	16579.48214
2874.8698	16567.625
2877.37543	16574.33929
2879.87952	16551.76786
2882.38207	16566.625
2884.88308	16514.76786
2887.38256	16506.05357
2889.88051	16536.33929
2892.37692	16543.76786
2894.8718	16548.05357
2897.36515	16555.48214
2899.85698	16563.91071
2902.34727	16617.33929
2904.83604	16581.33929
2907.32328	16606.19643
2909.809	16624.33929
2912.29319	16618.625
2914.77587	16642.625
2917.25702	16633.625
2919.73665	16592.91071
2922.21476	16604.48214
2924.69136	16620.76786
2927.16644	16617.76786
2929.64	16614.91071
2932.11205	16552.05357
2934.58258	16512.76786
2937.05161	16533.33929
2939.51912	16564.91071
2941.98513	16554.91071
2944.44962	16540.48214
2946.91261	16529.19643
2949.37409	16534.625
2951.83407	16536.76786
2954.29254	16490.48214
2956.74951	16486.625
2959.20498	16473.19643
2961.65895	16448.05357
2964.11142	16474.48214
2966.56239	16413.19643
2969.01186	16412.48214
2971.45984	16400.05357
2973.90632	16393.91071
2976.35131	16337.05357
2978.7948	16282.48214
2981.23681	16286.91071
2983.67732	16266.05357
2986.11635	16238.19643
2988.55388	16200.91071
2990.98993	16168.76786
2993.4245	16095.76786
2995.85758	16117.05357
2998.28917	16087.48214
3000.71928	16072.33929
3003.14791	16050.48214
3005.57506	16075.91071
3008.00073	15993.76786
3010.42493	16002.76786
3012.84764	15931.625
3015.26888	15958.76786
3017.68865	15867.76786
3020.10694	15885.76786
3022.52376	15867.05357
3024.9391	15841.33929
3027.35298	15804.625
3029.76539	15819.05357
3032.17632	15843.33929
3034.5858	15809.91071
3036.9938	15777.33929
3039.40034	15744.625
3041.80542	15756.76786
3044.20903	15721.76786
3046.61118	15720.48214
3049.01187	15655.19643
3051.4111	15664.33929
3053.80888	15645.91071
3056.20519	15637.05357
3058.60005	15590.76786
3060.99345	15590.33929
3063.3854	15544.05357
3065.7759	15531.33929
3068.16494	15459.91071
3070.55254	15424.33929
3072.93868	15372.05357
3075.32338	15346.33929
3077.70662	15327.91071
3080.08842	15312.76786
3082.46878	15304.19643
3084.84769	15303.05357
3087.22515	15314.05357
3089.60118	15347.91071
3091.97576	15305.05357
3094.3489	15296.76786
3096.72061	15332.91071
3099.09087	15314.76786
3101.4597	15284.91071
3103.82709	15328.91071
3106.19305	15297.05357
3108.55757	15323.19643
3110.92066	15260.91071
3113.28232	15250.91071
3115.64255	15204.19643
3118.00134	15144.91071
3120.35871	15153.91071
3122.71466	15137.19643
3125.06917	15083.05357
3127.42226	15074.33929
3129.77393	15095.48214
3132.12417	15072.91071
3134.47299	15063.19643
3136.82039	15057.19643
3139.16636	15025.48214
3141.51092	15081.05357
3143.85406	15041.33929
3146.19579	15085.05357
3148.53609	15067.625
3150.87499	15072.625
3153.21246	15098.625
3155.54853	15088.91071
3157.88318	15121.19643
3160.21642	15138.05357
3162.54826	15181.76786
3164.87868	15126.625
3167.2077	15090.625
3169.5353	15135.19643
3171.86151	15134.76786
3174.18631	15130.33929
3176.5097	15138.05357
3178.83169	15130.19643
3181.15228	15090.33929
3183.47147	15049.91071
3185.78926	15071.76786
3188.10565	15025.76786
3190.42065	15018.05357
3192.73424	15041.05357
3195.04645	15009.76786
3197.35725	15008.76786
3199.66667	14975.19643
3201.97469	14971.48214
3204.28132	14985.33929
3206.58656	15045.91071
3208.8904	15039.33929
3211.19287	15061.625
3213.49394	15051.76786
3215.79363	15066.19643
3218.09193	15102.48214
3220.38884	15090.76786
3222.68438	15092.48214
3224.97853	15086.05357
3227.2713	15053.33929
3229.56269	15030.76786
3231.8527	15038.625
3234.14133	15023.48214
3236.42858	14970.05357
3238.71446	14955.91071
3240.99896	14929.19643
3243.28209	14921.625
3245.56384	14863.05357
3247.84423	14895.76786
3250.12324	14879.19643
3252.40088	14896.19643
3254.67715	14853.91071
3256.95205	14867.91071
3259.22558	14852.05357
3261.49775	14841.19643
3263.76855	14860.91071
3266.03799	14817.48214
3268.30606	14802.05357
3270.57277	14786.91071
3272.83812	14751.19643
3275.10211	14744.05357
3277.36474	14696.19643
3279.62601	14731.33929
3281.88593	14673.19643
3284.14448	14642.05357
3286.40168	14656.48214
3288.65753	14655.625
3290.91202	14626.19643
3293.16516	14609.91071
3295.41695	14583.91071
3297.66738	14498.91071
3299.91647	14452.625
3302.16421	14384.19643
3304.4106	14331.91071
3306.65564	14187.48214
3308.89933	14147.48214
3311.14169	14026.19643
3313.38269	13888.76786
3315.62236	13855.05357
3317.86068	13733.91071
3320.09766	13622.19643
3322.3333	13561.48214
3324.5676	13481.05357
3326.80056	13293.19643
3329.03219	13216.91071
3331.26248	3.05357
3333.49143	-0.94643
3335.71905	-1.375
