Data from AgNPs_FTO_APTES_UA_20uM_CRN_2uM_R6G_10uM_NaF_0.1M_Addition_RamanShift__15__12-58-02-080.txt Node

Date: Thu Feb 17 12:58:02 GMT 2022
User: TCL
Spectrometer: QEP01345
Trigger mode: 4
Integration Time (sec): 7.000000E0
Scans to average: 10
Electric dark correction enabled: true
Nonlinearity correction enabled: false
Boxcar width: 0
XAxis mode: Raman Shifts
Number of Pixels in Spectrum: 1044
>>>>>Begin Spectral Data<<<<<
46.04893	-1.1375
50.45542	-0.9375
54.85868	-2.6375
59.25871	-0.6375
63.6555	134.9625
68.04907	133.6625
72.43941	139.8625
76.82654	141.1625
81.21044	142.4625
85.59113	151.0625
89.96862	159.2625
94.34289	159.4625
98.71396	162.8625
103.08183	170.1625
107.4465	180.1625
111.80798	183.4625
116.16626	188.5625
120.52136	200.4625
124.87327	206.1625
129.222	221.8625
133.56755	237.3625
137.90993	255.9625
142.24913	284.9625
146.58517	328.8625
150.91804	380.6625
155.24774	459.6625
159.57429	578.1625
163.89768	754.0625
168.21792	1007.1625
172.53501	1397.0625
176.84895	1960.2625
181.15975	2782.8625
185.46741	3925.4625
189.77193	5420.4625
194.07331	7312.0625
198.37157	9434.6625
202.6667	11687.2625
206.9587	13910.5625
211.24758	16068.6625
215.53334	18274.3625
219.81599	20549.1625
224.09553	23029.2625
228.37195	25802.8625
232.64527	28866.7625
236.91549	32083.9625
241.18261	35403.1625
245.44663	38600.1625
249.70755	41504.5625
253.96539	44079.4625
258.22014	46238.0625
262.4718	48034.2625
266.72039	49315.8625
270.96589	50126.4625
275.20832	50297.7625
279.44768	50086.1625
283.68397	49764.3625
287.91719	49324.9625
292.14735	49051.7625
296.37445	48945.0625
300.59849	48952.6625
304.81948	49027.8625
309.03742	48975.5625
313.25231	48627.5625
317.46415	47946.0625
321.67296	47111.4625
325.87872	46456.2625
330.08145	46213.7625
334.28114	46324.7625
338.47781	46762.2625
342.67145	47217.5625
346.86207	47952.6625
351.04966	48701.5625
355.23424	49495.0625
359.4158	50165.9625
363.59435	50733.2625
367.76989	51153.7625
371.94243	51580.0625
376.11196	51945.5625
380.27849	52177.4625
384.44203	52481.6625
388.60257	52858.1625
392.76012	53364.4625
396.91468	53960.6625
401.06626	54591.0625
405.21485	55025.0625
409.36047	54983.5625
413.50311	54526.4625
417.64277	54245.5625
421.77947	54251.1625
425.9132	54383.9625
430.04396	54641.7625
434.17176	55010.0625
438.2966	55371.6625
442.41849	56003.9625
446.53742	56938.6625
450.6534	58017.6625
454.76644	58938.3625
458.87653	59421.3625
462.98368	59542.3625
467.08789	59362.7625
471.18916	58983.6625
475.2875	58672.9625
479.38291	58481.6625
483.4754	58234.5625
487.56496	57862.2625
491.6516	57341.8625
495.73531	56819.8625
499.81612	56457.9625
503.89401	56683.3625
507.96899	56937.8625
512.04106	56929.5625
516.11023	56812.5625
520.1765	56445.2625
524.23987	56260.5625
528.30034	55979.4625
532.35792	55702.0625
536.41261	55419.2625
540.46441	55202.0625
544.51333	55254.8625
548.55936	55696.2625
552.60252	56573.8625
556.64279	57611.5625
560.6802	58304.5625
564.71473	58841.5625
568.7464	59596.3625
572.7752	60702.1625
576.80114	61985.7625
580.82422	63098.7625
584.84444	63815.6625
588.86181	64370.2625
592.87633	64677.0625
596.888	64134.9625
600.89682	63480.2625
604.9028	64356.3625
608.90594	67756.6625
612.90624	71043.4625
616.90371	67891.7625
620.89834	60789.0625
624.89015	57699.9625
628.87913	57343.0625
632.86528	57666.5625
636.84862	57984.1625
640.82913	57547.6625
644.80683	56771.1625
648.78172	56095.4625
652.75379	56025.7625
656.72306	56463.7625
660.68952	57211.6625
664.65319	57095.9625
668.61405	56593.0625
672.57211	56582.7625
676.52738	56734.6625
680.47986	56795.0625
684.42955	56629.5625
688.37646	56528.7625
692.32058	56753.9625
696.26192	57244.6625
700.20048	57845.9625
704.13626	58276.4625
708.06928	58342.6625
711.99952	58182.3625
715.927	58077.8625
719.85171	58150.1625
723.77365	58058.8625
727.69284	57742.8625
731.60928	57240.2625
735.52295	57079.2625
739.43388	57085.8625
743.34206	57199.1625
747.24749	57416.4625
751.15017	57725.1625
755.05012	58373.1625
758.94733	59331.2625
762.8418	61267.8625
766.73354	64276.8625
770.62254	66938.8625
774.50882	67317.6625
778.39237	65335.6625
782.27321	62516.2625
786.15132	60131.4625
790.02671	58544.1625
793.89938	57835.1625
797.76935	57443.6625
801.6366	57266.6625
805.50115	57102.2625
809.36299	56999.0625
813.22213	56823.6625
817.07857	56693.3625
820.93231	56670.6625
824.78336	56649.9625
828.63172	56528.1625
832.47738	56410.1625
836.32036	56474.7625
840.16066	56499.8625
843.99827	56510.9625
847.8332	56626.3625
851.66546	56680.2625
855.49504	56693.8625
859.32195	56798.9625
863.1462	56841.7625
866.96777	56793.9625
870.78668	56819.8625
874.60293	56853.1625
878.41652	56882.3625
882.22745	57054.6625
886.03573	57132.7625
889.84136	57183.7625
893.64433	57011.2625
897.44466	56914.4625
901.24235	56759.4625
905.0374	56667.8625
908.8298	56602.7625
912.61957	56657.2625
916.40671	56972.9625
920.19121	57443.8625
923.97308	57664.6625
927.75233	57563.1625
931.52895	57266.5625
935.30295	56760.4625
939.07433	56275.7625
942.84309	55882.6625
946.60924	55663.0625
950.37278	55655.1625
954.13371	55745.6625
957.89203	55719.7625
961.64774	55674.2625
965.40086	55629.4625
969.15137	55575.5625
972.89929	55424.9625
976.64461	55312.8625
980.38733	55284.4625
984.12747	55288.2625
987.86502	55555.5625
991.59999	55885.5625
995.33237	56292.6625
999.06217	56766.3625
1002.78939	57456.0625
1006.51404	58235.2625
1010.23611	59003.0625
1013.95561	59526.2625
1017.67255	59570.4625
1021.38692	59226.0625
1025.09872	58644.0625
1028.80796	58103.5625
1032.51465	57938.1625
1036.21877	58090.3625
1039.92035	58117.5625
1043.61937	58250.9625
1047.31584	58354.2625
1051.00976	58342.1625
1054.70114	58557.7625
1058.38998	58842.7625
1062.07627	59320.5625
1065.76003	59890.5625
1069.44126	60494.6625
1073.11995	61221.2625
1076.79611	61866.0625
1080.46974	62221.0625
1084.14085	62517.9625
1087.80943	62943.6625
1091.47549	63329.4625
1095.13903	63391.9625
1098.80005	63015.7625
1102.45857	62298.5625
1106.11456	61620.0625
1109.76805	61167.6625
1113.41903	61044.6625
1117.06751	61160.4625
1120.71348	61513.0625
1124.35696	61789.6625
1127.99793	62173.3625
1131.63641	62362.0625
1135.2724	62208.5625
1138.90589	62059.2625
1142.5369	62042.8625
1146.16542	62191.0625
1149.79145	62449.7625
1153.415	62773.9625
1157.03607	63374.6625
1160.65467	64352.8625
1164.27079	65988.1625
1167.88443	67980.3625
1171.49561	70546.6625
1175.10432	73568.5625
1178.71056	77281.4625
1182.31434	80698.3625
1185.91565	82619.5625
1189.51451	83087.8625
1193.11091	82339.7625
1196.70485	80609.5625
1200.29634	78618.0625
1203.88538	76962.8625
1207.47197	75888.3625
1211.05612	74970.2625
1214.63782	73757.1625
1218.21708	72552.0625
1221.79391	71307.6625
1225.36829	70425.0625
1228.94024	69877.3625
1232.50976	69269.5625
1236.07685	68746.8625
1239.6415	68539.0625
1243.20374	68572.4625
1246.76355	68978.8625
1250.32093	69613.1625
1253.8759	70464.9625
1257.42845	71736.7625
1260.97859	73057.1625
1264.52631	74559.1625
1268.07163	75971.5625
1271.61453	77298.4625
1275.15503	78509.2625
1278.69312	79698.7625
1282.22882	80857.6625
1285.76211	82341.0625
1289.29301	84173.1625
1292.82151	86529.4625
1296.34761	89328.8625
1299.87133	92615.9625
1303.39266	95962.3625
1306.9116	99214.3625
1310.42815	102082.7625
1313.94233	103677.1625
1317.45412	103837.8625
1320.96354	103166.4625
1324.47058	102801.6625
1327.97525	102337.9625
1331.47754	102127.9625
1334.97747	101949.6625
1338.47502	102192.4625
1341.97022	102582.1625
1345.46305	102786.2625
1348.95352	102494.0625
1352.44163	101631.1625
1355.92738	101241.3625
1359.41078	101959.6625
1362.89183	102796.7625
1366.37053	100937.8625
1369.84688	95316.0625
1373.32088	88869.1625
1376.79254	84203.1625
1380.26186	82327.7625
1383.72883	82093.6625
1387.19347	82123.8625
1390.65578	81720.9625
1394.11575	81407.9625
1397.57339	81449.4625
1401.0287	81801.6625
1404.48168	82248.4625
1407.93234	82055.5625
1411.38068	81017.5625
1414.82669	79363.2625
1418.27039	77364.9625
1421.71177	75398.1625
1425.15083	73752.5625
1428.58758	73044.9625
1432.02203	73318.8625
1435.45416	74578.4625
1438.88399	75995.7625
1442.31151	77323.8625
1445.73673	78235.2625
1449.15965	78826.5625
1452.58027	79312.0625
1455.9986	79542.6625
1459.41463	80127.0625
1462.82837	80917.4625
1466.23982	81898.7625
1469.64898	82738.7625
1473.05586	83170.9625
1476.46045	83175.9625
1479.86276	82876.7625
1483.26279	82338.8625
1486.66054	82028.2625
1490.05602	82304.9625
1493.44922	82983.9625
1496.84016	84096.4625
1500.22882	85964.3625
1503.61521	88420.9625
1506.99934	90899.4625
1510.38121	92575.5625
1513.76081	92571.9625
1517.13816	90750.4625
1520.51324	88273.7625
1523.88607	86536.8625
1527.25665	85768.1625
1530.62498	85639.3625
1533.99105	85620.5625
1537.35488	85002.3625
1540.71647	83857.7625
1544.07581	82508.3625
1547.4329	81148.2625
1550.78776	79915.5625
1554.14038	79131.8625
1557.49077	78667.9625
1560.83892	78405.6625
1564.18484	78487.2625
1567.52853	78583.4625
1570.86999	78912.8625
1574.20922	79743.3625
1577.54624	80323.1625
1580.88103	80359.0625
1584.2136	80283.3625
1587.54395	81255.7625
1590.87208	83417.2625
1594.19801	86280.6625
1597.52172	89305.6625
1600.84321	89983.2625
1604.16251	87469.9625
1607.47959	83746.5625
1610.79447	79616.9625
1614.10715	75347.1625
1617.41763	71503.8625
1620.7259	68542.3625
1624.03199	66933.5625
1627.33587	66544.5625
1630.63757	67517.5625
1633.93707	70098.9625
1637.23439	74481.0625
1640.52951	81012.8625
1643.82246	88505.0625
1647.11321	94110.7625
1650.40179	95102.7625
1653.68819	90521.7625
1656.97241	82243.7625
1660.25446	74013.5625
1663.53433	67735.5625
1666.81203	63428.4625
1670.08756	60774.3625
1673.36092	59083.6625
1676.63211	57852.7625
1679.90115	57004.1625
1683.16801	56323.5625
1686.43272	55884.1625
1689.69527	55541.0625
1692.95567	55207.8625
1696.2139	55064.9625
1699.46999	55041.3625
1702.72392	54793.5625
1705.97571	54705.2625
1709.22535	54628.5625
1712.47284	54649.4625
1715.71819	54610.9625
1718.96139	54523.0625
1722.20246	54381.8625
1725.44139	54141.9625
1728.67818	53970.9625
1731.91284	53707.7625
1735.14537	53573.7625
1738.37576	53378.9625
1741.60403	53262.0625
1744.83017	53080.8625
1748.05418	52917.4625
1751.27607	52792.1625
1754.49584	52789.2625
1757.71349	52824.2625
1760.92903	52732.5625
1764.14244	52738.8625
1767.35375	52670.1625
1770.56294	52531.4625
1773.77002	52544.7625
1776.97499	52570.0625
1780.17785	52455.5625
1783.37861	52383.9625
1786.57727	52226.8625
1789.77382	52172.6625
1792.96828	52137.9625
1796.16064	52051.6625
1799.3509	51979.0625
1802.53907	51947.0625
1805.72514	51779.9625
1808.90913	51694.1625
1812.09102	51576.0625
1815.27083	51542.2625
1818.44856	51506.0625
1821.6242	51383.9625
1824.79776	51356.5625
1827.96924	51308.1625
1831.13864	51282.7625
1834.30597	51280.3625
1837.47122	51220.0625
1840.6344	51151.2625
1843.7955	51174.7625
1846.95454	51169.2625
1850.11151	51191.0625
1853.26642	51127.9625
1856.41926	51107.1625
1859.57004	51040.4625
1862.71876	50915.5625
1865.86542	50894.7625
1869.01003	50817.4625
1872.15258	50776.4625
1875.29308	50727.4625
1878.43152	50634.6625
1881.56792	50632.3625
1884.70227	50616.7625
1887.83457	50621.1625
1890.96482	50584.0625
1894.09304	50471.5625
1897.21921	50410.9625
1900.34335	50340.4625
1903.46544	50214.5625
1906.58551	50279.4625
1909.70353	50149.8625
1912.81953	50124.3625
1915.93349	50032.1625
1919.04543	49907.3625
1922.15534	49866.5625
1925.26322	49801.7625
1928.36908	49742.8625
1931.47292	49651.5625
1934.57473	49576.4625
1937.67453	49512.7625
1940.77232	49368.3625
1943.86808	49191.7625
1946.96184	49096.5625
1950.05358	48915.1625
1953.14331	48830.5625
1956.23103	48678.8625
1959.31675	48545.8625
1962.40046	48393.6625
1965.48217	48180.9625
1968.56188	48129.1625
1971.63959	47985.9625
1974.7153	47936.7625
1977.78901	47738.2625
1980.86073	47536.8625
1983.93046	47500.2625
1986.99819	47360.1625
1990.06394	47319.5625
1993.1277	47208.2625
1996.18947	47011.1625
1999.24925	46931.2625
2002.30706	46765.7625
2005.36288	46632.1625
2008.41672	46463.2625
2011.46859	46316.4625
2014.51848	46194.2625
2017.56639	46078.9625
2020.61233	45945.6625
2023.6563	45750.8625
2026.6983	45716.8625
2029.73833	45620.4625
2032.7764	45552.6625
2035.8125	45497.9625
2038.84664	45368.1625
2041.87881	45303.9625
2044.90903	45178.5625
2047.93729	45128.7625
2050.96359	45091.7625
2053.98794	45041.3625
2057.01034	45045.6625
2060.03078	44999.0625
2063.04927	45005.1625
2066.06582	44973.3625
2069.08042	44944.2625
2072.09307	44846.7625
2075.10378	44788.2625
2078.11255	44833.3625
2081.11938	44879.1625
2084.12426	44825.8625
2087.12722	44746.4625
2090.12824	44744.7625
2093.12732	44796.2625
2096.12447	44757.4625
2099.11969	44755.5625
2102.11299	44712.6625
2105.10435	44758.3625
2108.09379	44760.6625
2111.08131	44830.7625
2114.0669	44770.5625
2117.05057	44788.2625
2120.03233	44840.9625
2123.01216	44928.6625
2125.99008	44934.1625
2128.96609	45027.9625
2131.94018	45061.4625
2134.91236	45119.4625
2137.88263	45167.4625
2140.851	45163.9625
2143.81746	45205.2625
2146.78201	45199.8625
2149.74466	45279.1625
2152.7054	45244.6625
2155.66425	45216.5625
2158.6212	45238.0625
2161.57625	45196.5625
2164.52941	45185.8625
2167.48067	45180.2625
2170.43004	45081.3625
2173.37752	45129.5625
2176.32311	45193.4625
2179.26681	45151.3625
2182.20863	45130.2625
2185.14856	45198.2625
2188.08661	45154.2625
2191.02278	45137.7625
2193.95707	45040.3625
2196.88948	45018.0625
2199.82001	44954.9625
2202.74867	44959.9625
2205.67545	44916.8625
2208.60037	44821.0625
2211.52341	44734.6625
2214.44458	44691.3625
2217.36388	44664.5625
2220.28132	44618.8625
2223.1969	44518.6625
2226.11061	44399.3625
2229.02246	44290.8625
2231.93245	44129.3625
2234.84058	44121.0625
2237.74686	44090.0625
2240.65128	44104.5625
2243.55385	44009.3625
2246.45456	43967.1625
2249.35343	43890.8625
2252.25044	43843.7625
2255.14561	43762.7625
2258.03893	43768.0625
2260.93041	43648.4625
2263.82004	43499.9625
2266.70783	43376.3625
2269.59378	43295.9625
2272.4779	43240.2625
2275.36017	43199.7625
2278.24061	43118.8625
2281.11922	43045.0625
2283.996	42927.6625
2286.87094	42929.0625
2289.74405	42856.8625
2292.61534	42818.2625
2295.4848	42749.1625
2298.35243	42778.8625
2301.21824	42646.8625
2304.08223	42668.1625
2306.94439	42598.8625
2309.80474	42604.1625
2312.66327	42598.9625
2315.51999	42510.0625
2318.37489	42442.0625
2321.22797	42451.4625
2324.07925	42409.5625
2326.92871	42263.3625
2329.77637	42137.9625
2332.62222	42114.9625
2335.46626	42068.4625
2338.3085	42084.2625
2341.14893	42020.1625
2343.98756	41981.0625
2346.8244	41992.0625
2349.65943	41980.8625
2352.49267	41944.5625
2355.32411	41914.8625
2358.15376	41841.7625
2360.98161	41857.6625
2363.80768	41852.9625
2366.63195	41850.0625
2369.45444	41747.7625
2372.27514	41747.1625
2375.09405	41693.9625
2377.91118	41625.9625
2380.72652	41534.4625
2383.54009	41454.9625
2386.35187	41383.0625
2389.16188	41238.8625
2391.97011	41179.4625
2394.77657	41085.5625
2397.58125	41032.7625
2400.38416	40977.1625
2403.18529	40882.9625
2405.98466	40853.7625
2408.78226	40794.1625
2411.57809	40763.6625
2414.37216	40693.5625
2417.16446	40679.1625
2419.955	40675.9625
2422.74378	40670.2625
2425.5308	40640.0625
2428.31606	40601.9625
2431.09956	40575.4625
2433.88131	40534.6625
2436.6613	40571.5625
2439.43954	40459.1625
2442.21603	40459.2625
2444.99077	40412.5625
2447.76377	40373.3625
2450.53501	40290.9625
2453.30451	40347.8625
2456.07226	40242.7625
2458.83827	40252.7625
2461.60254	40199.0625
2464.36507	40163.9625
2467.12586	40198.4625
2469.88492	40161.6625
2472.64224	40133.2625
2475.39782	40127.0625
2478.15167	40099.1625
2480.90379	40079.2625
2483.65417	40116.4625
2486.40283	40054.7625
2489.14976	40049.8625
2491.89497	39987.6625
2494.63845	40011.2625
2497.3802	39939.5625
2500.12024	39976.8625
2502.85855	39924.2625
2505.59514	39884.5625
2508.33002	39850.9625
2511.06318	39779.3625
2513.79462	39768.6625
2516.52435	39764.7625
2519.25237	39699.1625
2521.97867	39636.9625
2524.70327	39642.3625
2527.42616	39600.0625
2530.14734	39560.1625
2532.86681	39463.5625
2535.58458	39479.0625
2538.30065	39500.6625
2541.01501	39472.5625
2543.72768	39380.2625
2546.43864	39346.6625
2549.14791	39268.3625
2551.85548	39218.2625
2554.56136	39067.0625
2557.26554	38956.0625
2559.96803	38960.2625
2562.66883	38911.0625
2565.36794	38874.9625
2568.06536	38829.1625
2570.7611	38724.4625
2573.45514	38613.0625
2576.14751	38586.5625
2578.83819	38532.3625
2581.52719	38534.6625
2584.21451	38448.3625
2586.90015	38399.1625
2589.58411	38343.9625
2592.2664	38332.6625
2594.94701	38249.9625
2597.62594	38243.9625
2600.30321	38217.1625
2602.9788	38196.6625
2605.65273	38142.9625
2608.32498	38141.5625
2610.99557	38062.8625
2613.66449	38101.3625
2616.33175	38028.3625
2618.99734	37908.1625
2621.66128	37841.5625
2624.32355	37826.3625
2626.98416	37749.5625
2629.64311	37647.5625
2632.30041	37642.3625
2634.95605	37634.8625
2637.61004	37590.2625
2640.26238	37610.0625
2642.91306	37534.8625
2645.56209	37481.7625
2648.20948	37521.1625
2650.85521	37506.2625
2653.4993	37535.7625
2656.14175	37522.1625
2658.78255	37534.9625
2661.42171	37547.2625
2664.05923	37594.5625
2666.6951	37500.2625
2669.32934	37541.8625
2671.96194	37508.9625
2674.59291	37564.0625
2677.22224	37527.8625
2679.84993	37571.6625
2682.476	37520.9625
2685.10043	37500.9625
2687.72324	37422.7625
2690.34441	37455.7625
2692.96396	37446.8625
2695.58188	37519.4625
2698.19818	37395.9625
2700.81285	37444.2625
2703.4259	37408.6625
2706.03733	37426.4625
2708.64714	37442.8625
2711.25533	37435.3625
2713.86191	37442.1625
2716.46687	37511.3625
2719.07021	37493.3625
2721.67194	37474.1625
2724.27206	37440.6625
2726.87057	37458.2625
2729.46747	37498.6625
2732.06276	37457.6625
2734.65644	37484.5625
2737.24852	37512.1625
2739.83899	37428.0625
2742.42786	37411.2625
2745.01513	37342.2625
2747.60079	37299.4625
2750.18486	37298.8625
2752.76733	37273.1625
2755.3482	37229.3625
2757.92747	37172.2625
2760.50515	37098.7625
2763.08123	37102.9625
2765.65573	37077.5625
2768.22863	37069.8625
2770.79994	36961.0625
2773.36967	36988.2625
2775.9378	36999.7625
2778.50435	36980.9625
2781.06932	36886.6625
2783.6327	36882.9625
2786.1945	36827.8625
2788.75471	36765.2625
2791.31335	36670.3625
2793.87041	36642.1625
2796.42589	36565.1625
2798.97979	36454.2625
2801.53212	36366.8625
2804.08288	36309.3625
2806.63206	36196.3625
2809.17967	36195.9625
2811.72571	36039.2625
2814.27018	35927.5625
2816.81308	35791.0625
2819.35442	35764.9625
2821.89419	35694.9625
2824.43239	35670.7625
2826.96904	35623.6625
2829.50412	35611.7625
2832.03763	35529.4625
2834.56959	35492.1625
2837.1	35454.5625
2839.62884	35443.9625
2842.15613	35328.7625
2844.68186	35391.3625
2847.20604	35293.4625
2849.72867	35272.5625
2852.24974	35229.7625
2854.76927	35144.0625
2857.28724	35104.1625
2859.80367	35125.8625
2862.31855	35103.0625
2864.83189	35044.9625
2867.34368	34886.2625
2869.85393	34947.8625
2872.36264	34839.8625
2874.8698	34840.6625
2877.37543	34786.0625
2879.87952	34761.7625
2882.38207	34793.2625
2884.88308	34739.6625
2887.38256	34764.3625
2889.88051	34768.4625
2892.37692	34741.2625
2894.8718	34722.2625
2897.36515	34738.9625
2899.85698	34757.3625
2902.34727	34813.1625
2904.83604	34750.1625
2907.32328	34832.7625
2909.809	34811.7625
2912.29319	34838.3625
2914.77587	34788.6625
2917.25702	34841.2625
2919.73665	34739.0625
2922.21476	34759.7625
2924.69136	34734.5625
2927.16644	34675.0625
2929.64	34680.8625
2932.11205	34581.3625
2934.58258	34578.5625
2937.05161	34558.0625
2939.51912	34603.1625
2941.98513	34538.7625
2944.44962	34428.9625
2946.91261	34392.3625
2949.37409	34463.8625
2951.83407	34370.2625
2954.29254	34390.5625
2956.74951	34328.4625
2959.20498	34377.5625
2961.65895	34306.1625
2964.11142	34315.6625
2966.56239	34280.6625
2969.01186	34270.9625
2971.45984	34123.1625
2973.90632	34125.3625
2976.35131	34099.6625
2978.7948	34014.9625
2981.23681	34013.9625
2983.67732	33951.1625
2986.11635	33866.0625
2988.55388	33794.4625
2990.98993	33751.5625
2993.4245	33682.6625
2995.85758	33630.2625
2998.28917	33454.5625
3000.71928	33404.8625
3003.14791	33318.8625
3005.57506	33300.0625
3008.00073	33191.9625
3010.42493	33203.9625
3012.84764	33070.5625
3015.26888	33051.6625
3017.68865	33017.5625
3020.10694	32908.0625
3022.52376	32865.7625
3024.9391	32828.8625
3027.35298	32802.2625
3029.76539	32763.0625
3032.17632	32749.1625
3034.5858	32711.6625
3036.9938	32700.4625
3039.40034	32599.7625
3041.80542	32618.2625
3044.20903	32592.6625
3046.61118	32518.4625
3049.01187	32417.4625
3051.4111	32327.8625
3053.80888	32226.9625
3056.20519	32203.8625
3058.60005	32143.7625
3060.99345	32109.4625
3063.3854	31967.8625
3065.7759	31917.9625
3068.16494	31803.3625
3070.55254	31667.2625
3072.93868	31638.8625
3075.32338	31510.7625
3077.70662	31519.5625
3080.08842	31388.3625
3082.46878	31312.3625
3084.84769	31231.4625
3087.22515	31211.6625
3089.60118	31180.9625
3091.97576	31189.8625
3094.3489	31197.1625
3096.72061	31153.7625
3099.09087	31189.3625
3101.4597	31144.3625
3103.82709	31138.5625
3106.19305	31116.4625
3108.55757	31105.6625
3110.92066	31014.8625
3113.28232	30967.3625
3115.64255	30855.2625
3118.00134	30775.9625
3120.35871	30660.6625
3122.71466	30574.9625
3125.06917	30510.4625
3127.42226	30431.0625
3129.77393	30418.8625
3132.12417	30376.1625
3134.47299	30352.0625
3136.82039	30293.0625
3139.16636	30299.8625
3141.51092	30290.4625
3143.85406	30290.0625
3146.19579	30300.3625
3148.53609	30255.8625
3150.87499	30247.4625
3153.21246	30229.0625
3155.54853	30261.5625
3157.88318	30229.5625
3160.21642	30210.3625
3162.54826	30198.6625
3164.87868	30140.2625
3167.2077	30088.4625
3169.5353	30079.2625
3171.86151	30030.7625
3174.18631	30041.1625
3176.5097	30049.6625
3178.83169	29971.2625
3181.15228	29909.6625
3183.47147	29798.4625
3185.78926	29802.4625
3188.10565	29771.4625
3190.42065	29715.3625
3192.73424	29661.0625
3195.04645	29599.8625
3197.35725	29578.9625
3199.66667	29533.6625
3201.97469	29538.9625
3204.28132	29464.3625
3206.58656	29507.2625
3208.8904	29485.4625
3211.19287	29507.7625
3213.49394	29485.1625
3215.79363	29467.6625
3218.09193	29481.5625
3220.38884	29500.3625
3222.68438	29553.4625
3224.97853	29398.2625
3227.2713	29432.5625
3229.56269	29344.2625
3231.8527	29376.1625
3234.14133	29266.0625
3236.42858	29194.5625
3238.71446	29129.9625
3240.99896	29041.2625
3243.28209	29071.9625
3245.56384	29004.0625
3247.84423	28963.9625
3250.12324	28911.2625
3252.40088	28885.7625
3254.67715	28928.5625
3256.95205	28848.2625
3259.22558	28822.7625
3261.49775	28798.9625
3263.76855	28747.3625
3266.03799	28657.1625
3268.30606	28617.4625
3270.57277	28551.5625
3272.83812	28576.6625
3275.10211	28422.1625
3277.36474	28371.3625
3279.62601	28353.1625
3281.88593	28289.5625
3284.14448	28338.1625
3286.40168	28349.4625
3288.65753	28221.2625
3290.91202	28217.0625
3293.16516	28170.2625
3295.41695	28115.2625
3297.66738	27942.9625
3299.91647	27800.0625
3302.16421	27593.8625
3304.4106	27476.0625
3306.65564	27299.2625
3308.89933	27087.1625
3311.14169	26907.0625
3313.38269	26696.7625
3315.62236	26573.3625
3317.86068	26299.0625
3320.09766	26073.8625
3322.3333	25907.7625
3324.5676	25782.7625
3326.80056	25401.7625
3329.03219	25211.7625
3331.26248	6.8625
3333.49143	0.4625
3335.71905	-0.4375
