Data from AgNPs_FTO_APTES_UA_20uM_CRN_10uM_R6G_10uM_NaF_0.1M_Addition_RamanShift__29__14-44-12-224.txt Node

Date: Thu Feb 17 14:44:12 GMT 2022
User: TCL
Spectrometer: QEP01345
Trigger mode: 4
Integration Time (sec): 7.000000E0
Scans to average: 10
Electric dark correction enabled: true
Nonlinearity correction enabled: false
Boxcar width: 0
XAxis mode: Raman Shifts
Number of Pixels in Spectrum: 1044
>>>>>Begin Spectral Data<<<<<
46.04893	0.0375
50.45542	-0.1625
54.85868	-3.7625
59.25871	-1.1625
63.6555	98.2375
68.04907	100.5375
72.43941	108.3375
76.82654	109.4375
81.21044	107.8375
85.59113	114.5375
89.96862	116.7375
94.34289	119.0375
98.71396	120.9375
103.08183	127.6375
107.4465	130.5375
111.80798	132.4375
116.16626	140.3375
120.52136	144.2375
124.87327	145.4375
129.222	155.9375
133.56755	166.1375
137.90993	179.3375
142.24913	193.6375
146.58517	220.7375
150.91804	254.1375
155.24774	300.5375
159.57429	369.8375
163.89768	478.4375
168.21792	632.0375
172.53501	861.6375
176.84895	1210.6375
181.15975	1711.9375
185.46741	2393.7375
189.77193	3310.8375
194.07331	4447.3375
198.37157	5765.7375
202.6667	7156.0375
206.9587	8509.6375
211.24758	9848.7375
215.53334	11200.0375
219.81599	12693.5375
224.09553	14342.4375
228.37195	16192.4375
232.64527	18211.4375
236.91549	20397.8375
241.18261	22476.3375
245.44663	24507.9375
249.70755	26220.8375
253.96539	27701.1375
258.22014	28995.8375
262.4718	30081.9375
266.72039	30910.4375
270.96589	31334.5375
275.20832	31452.8375
279.44768	31330.1375
283.68397	31048.5375
287.91719	30814.1375
292.14735	30750.5375
296.37445	30925.5375
300.59849	31367.1375
304.81948	31908.2375
309.03742	32194.4375
313.25231	31937.3375
317.46415	31056.1375
321.67296	29884.2375
325.87872	28939.9375
330.08145	28494.0375
334.28114	28529.2375
338.47781	28863.6375
342.67145	29430.1375
346.86207	30206.6375
351.04966	31228.0375
355.23424	32330.8375
359.4158	33285.4375
363.59435	33892.4375
367.76989	34259.6375
371.94243	34500.6375
376.11196	34633.3375
380.27849	34796.6375
384.44203	34799.0375
388.60257	34780.1375
392.76012	34876.5375
396.91468	35245.1375
401.06626	35853.8375
405.21485	36389.0375
409.36047	36239.3375
413.50311	35438.5375
417.64277	34650.6375
421.77947	34300.8375
425.9132	34265.2375
430.04396	34516.0375
434.17176	34766.6375
438.2966	35197.3375
442.41849	35836.5375
446.53742	36655.5375
450.6534	37579.0375
454.76644	38314.6375
458.87653	38644.9375
462.98368	38474.3375
467.08789	37987.1375
471.18916	37312.1375
475.2875	36619.5375
479.38291	36071.7375
483.4754	35715.3375
487.56496	35346.2375
491.6516	35072.4375
495.73531	34860.3375
499.81612	34795.7375
503.89401	34997.8375
507.96899	35201.2375
512.04106	35375.8375
516.11023	35636.7375
520.1765	35883.2375
524.23987	35894.2375
528.30034	35618.2375
532.35792	35259.0375
536.41261	34911.7375
540.46441	34585.6375
544.51333	34503.7375
548.55936	34784.3375
552.60252	35289.0375
556.64279	35956.3375
560.6802	36239.1375
564.71473	36413.9375
568.7464	36938.5375
572.7752	37528.4375
576.80114	37458.8375
580.82422	37285.4375
584.84444	37362.4375
588.86181	37579.3375
592.87633	37934.6375
596.888	38309.5375
600.89682	38896.3375
604.9028	41285.3375
608.90594	47326.6375
612.90624	54704.2375
616.90371	52642.3375
620.89834	42650.7375
624.89015	38106.4375
628.87913	37420.2375
632.86528	37335.9375
636.84862	37222.5375
640.82913	36756.2375
644.80683	35892.1375
648.78172	35246.4375
652.75379	35297.8375
656.72306	36131.6375
660.68952	37104.2375
664.65319	36992.3375
668.61405	36162.6375
672.57211	35775.5375
676.52738	35729.5375
680.47986	35775.2375
684.42955	35736.9375
688.37646	35767.4375
692.32058	36009.0375
696.26192	36250.2375
700.20048	36605.0375
704.13626	36894.2375
708.06928	36843.4375
711.99952	36623.2375
715.927	36541.3375
719.85171	36562.2375
723.77365	36573.8375
727.69284	36399.0375
731.60928	36153.0375
735.52295	36132.0375
739.43388	36350.6375
743.34206	36600.8375
747.24749	36851.1375
751.15017	37142.8375
755.05012	37718.1375
758.94733	38786.4375
762.8418	40925.5375
766.73354	44438.5375
770.62254	48170.9375
774.50882	49765.1375
778.39237	47926.4375
782.27321	43731.8375
786.15132	40138.3375
790.02671	38123.5375
793.89938	37275.5375
797.76935	36930.4375
801.6366	36761.3375
805.50115	36659.8375
809.36299	36534.4375
813.22213	36461.7375
817.07857	36444.1375
820.93231	36551.9375
824.78336	36611.6375
828.63172	36709.2375
832.47738	36795.3375
836.32036	36961.0375
840.16066	37004.7375
843.99827	37122.9375
847.8332	36995.2375
851.66546	36915.2375
855.49504	36850.4375
859.32195	36823.5375
863.1462	36750.4375
866.96777	36653.8375
870.78668	36653.4375
874.60293	36783.7375
878.41652	36816.4375
882.22745	36958.4375
886.03573	37069.5375
889.84136	36976.2375
893.64433	36833.5375
897.44466	36784.7375
901.24235	36782.3375
905.0374	36751.6375
908.8298	36806.1375
912.61957	36819.6375
916.40671	37071.1375
920.19121	37432.3375
923.97308	37747.3375
927.75233	37966.4375
931.52895	37999.9375
935.30295	37745.2375
939.07433	37171.6375
942.84309	36731.4375
946.60924	36513.5375
950.37278	36370.8375
954.13371	36247.7375
957.89203	36078.9375
961.64774	35975.7375
965.40086	35905.3375
969.15137	35788.9375
972.89929	35668.4375
976.64461	35687.7375
980.38733	35701.1375
984.12747	35807.7375
987.86502	35993.7375
991.59999	36389.8375
995.33237	37007.3375
999.06217	38020.1375
1002.78939	39175.8375
1006.51404	39927.9375
1010.23611	40436.3375
1013.95561	40817.0375
1017.67255	40905.4375
1021.38692	40662.3375
1025.09872	40523.4375
1028.80796	40956.1375
1032.51465	41982.4375
1036.21877	42868.0375
1039.92035	42958.0375
1043.61937	42447.2375
1047.31584	41390.1375
1051.00976	40393.2375
1054.70114	39828.7375
1058.38998	39750.2375
1062.07627	39808.0375
1065.76003	39933.7375
1069.44126	40098.6375
1073.11995	40274.4375
1076.79611	40496.4375
1080.46974	40771.6375
1084.14085	41223.2375
1087.80943	41648.8375
1091.47549	41853.6375
1095.13903	41460.9375
1098.80005	40779.6375
1102.45857	40090.4375
1106.11456	39941.9375
1109.76805	40054.3375
1113.41903	40538.1375
1117.06751	41146.6375
1120.71348	41816.8375
1124.35696	42567.6375
1127.99793	43072.3375
1131.63641	42989.7375
1135.2724	42180.6375
1138.90589	41394.9375
1142.5369	40866.9375
1146.16542	40595.8375
1149.79145	40485.8375
1153.415	40595.9375
1157.03607	40968.6375
1160.65467	41435.3375
1164.27079	42376.6375
1167.88443	43663.5375
1171.49561	45791.9375
1175.10432	48997.3375
1178.71056	53309.9375
1182.31434	57095.4375
1185.91565	58686.3375
1189.51451	58002.1375
1193.11091	55599.2375
1196.70485	52621.8375
1200.29634	50405.3375
1203.88538	48830.7375
1207.47197	47311.7375
1211.05612	46109.0375
1214.63782	45393.5375
1218.21708	45373.8375
1221.79391	45605.7375
1225.36829	45865.6375
1228.94024	45687.5375
1232.50976	45317.9375
1236.07685	45092.8375
1239.6415	45145.0375
1243.20374	45460.3375
1246.76355	45905.8375
1250.32093	46559.1375
1253.8759	47496.5375
1257.42845	48700.6375
1260.97859	49614.2375
1264.52631	50233.1375
1268.07163	50893.0375
1271.61453	51810.7375
1275.15503	52803.6375
1278.69312	53857.1375
1282.22882	54703.1375
1285.76211	55508.3375
1289.29301	56400.0375
1292.82151	57386.4375
1296.34761	58629.1375
1299.87133	60830.6375
1303.39266	64135.1375
1306.9116	68866.6375
1310.42815	73750.9375
1313.94233	76368.7375
1317.45412	75380.1375
1320.96354	72299.3375
1324.47058	68968.3375
1327.97525	66049.7375
1331.47754	64411.0375
1334.97747	64299.8375
1338.47502	65459.0375
1341.97022	67205.5375
1345.46305	68496.8375
1348.95352	69294.2375
1352.44163	70264.2375
1355.92738	72949.6375
1359.41078	78302.0375
1362.89183	83455.9375
1366.37053	81576.2375
1369.84688	72981.9375
1373.32088	64419.0375
1376.79254	58787.4375
1380.26186	55803.1375
1383.72883	54421.2375
1387.19347	53609.3375
1390.65578	52850.5375
1394.11575	52388.4375
1397.57339	52344.7375
1401.0287	52918.0375
1404.48168	53848.9375
1407.93234	55036.3375
1411.38068	56317.3375
1414.82669	56708.8375
1418.27039	55980.8375
1421.71177	54429.3375
1425.15083	53049.8375
1428.58758	52337.8375
1432.02203	52374.1375
1435.45416	52680.5375
1438.88399	52852.0375
1442.31151	53102.3375
1445.73673	53367.9375
1449.15965	53618.0375
1452.58027	53657.1375
1455.9986	53369.1375
1459.41463	53197.7375
1462.82837	53445.6375
1466.23982	54213.6375
1469.64898	55215.1375
1473.05586	56070.5375
1476.46045	56760.8375
1479.86276	57531.5375
1483.26279	58402.2375
1486.66054	59335.7375
1490.05602	60607.4375
1493.44922	62093.5375
1496.84016	63774.6375
1500.22882	66125.3375
1503.61521	69592.4375
1506.99934	73715.3375
1510.38121	77214.8375
1513.76081	77876.9375
1517.13816	74983.0375
1520.51324	69714.3375
1523.88607	64827.2375
1527.25665	61644.3375
1530.62498	59743.0375
1533.99105	58654.4375
1537.35488	57952.8375
1540.71647	57584.6375
1544.07581	57380.7375
1547.4329	57198.6375
1550.78776	56754.7375
1554.14038	56424.9375
1557.49077	56422.3375
1560.83892	56579.7375
1564.18484	56904.7375
1567.52853	57184.2375
1570.86999	57411.3375
1574.20922	57557.2375
1577.54624	57276.2375
1580.88103	56064.0375
1584.2136	54835.5375
1587.54395	54934.6375
1590.87208	56682.0375
1594.19801	60065.1375
1597.52172	63935.6375
1600.84321	65863.4375
1604.16251	64308.8375
1607.47959	60750.7375
1610.79447	56656.2375
1614.10715	52969.1375
1617.41763	50084.0375
1620.7259	48227.9375
1624.03199	47389.0375
1627.33587	47411.8375
1630.63757	48306.2375
1633.93707	50217.2375
1637.23439	52682.1375
1640.52951	55845.2375
1643.82246	59408.6375
1647.11321	62920.9375
1650.40179	64622.9375
1653.68819	62432.2375
1656.97241	56785.7375
1660.25446	50840.1375
1663.53433	46567.6375
1666.81203	43831.3375
1670.08756	42266.6375
1673.36092	41200.9375
1676.63211	40419.2375
1679.90115	39885.6375
1683.16801	39496.8375
1686.43272	39208.2375
1689.69527	39013.0375
1692.95567	38893.5375
1696.2139	38878.9375
1699.46999	38821.8375
1702.72392	38764.8375
1705.97571	38719.7375
1709.22535	38706.3375
1712.47284	38713.6375
1715.71819	38785.4375
1718.96139	38689.4375
1722.20246	38661.6375
1725.44139	38509.0375
1728.67818	38383.8375
1731.91284	38222.8375
1735.14537	38088.0375
1738.37576	37976.7375
1741.60403	37919.1375
1744.83017	37793.1375
1748.05418	37675.6375
1751.27607	37683.8375
1754.49584	37673.9375
1757.71349	37711.3375
1760.92903	37722.8375
1764.14244	37644.0375
1767.35375	37658.9375
1770.56294	37547.8375
1773.77002	37593.4375
1776.97499	37594.4375
1780.17785	37557.4375
1783.37861	37499.1375
1786.57727	37464.1375
1789.77382	37417.4375
1792.96828	37438.7375
1796.16064	37451.3375
1799.3509	37396.6375
1802.53907	37410.0375
1805.72514	37323.2375
1808.90913	37284.3375
1812.09102	37176.4375
1815.27083	37089.6375
1818.44856	37094.1375
1821.6242	37045.2375
1824.79776	37008.1375
1827.96924	37004.6375
1831.13864	37003.0375
1834.30597	37020.1375
1837.47122	36951.2375
1840.6344	36925.4375
1843.7955	36915.8375
1846.95454	36926.8375
1850.11151	36949.8375
1853.26642	36940.3375
1856.41926	36980.3375
1859.57004	36992.6375
1862.71876	36972.1375
1865.86542	37003.2375
1869.01003	36937.5375
1872.15258	36961.6375
1875.29308	36980.3375
1878.43152	36930.0375
1881.56792	37009.8375
1884.70227	37031.2375
1887.83457	37040.6375
1890.96482	36985.1375
1894.09304	36915.3375
1897.21921	36898.1375
1900.34335	36904.7375
1903.46544	36878.1375
1906.58551	36969.1375
1909.70353	36905.1375
1912.81953	36892.1375
1915.93349	36885.4375
1919.04543	36794.8375
1922.15534	36795.2375
1925.26322	36746.2375
1928.36908	36723.7375
1931.47292	36723.0375
1934.57473	36614.5375
1937.67453	36510.7375
1940.77232	36525.6375
1943.86808	36385.2375
1946.96184	36313.2375
1950.05358	36188.0375
1953.14331	36092.2375
1956.23103	36007.7375
1959.31675	35904.8375
1962.40046	35794.7375
1965.48217	35698.0375
1968.56188	35605.2375
1971.63959	35498.7375
1974.7153	35436.7375
1977.78901	35338.2375
1980.86073	35240.5375
1983.93046	35177.8375
1986.99819	35031.1375
1990.06394	34936.6375
1993.1277	34882.9375
1996.18947	34768.4375
1999.24925	34706.6375
2002.30706	34650.6375
2005.36288	34556.3375
2008.41672	34470.8375
2011.46859	34395.3375
2014.51848	34318.1375
2017.56639	34239.7375
2020.61233	34110.2375
2023.6563	34063.9375
2026.6983	33946.5375
2029.73833	33957.0375
2032.7764	33866.5375
2035.8125	33819.1375
2038.84664	33778.9375
2041.87881	33787.1375
2044.90903	33736.1375
2047.93729	33692.0375
2050.96359	33620.6375
2053.98794	33613.4375
2057.01034	33579.2375
2060.03078	33585.0375
2063.04927	33580.2375
2066.06582	33567.8375
2069.08042	33534.0375
2072.09307	33429.2375
2075.10378	33401.6375
2078.11255	33386.1375
2081.11938	33435.9375
2084.12426	33351.4375
2087.12722	33393.8375
2090.12824	33414.1375
2093.12732	33383.6375
2096.12447	33416.6375
2099.11969	33339.6375
2102.11299	33362.0375
2105.10435	33383.2375
2108.09379	33427.2375
2111.08131	33418.4375
2114.0669	33467.7375
2117.05057	33472.8375
2120.03233	33511.6375
2123.01216	33557.3375
2125.99008	33611.0375
2128.96609	33644.0375
2131.94018	33660.9375
2134.91236	33677.0375
2137.88263	33725.7375
2140.851	33721.9375
2143.81746	33782.5375
2146.78201	33800.4375
2149.74466	33848.3375
2152.7054	33819.5375
2155.66425	33836.1375
2158.6212	33858.8375
2161.57625	33832.3375
2164.52941	33815.2375
2167.48067	33738.3375
2170.43004	33791.8375
2173.37752	33789.0375
2176.32311	33796.2375
2179.26681	33844.2375
2182.20863	33859.2375
2185.14856	33915.0375
2188.08661	33903.7375
2191.02278	33892.5375
2193.95707	33896.4375
2196.88948	33860.7375
2199.82001	33849.0375
2202.74867	33838.8375
2205.67545	33856.3375
2208.60037	33814.2375
2211.52341	33785.1375
2214.44458	33747.5375
2217.36388	33769.4375
2220.28132	33714.2375
2223.1969	33627.7375
2226.11061	33537.4375
2229.02246	33462.7375
2231.93245	33453.8375
2234.84058	33354.4375
2237.74686	33271.2375
2240.65128	33290.1375
2243.55385	33251.5375
2246.45456	33261.0375
2249.35343	33237.1375
2252.25044	33223.4375
2255.14561	33171.5375
2258.03893	33140.9375
2260.93041	33101.1375
2263.82004	33046.9375
2266.70783	32990.2375
2269.59378	32933.0375
2272.4779	32873.8375
2275.36017	32766.8375
2278.24061	32734.1375
2281.11922	32671.8375
2283.996	32571.6375
2286.87094	32593.3375
2289.74405	32576.1375
2292.61534	32549.4375
2295.4848	32495.9375
2298.35243	32549.0375
2301.21824	32544.9375
2304.08223	32508.3375
2306.94439	32526.7375
2309.80474	32578.6375
2312.66327	32584.6375
2315.51999	32587.0375
2318.37489	32553.6375
2321.22797	32528.8375
2324.07925	32544.3375
2326.92871	32481.3375
2329.77637	32461.5375
2332.62222	32376.3375
2335.46626	32392.1375
2338.3085	32414.6375
2341.14893	32424.4375
2343.98756	32411.2375
2346.8244	32415.4375
2349.65943	32430.2375
2352.49267	32445.1375
2355.32411	32481.5375
2358.15376	32418.7375
2360.98161	32439.6375
2363.80768	32418.4375
2366.63195	32397.6375
2369.45444	32321.5375
2372.27514	32244.2375
2375.09405	32240.0375
2377.91118	32133.9375
2380.72652	32025.1375
2383.54009	32001.8375
2386.35187	31901.1375
2389.16188	31816.7375
2391.97011	31772.4375
2394.77657	31722.3375
2397.58125	31691.3375
2400.38416	31650.7375
2403.18529	31598.2375
2405.98466	31571.0375
2408.78226	31472.9375
2411.57809	31409.8375
2414.37216	31332.4375
2417.16446	31359.0375
2419.955	31333.3375
2422.74378	31264.3375
2425.5308	31238.5375
2428.31606	31248.5375
2431.09956	31259.4375
2433.88131	31231.9375
2436.6613	31207.5375
2439.43954	31242.9375
2442.21603	31161.9375
2444.99077	31160.5375
2447.76377	31136.6375
2450.53501	31105.6375
2453.30451	31125.0375
2456.07226	31073.6375
2458.83827	31059.2375
2461.60254	31031.3375
2464.36507	31037.9375
2467.12586	31020.8375
2469.88492	31034.7375
2472.64224	31033.3375
2475.39782	31051.1375
2478.15167	31104.3375
2480.90379	31090.3375
2483.65417	31141.9375
2486.40283	31146.3375
2489.14976	31160.7375
2491.89497	31132.2375
2494.63845	31218.7375
2497.3802	31148.9375
2500.12024	31172.2375
2502.85855	31121.1375
2505.59514	31103.8375
2508.33002	31057.4375
2511.06318	31016.6375
2513.79462	30940.6375
2516.52435	30905.6375
2519.25237	30842.5375
2521.97867	30845.1375
2524.70327	30842.6375
2527.42616	30751.7375
2530.14734	30794.7375
2532.86681	30716.4375
2535.58458	30736.3375
2538.30065	30709.8375
2541.01501	30709.1375
2543.72768	30705.5375
2546.43864	30682.5375
2549.14791	30683.2375
2551.85548	30607.1375
2554.56136	30560.6375
2557.26554	30459.4375
2559.96803	30457.2375
2562.66883	30368.3375
2565.36794	30379.7375
2568.06536	30372.1375
2570.7611	30302.5375
2573.45514	30270.6375
2576.14751	30245.5375
2578.83819	30213.8375
2581.52719	30224.4375
2584.21451	30233.4375
2586.90015	30191.6375
2589.58411	30159.6375
2592.2664	30146.0375
2594.94701	30153.9375
2597.62594	30119.3375
2600.30321	30087.4375
2602.9788	30116.3375
2605.65273	30056.9375
2608.32498	30094.1375
2610.99557	30076.3375
2613.66449	30074.9375
2616.33175	30071.6375
2618.99734	30087.8375
2621.66128	30043.1375
2624.32355	30074.7375
2626.98416	30071.9375
2629.64311	30062.2375
2632.30041	30052.3375
2634.95605	29999.2375
2637.61004	29947.2375
2640.26238	29903.2375
2642.91306	29868.8375
2645.56209	29785.0375
2648.20948	29813.9375
2650.85521	29719.2375
2653.4993	29789.6375
2656.14175	29741.1375
2658.78255	29810.7375
2661.42171	29834.7375
2664.05923	29849.8375
2666.6951	29833.3375
2669.32934	29872.8375
2671.96194	29890.6375
2674.59291	29962.4375
2677.22224	29941.0375
2679.84993	29951.5375
2682.476	29927.1375
2685.10043	29916.4375
2687.72324	29922.2375
2690.34441	29906.9375
2692.96396	29883.3375
2695.58188	29891.1375
2698.19818	29838.0375
2700.81285	29816.0375
2703.4259	29817.8375
2706.03733	29872.6375
2708.64714	29832.6375
2711.25533	29837.3375
2713.86191	29821.7375
2716.46687	29897.2375
2719.07021	29865.1375
2721.67194	29907.2375
2724.27206	29857.5375
2726.87057	29885.1375
2729.46747	29908.1375
2732.06276	29912.3375
2734.65644	29889.9375
2737.24852	29932.0375
2739.83899	29933.1375
2742.42786	29940.4375
2745.01513	29928.4375
2747.60079	29905.5375
2750.18486	29881.8375
2752.76733	29879.0375
2755.3482	29802.9375
2757.92747	29806.3375
2760.50515	29741.0375
2763.08123	29769.7375
2765.65573	29753.6375
2768.22863	29743.2375
2770.79994	29669.5375
2773.36967	29740.9375
2775.9378	29722.2375
2778.50435	29694.4375
2781.06932	29649.3375
2783.6327	29645.8375
2786.1945	29666.1375
2788.75471	29623.6375
2791.31335	29553.2375
2793.87041	29504.5375
2796.42589	29472.2375
2798.97979	29450.5375
2801.53212	29363.1375
2804.08288	29341.7375
2806.63206	29268.1375
2809.17967	29233.4375
2811.72571	29168.7375
2814.27018	29099.9375
2816.81308	29084.7375
2819.35442	29070.1375
2821.89419	29028.1375
2824.43239	29027.9375
2826.96904	29049.5375
2829.50412	29062.7375
2832.03763	29006.9375
2834.56959	28972.6375
2837.1	28949.5375
2839.62884	28933.2375
2842.15613	28842.9375
2844.68186	28894.0375
2847.20604	28838.7375
2849.72867	28847.8375
2852.24974	28799.1375
2854.76927	28778.9375
2857.28724	28747.8375
2859.80367	28759.7375
2862.31855	28722.2375
2864.83189	28669.4375
2867.34368	28634.6375
2869.85393	28644.8375
2872.36264	28630.4375
2874.8698	28600.0375
2877.37543	28594.8375
2879.87952	28525.0375
2882.38207	28538.4375
2884.88308	28531.3375
2887.38256	28546.1375
2889.88051	28555.7375
2892.37692	28573.7375
2894.8718	28610.9375
2897.36515	28624.2375
2899.85698	28635.1375
2902.34727	28652.7375
2904.83604	28640.2375
2907.32328	28670.4375
2909.809	28693.5375
2912.29319	28719.0375
2914.77587	28730.5375
2917.25702	28679.2375
2919.73665	28653.8375
2922.21476	28663.2375
2924.69136	28597.1375
2927.16644	28568.4375
2929.64	28544.6375
2932.11205	28514.3375
2934.58258	28436.5375
2937.05161	28535.5375
2939.51912	28541.0375
2941.98513	28502.3375
2944.44962	28536.5375
2946.91261	28438.2375
2949.37409	28511.4375
2951.83407	28437.9375
2954.29254	28429.3375
2956.74951	28435.7375
2959.20498	28419.3375
2961.65895	28384.9375
2964.11142	28369.8375
2966.56239	28370.8375
2969.01186	28308.7375
2971.45984	28260.0375
2973.90632	28233.1375
2976.35131	28180.5375
2978.7948	28166.5375
2981.23681	28105.4375
2983.67732	28062.3375
2986.11635	28023.1375
2988.55388	27962.6375
2990.98993	27919.2375
2993.4245	27906.4375
2995.85758	27835.6375
2998.28917	27771.3375
3000.71928	27727.0375
3003.14791	27658.1375
3005.57506	27651.8375
3008.00073	27535.2375
3010.42493	27541.4375
3012.84764	27498.4375
3015.26888	27505.6375
3017.68865	27447.4375
3020.10694	27390.1375
3022.52376	27358.4375
3024.9391	27318.4375
3027.35298	27328.4375
3029.76539	27306.6375
3032.17632	27279.2375
3034.5858	27222.3375
3036.9938	27194.0375
3039.40034	27139.0375
3041.80542	27172.4375
3044.20903	27073.5375
3046.61118	27076.9375
3049.01187	26954.1375
3051.4111	26928.5375
3053.80888	26884.2375
3056.20519	26862.5375
3058.60005	26752.7375
3060.99345	26758.9375
3063.3854	26655.9375
3065.7759	26510.4375
3068.16494	26482.3375
3070.55254	26397.5375
3072.93868	26337.4375
3075.32338	26244.6375
3077.70662	26197.5375
3080.08842	26112.9375
3082.46878	26102.9375
3084.84769	26019.0375
3087.22515	25997.3375
3089.60118	25981.9375
3091.97576	25998.1375
3094.3489	26002.5375
3096.72061	25971.4375
3099.09087	25977.5375
3101.4597	25977.7375
3103.82709	25963.5375
3106.19305	25914.1375
3108.55757	25939.3375
3110.92066	25888.0375
3113.28232	25801.2375
3115.64255	25754.0375
3118.00134	25696.1375
3120.35871	25612.7375
3122.71466	25597.7375
3125.06917	25527.3375
3127.42226	25501.1375
3129.77393	25517.5375
3132.12417	25481.7375
3134.47299	25443.5375
3136.82039	25425.4375
3139.16636	25457.1375
3141.51092	25415.6375
3143.85406	25398.4375
3146.19579	25368.1375
3148.53609	25380.5375
3150.87499	25442.9375
3153.21246	25433.2375
3155.54853	25470.3375
3157.88318	25410.6375
3160.21642	25455.0375
3162.54826	25400.0375
3164.87868	25385.8375
3167.2077	25352.6375
3169.5353	25332.2375
3171.86151	25331.3375
3174.18631	25286.0375
3176.5097	25272.2375
3178.83169	25232.9375
3181.15228	25253.4375
3183.47147	25160.3375
3185.78926	25152.9375
3188.10565	25117.6375
3190.42065	25127.2375
3192.73424	25113.3375
3195.04645	25065.7375
3197.35725	25058.8375
3199.66667	25056.9375
3201.97469	25068.6375
3204.28132	25019.7375
3206.58656	25036.7375
3208.8904	25058.9375
3211.19287	25042.8375
3213.49394	25035.5375
3215.79363	25068.2375
3218.09193	25099.8375
3220.38884	25067.8375
3222.68438	25103.2375
3224.97853	25085.3375
3227.2713	25014.9375
3229.56269	25008.9375
3231.8527	25010.2375
3234.14133	24939.8375
3236.42858	24899.3375
3238.71446	24852.0375
3240.99896	24806.1375
3243.28209	24790.1375
3245.56384	24776.3375
3247.84423	24769.5375
3250.12324	24718.6375
3252.40088	24742.3375
3254.67715	24719.1375
3256.95205	24663.1375
3259.22558	24673.4375
3261.49775	24672.2375
3263.76855	24679.9375
3266.03799	24579.1375
3268.30606	24567.1375
3270.57277	24499.8375
3272.83812	24487.8375
3275.10211	24420.3375
3277.36474	24392.6375
3279.62601	24364.8375
3281.88593	24319.3375
3284.14448	24330.1375
3286.40168	24301.8375
3288.65753	24323.8375
3290.91202	24230.0375
3293.16516	24214.5375
3295.41695	24187.2375
3297.66738	24057.3375
3299.91647	23964.0375
3302.16421	23810.6375
3304.4106	23697.8375
3306.65564	23544.2375
3308.89933	23346.8375
3311.14169	23263.7375
3313.38269	23097.6375
3315.62236	22993.7375
3317.86068	22803.4375
3320.09766	22593.2375
3322.3333	22437.7375
3324.5676	22403.7375
3326.80056	22026.5375
3329.03219	21921.4375
3331.26248	6.8375
3333.49143	-0.1625
3335.71905	-0.7625
