Data from AgNPs_FTO_APTES_UA_20uM_CRN_0uM_R6G_10uM_NaF_0.1M_Addition_RamanShift__35__11-30-31-970.txt Node

Date: Thu Feb 17 11:30:31 GMT 2022
User: TCL
Spectrometer: QEP01345
Trigger mode: 4
Integration Time (sec): 7.000000E0
Scans to average: 10
Electric dark correction enabled: true
Nonlinearity correction enabled: false
Boxcar width: 0
XAxis mode: Raman Shifts
Number of Pixels in Spectrum: 1044
>>>>>Begin Spectral Data<<<<<
46.04893	0.7625
50.45542	-0.4375
54.85868	-3.4375
59.25871	-1.6375
63.6555	112.0625
68.04907	113.7625
72.43941	118.4625
76.82654	121.4625
81.21044	128.6625
85.59113	131.8625
89.96862	132.8625
94.34289	136.8625
98.71396	139.2625
103.08183	146.2625
107.4465	151.8625
111.80798	151.9625
116.16626	157.2625
120.52136	169.3625
124.87327	175.0625
129.222	182.6625
133.56755	194.3625
137.90993	209.9625
142.24913	226.6625
146.58517	262.0625
150.91804	306.6625
155.24774	374.8625
159.57429	459.2625
163.89768	598.0625
168.21792	799.6625
172.53501	1109.0625
176.84895	1541.1625
181.15975	2191.7625
185.46741	3074.5625
189.77193	4250.9625
194.07331	5696.4625
198.37157	7337.6625
202.6667	9063.1625
206.9587	10789.9625
211.24758	12460.0625
215.53334	14143.7625
219.81599	15901.8625
224.09553	17859.6625
228.37195	20011.9625
232.64527	22398.4625
236.91549	24941.8625
241.18261	27511.3625
245.44663	29900.1625
249.70755	32078.4625
253.96539	33947.9625
258.22014	35442.8625
262.4718	36636.4625
266.72039	37470.4625
270.96589	37878.1625
275.20832	37805.0625
279.44768	37438.0625
283.68397	36993.1625
287.91719	36559.3625
292.14735	36220.3625
296.37445	36047.8625
300.59849	36044.4625
304.81948	36196.6625
309.03742	36440.3625
313.25231	36583.5625
317.46415	36645.2625
321.67296	36607.0625
325.87872	36479.2625
330.08145	36536.5625
334.28114	36562.8625
338.47781	36752.9625
342.67145	37248.3625
346.86207	37886.5625
351.04966	38543.9625
355.23424	39137.9625
359.4158	39570.7625
363.59435	39903.0625
367.76989	40039.0625
371.94243	40199.1625
376.11196	40308.9625
380.27849	40576.0625
384.44203	40828.2625
388.60257	41261.4625
392.76012	41687.3625
396.91468	42046.4625
401.06626	42495.8625
405.21485	42954.2625
409.36047	42842.7625
413.50311	42747.4625
417.64277	42804.9625
421.77947	43138.4625
425.9132	43573.9625
430.04396	43919.2625
434.17176	44246.5625
438.2966	44648.7625
442.41849	45539.9625
446.53742	47029.4625
450.6534	48577.0625
454.76644	49346.8625
458.87653	49198.3625
462.98368	48556.7625
467.08789	47634.0625
471.18916	46605.8625
475.2875	45509.9625
479.38291	44560.2625
483.4754	43903.9625
487.56496	43419.3625
491.6516	43261.3625
495.73531	43188.4625
499.81612	43207.8625
503.89401	43620.9625
507.96899	43832.4625
512.04106	43788.1625
516.11023	43611.3625
520.1765	43382.0625
524.23987	43386.7625
528.30034	43587.1625
532.35792	43538.4625
536.41261	43111.6625
540.46441	42523.6625
544.51333	42286.2625
548.55936	42396.2625
552.60252	43080.5625
556.64279	44228.2625
560.6802	45256.4625
564.71473	45454.7625
568.7464	45571.9625
572.7752	46436.1625
576.80114	47940.9625
580.82422	49824.2625
584.84444	52802.3625
588.86181	57464.0625
592.87633	62904.4625
596.888	64545.6625
600.89682	60011.5625
604.9028	55132.7625
608.90594	54707.4625
612.90624	55929.5625
616.90371	53139.1625
620.89834	47576.5625
624.89015	45028.5625
628.87913	44837.0625
632.86528	44978.7625
636.84862	44783.1625
640.82913	43918.2625
644.80683	43096.3625
648.78172	42656.9625
652.75379	42740.5625
656.72306	43246.8625
660.68952	43763.1625
664.65319	43596.6625
668.61405	43130.3625
672.57211	43137.8625
676.52738	43473.4625
680.47986	43469.7625
684.42955	43119.8625
688.37646	42928.3625
692.32058	43270.4625
696.26192	43998.9625
700.20048	44738.3625
704.13626	45017.8625
708.06928	45042.6625
711.99952	44978.0625
715.927	45007.8625
719.85171	45239.2625
723.77365	45121.0625
727.69284	44469.8625
731.60928	43980.3625
735.52295	43837.2625
739.43388	43986.6625
743.34206	44226.0625
747.24749	44531.6625
751.15017	44909.6625
755.05012	45469.9625
758.94733	46373.8625
762.8418	47818.3625
766.73354	50029.9625
770.62254	52120.5625
774.50882	52244.8625
778.39237	50659.2625
782.27321	48518.2625
786.15132	46655.3625
790.02671	45398.7625
793.89938	44764.2625
797.76935	44400.6625
801.6366	44286.6625
805.50115	44193.8625
809.36299	44049.2625
813.22213	43849.7625
817.07857	43634.7625
820.93231	43485.5625
824.78336	43318.3625
828.63172	43189.7625
832.47738	43236.0625
836.32036	43298.2625
840.16066	43433.3625
843.99827	43532.8625
847.8332	43562.5625
851.66546	43685.2625
855.49504	43752.2625
859.32195	43843.0625
863.1462	43769.4625
866.96777	43654.2625
870.78668	43684.8625
874.60293	43717.4625
878.41652	43837.2625
882.22745	44026.2625
886.03573	44155.6625
889.84136	44109.9625
893.64433	43919.8625
897.44466	43694.6625
901.24235	43626.0625
905.0374	43513.4625
908.8298	43432.2625
912.61957	43542.1625
916.40671	43752.1625
920.19121	44208.9625
923.97308	44739.0625
927.75233	45027.6625
931.52895	44640.5625
935.30295	44035.6625
939.07433	43416.4625
942.84309	43100.5625
946.60924	42972.0625
950.37278	42959.0625
954.13371	42986.1625
957.89203	42878.3625
961.64774	42859.8625
965.40086	42943.9625
969.15137	42977.7625
972.89929	42925.4625
976.64461	42912.6625
980.38733	42950.3625
984.12747	43074.7625
987.86502	43234.0625
991.59999	43460.0625
995.33237	43877.1625
999.06217	44616.2625
1002.78939	45550.6625
1006.51404	46536.3625
1010.23611	47477.8625
1013.95561	48169.2625
1017.67255	48357.7625
1021.38692	47802.3625
1025.09872	46674.8625
1028.80796	45942.2625
1032.51465	45759.5625
1036.21877	45968.2625
1039.92035	46106.6625
1043.61937	46091.9625
1047.31584	45910.8625
1051.00976	45737.7625
1054.70114	45778.9625
1058.38998	45947.3625
1062.07627	46185.3625
1065.76003	46511.7625
1069.44126	47079.9625
1073.11995	47818.2625
1076.79611	48492.0625
1080.46974	48870.5625
1084.14085	49345.2625
1087.80943	49813.3625
1091.47549	50072.3625
1095.13903	49915.8625
1098.80005	49178.1625
1102.45857	48284.4625
1106.11456	47774.7625
1109.76805	47584.1625
1113.41903	47727.9625
1117.06751	47972.1625
1120.71348	48246.1625
1124.35696	48592.0625
1127.99793	48828.2625
1131.63641	49007.4625
1135.2724	48957.4625
1138.90589	48909.9625
1142.5369	49093.5625
1146.16542	49456.2625
1149.79145	50038.3625
1153.415	50368.2625
1157.03607	50753.1625
1160.65467	51716.7625
1164.27079	53487.1625
1167.88443	55828.0625
1171.49561	58368.6625
1175.10432	61613.1625
1178.71056	65738.4625
1182.31434	69537.7625
1185.91565	70828.6625
1189.51451	69184.2625
1193.11091	66814.1625
1196.70485	64653.9625
1200.29634	62859.4625
1203.88538	61573.5625
1207.47197	61094.7625
1211.05612	60688.8625
1214.63782	60023.7625
1218.21708	59077.9625
1221.79391	58464.7625
1225.36829	58341.5625
1228.94024	58276.4625
1232.50976	57564.0625
1236.07685	56165.7625
1239.6415	55036.1625
1243.20374	54624.0625
1246.76355	54847.4625
1250.32093	55530.5625
1253.8759	56376.6625
1257.42845	57675.0625
1260.97859	59025.2625
1264.52631	60623.6625
1268.07163	62337.2625
1271.61453	63944.3625
1275.15503	65386.8625
1278.69312	67006.8625
1282.22882	68933.8625
1285.76211	71589.9625
1289.29301	74644.3625
1292.82151	77917.5625
1296.34761	81746.2625
1299.87133	86282.2625
1303.39266	91110.2625
1306.9116	95644.1625
1310.42815	99434.5625
1313.94233	101464.4625
1317.45412	100213.9625
1320.96354	96617.8625
1324.47058	92992.2625
1327.97525	90237.8625
1331.47754	88376.8625
1334.97747	86739.1625
1338.47502	85340.5625
1341.97022	83918.7625
1345.46305	82471.7625
1348.95352	81909.0625
1352.44163	83191.9625
1355.92738	86988.7625
1359.41078	92451.2625
1362.89183	96591.5625
1366.37053	96376.7625
1369.84688	89931.2625
1373.32088	80044.8625
1376.79254	73002.4625
1380.26186	70716.3625
1383.72883	70780.9625
1387.19347	70653.8625
1390.65578	69579.6625
1394.11575	69249.1625
1397.57339	70009.6625
1401.0287	71213.1625
1404.48168	72277.7625
1407.93234	72400.2625
1411.38068	71457.2625
1414.82669	69936.1625
1418.27039	68160.4625
1421.71177	66242.2625
1425.15083	64490.9625
1428.58758	63888.5625
1432.02203	64828.3625
1435.45416	66605.5625
1438.88399	68320.8625
1442.31151	69132.5625
1445.73673	69235.7625
1449.15965	68905.0625
1452.58027	68189.1625
1455.9986	67448.9625
1459.41463	67372.7625
1462.82837	68280.0625
1466.23982	69788.2625
1469.64898	71457.8625
1473.05586	72694.5625
1476.46045	73459.7625
1479.86276	73630.2625
1483.26279	73319.3625
1486.66054	73264.9625
1490.05602	73685.7625
1493.44922	74255.8625
1496.84016	74461.1625
1500.22882	74300.7625
1503.61521	74263.5625
1506.99934	74386.6625
1510.38121	74469.0625
1513.76081	74176.2625
1517.13816	73115.8625
1520.51324	71958.2625
1523.88607	71640.0625
1527.25665	72396.2625
1530.62498	73200.2625
1533.99105	73299.4625
1537.35488	72247.5625
1540.71647	70610.6625
1544.07581	68738.0625
1547.4329	66850.2625
1550.78776	65201.5625
1554.14038	64018.3625
1557.49077	63222.1625
1560.83892	62811.6625
1564.18484	62623.1625
1567.52853	62738.6625
1570.86999	63213.0625
1574.20922	64127.9625
1577.54624	64984.5625
1580.88103	65151.8625
1584.2136	65769.6625
1587.54395	68087.7625
1590.87208	72396.4625
1594.19801	78021.5625
1597.52172	83572.7625
1600.84321	85883.5625
1604.16251	82715.8625
1607.47959	75705.2625
1610.79447	68033.0625
1614.10715	61713.3625
1617.41763	57415.9625
1620.7259	54832.0625
1624.03199	53862.1625
1627.33587	54078.1625
1630.63757	55607.5625
1633.93707	59000.9625
1637.23439	64947.8625
1640.52951	74250.1625
1643.82246	86015.2625
1647.11321	95215.0625
1650.40179	95511.5625
1653.68819	86413.7625
1656.97241	73490.4625
1660.25446	62581.5625
1663.53433	55559.9625
1666.81203	51450.4625
1670.08756	49064.5625
1673.36092	47563.8625
1676.63211	46577.9625
1679.90115	45885.9625
1683.16801	45306.8625
1686.43272	44948.5625
1689.69527	44658.2625
1692.95567	44384.1625
1696.2139	44249.7625
1699.46999	44126.9625
1702.72392	44057.1625
1705.97571	43982.9625
1709.22535	43910.0625
1712.47284	43880.4625
1715.71819	43889.5625
1718.96139	43877.5625
1722.20246	43788.6625
1725.44139	43634.2625
1728.67818	43407.3625
1731.91284	43208.1625
1735.14537	43005.5625
1738.37576	42861.1625
1741.60403	42777.7625
1744.83017	42623.9625
1748.05418	42528.0625
1751.27607	42485.6625
1754.49584	42406.1625
1757.71349	42387.9625
1760.92903	42423.1625
1764.14244	42367.9625
1767.35375	42337.2625
1770.56294	42285.0625
1773.77002	42273.8625
1776.97499	42295.8625
1780.17785	42174.2625
1783.37861	42164.3625
1786.57727	42063.3625
1789.77382	41981.8625
1792.96828	41965.4625
1796.16064	41892.3625
1799.3509	41791.5625
1802.53907	41806.4625
1805.72514	41702.8625
1808.90913	41616.5625
1812.09102	41505.6625
1815.27083	41474.0625
1818.44856	41462.1625
1821.6242	41389.4625
1824.79776	41347.6625
1827.96924	41328.7625
1831.13864	41316.6625
1834.30597	41370.0625
1837.47122	41246.2625
1840.6344	41197.0625
1843.7955	41204.5625
1846.95454	41256.8625
1850.11151	41256.3625
1853.26642	41281.1625
1856.41926	41220.6625
1859.57004	41193.5625
1862.71876	41143.2625
1865.86542	41103.2625
1869.01003	41089.5625
1872.15258	41043.4625
1875.29308	41010.6625
1878.43152	41017.3625
1881.56792	40957.9625
1884.70227	40992.8625
1887.83457	40958.1625
1890.96482	40997.8625
1894.09304	40889.7625
1897.21921	40845.1625
1900.34335	40823.4625
1903.46544	40809.6625
1906.58551	40794.7625
1909.70353	40773.5625
1912.81953	40757.4625
1915.93349	40667.4625
1919.04543	40587.8625
1922.15534	40531.8625
1925.26322	40481.2625
1928.36908	40462.8625
1931.47292	40320.7625
1934.57473	40181.9625
1937.67453	40120.4625
1940.77232	40073.8625
1943.86808	39954.5625
1946.96184	39890.3625
1950.05358	39784.4625
1953.14331	39707.7625
1956.23103	39630.5625
1959.31675	39517.1625
1962.40046	39305.4625
1965.48217	39254.4625
1968.56188	39167.4625
1971.63959	39124.2625
1974.7153	38992.8625
1977.78901	38822.7625
1980.86073	38717.6625
1983.93046	38659.9625
1986.99819	38519.4625
1990.06394	38513.4625
1993.1277	38428.2625
1996.18947	38331.6625
1999.24925	38226.5625
2002.30706	38123.4625
2005.36288	38011.3625
2008.41672	37942.1625
2011.46859	37828.7625
2014.51848	37692.9625
2017.56639	37637.0625
2020.61233	37485.9625
2023.6563	37432.8625
2026.6983	37361.9625
2029.73833	37320.9625
2032.7764	37238.9625
2035.8125	37179.3625
2038.84664	37092.6625
2041.87881	37089.8625
2044.90903	36977.0625
2047.93729	36858.8625
2050.96359	36976.6625
2053.98794	36893.1625
2057.01034	36934.6625
2060.03078	36909.4625
2063.04927	36898.7625
2066.06582	36882.1625
2069.08042	36859.3625
2072.09307	36807.1625
2075.10378	36799.8625
2078.11255	36722.1625
2081.11938	36733.2625
2084.12426	36738.5625
2087.12722	36678.1625
2090.12824	36708.4625
2093.12732	36762.8625
2096.12447	36760.9625
2099.11969	36692.9625
2102.11299	36759.0625
2105.10435	36782.6625
2108.09379	36825.0625
2111.08131	36850.3625
2114.0669	36824.7625
2117.05057	36806.2625
2120.03233	36805.6625
2123.01216	36883.0625
2125.99008	36924.1625
2128.96609	36970.5625
2131.94018	37027.3625
2134.91236	37104.8625
2137.88263	37120.7625
2140.851	37153.2625
2143.81746	37143.3625
2146.78201	37165.5625
2149.74466	37218.9625
2152.7054	37226.7625
2155.66425	37228.6625
2158.6212	37202.5625
2161.57625	37213.8625
2164.52941	37222.5625
2167.48067	37184.5625
2170.43004	37161.7625
2173.37752	37208.5625
2176.32311	37229.6625
2179.26681	37240.3625
2182.20863	37248.2625
2185.14856	37258.5625
2188.08661	37266.8625
2191.02278	37274.7625
2193.95707	37242.4625
2196.88948	37174.7625
2199.82001	37202.2625
2202.74867	37187.1625
2205.67545	37104.2625
2208.60037	37072.4625
2211.52341	36983.1625
2214.44458	36954.3625
2217.36388	36929.6625
2220.28132	36928.3625
2223.1969	36796.0625
2226.11061	36754.9625
2229.02246	36620.1625
2231.93245	36669.1625
2234.84058	36658.3625
2237.74686	36674.2625
2240.65128	36613.3625
2243.55385	36533.4625
2246.45456	36527.4625
2249.35343	36438.7625
2252.25044	36376.9625
2255.14561	36312.5625
2258.03893	36281.8625
2260.93041	36163.6625
2263.82004	36087.4625
2266.70783	36029.6625
2269.59378	35960.8625
2272.4779	35876.9625
2275.36017	35843.7625
2278.24061	35799.0625
2281.11922	35694.5625
2283.996	35652.5625
2286.87094	35631.4625
2289.74405	35567.5625
2292.61534	35588.2625
2295.4848	35561.8625
2298.35243	35533.5625
2301.21824	35511.3625
2304.08223	35532.7625
2306.94439	35517.0625
2309.80474	35544.0625
2312.66327	35510.8625
2315.51999	35438.0625
2318.37489	35389.6625
2321.22797	35356.3625
2324.07925	35406.5625
2326.92871	35284.1625
2329.77637	35223.8625
2332.62222	35181.6625
2335.46626	35195.0625
2338.3085	35206.7625
2341.14893	35184.0625
2343.98756	35117.9625
2346.8244	35131.3625
2349.65943	35128.6625
2352.49267	35115.5625
2355.32411	35104.4625
2358.15376	35118.4625
2360.98161	35116.6625
2363.80768	35094.1625
2366.63195	35025.9625
2369.45444	35029.5625
2372.27514	34987.8625
2375.09405	34956.9625
2377.91118	34901.5625
2380.72652	34801.0625
2383.54009	34758.9625
2386.35187	34691.3625
2389.16188	34587.7625
2391.97011	34548.9625
2394.77657	34498.7625
2397.58125	34494.7625
2400.38416	34437.4625
2403.18529	34361.7625
2405.98466	34328.2625
2408.78226	34269.2625
2411.57809	34254.0625
2414.37216	34249.8625
2417.16446	34224.4625
2419.955	34212.2625
2422.74378	34171.1625
2425.5308	34158.9625
2428.31606	34177.3625
2431.09956	34194.9625
2433.88131	34154.8625
2436.6613	34157.4625
2439.43954	34085.4625
2442.21603	34115.5625
2444.99077	34049.7625
2447.76377	34046.4625
2450.53501	34021.8625
2453.30451	34116.9625
2456.07226	34031.5625
2458.83827	34022.5625
2461.60254	33937.0625
2464.36507	33955.4625
2467.12586	33990.0625
2469.88492	33955.8625
2472.64224	33951.1625
2475.39782	33969.4625
2478.15167	33940.8625
2480.90379	33980.0625
2483.65417	33966.9625
2486.40283	34005.3625
2489.14976	34009.2625
2491.89497	33992.6625
2494.63845	33951.1625
2497.3802	33967.4625
2500.12024	33917.8625
2502.85855	33918.1625
2505.59514	33900.9625
2508.33002	33813.1625
2511.06318	33828.8625
2513.79462	33772.0625
2516.52435	33780.3625
2519.25237	33760.0625
2521.97867	33750.1625
2524.70327	33721.8625
2527.42616	33664.1625
2530.14734	33659.5625
2532.86681	33600.7625
2535.58458	33601.9625
2538.30065	33601.2625
2541.01501	33590.8625
2543.72768	33631.8625
2546.43864	33581.4625
2549.14791	33481.6625
2551.85548	33476.1625
2554.56136	33388.9625
2557.26554	33318.1625
2559.96803	33312.8625
2562.66883	33299.5625
2565.36794	33232.5625
2568.06536	33282.8625
2570.7611	33237.0625
2573.45514	33190.5625
2576.14751	33170.3625
2578.83819	33118.2625
2581.52719	33120.9625
2584.21451	33089.9625
2586.90015	33040.0625
2589.58411	32976.1625
2592.2664	32974.7625
2594.94701	32964.0625
2597.62594	32927.2625
2600.30321	32888.0625
2602.9788	32895.5625
2605.65273	32903.9625
2608.32498	32856.6625
2610.99557	32854.3625
2613.66449	32830.8625
2616.33175	32798.2625
2618.99734	32795.5625
2621.66128	32729.3625
2624.32355	32696.3625
2626.98416	32679.2625
2629.64311	32645.6625
2632.30041	32650.9625
2634.95605	32638.5625
2637.61004	32548.9625
2640.26238	32497.2625
2642.91306	32526.2625
2645.56209	32518.8625
2648.20948	32492.2625
2650.85521	32503.4625
2653.4993	32563.5625
2656.14175	32582.6625
2658.78255	32616.4625
2661.42171	32593.9625
2664.05923	32623.6625
2666.6951	32664.5625
2669.32934	32654.7625
2671.96194	32662.8625
2674.59291	32690.4625
2677.22224	32658.1625
2679.84993	32720.4625
2682.476	32629.9625
2685.10043	32630.8625
2687.72324	32580.1625
2690.34441	32643.3625
2692.96396	32607.6625
2695.58188	32658.3625
2698.19818	32611.0625
2700.81285	32648.6625
2703.4259	32591.7625
2706.03733	32606.7625
2708.64714	32637.5625
2711.25533	32715.5625
2713.86191	32698.5625
2716.46687	32804.0625
2719.07021	32771.6625
2721.67194	32791.6625
2724.27206	32811.7625
2726.87057	32822.1625
2729.46747	32841.1625
2732.06276	32818.8625
2734.65644	32817.0625
2737.24852	32850.0625
2739.83899	32780.6625
2742.42786	32863.9625
2745.01513	32807.0625
2747.60079	32744.8625
2750.18486	32710.3625
2752.76733	32759.3625
2755.3482	32705.7625
2757.92747	32671.2625
2760.50515	32618.6625
2763.08123	32628.0625
2765.65573	32582.6625
2768.22863	32553.3625
2770.79994	32525.3625
2773.36967	32530.6625
2775.9378	32569.8625
2778.50435	32590.8625
2781.06932	32518.6625
2783.6327	32545.5625
2786.1945	32469.0625
2788.75471	32441.2625
2791.31335	32341.2625
2793.87041	32300.2625
2796.42589	32223.0625
2798.97979	32282.2625
2801.53212	32120.0625
2804.08288	32113.3625
2806.63206	32087.8625
2809.17967	31984.9625
2811.72571	31939.1625
2814.27018	31850.6625
2816.81308	31735.9625
2819.35442	31740.0625
2821.89419	31652.0625
2824.43239	31655.0625
2826.96904	31651.1625
2829.50412	31684.7625
2832.03763	31499.2625
2834.56959	31569.6625
2837.1	31513.6625
2839.62884	31461.5625
2842.15613	31429.3625
2844.68186	31486.2625
2847.20604	31462.0625
2849.72867	31417.4625
2852.24974	31380.6625
2854.76927	31304.4625
2857.28724	31339.3625
2859.80367	31281.4625
2862.31855	31237.9625
2864.83189	31257.6625
2867.34368	31151.8625
2869.85393	31143.6625
2872.36264	31080.0625
2874.8698	31035.4625
2877.37543	31028.7625
2879.87952	31009.7625
2882.38207	31045.9625
2884.88308	31040.7625
2887.38256	31065.3625
2889.88051	31063.7625
2892.37692	31072.7625
2894.8718	31052.0625
2897.36515	31111.7625
2899.85698	31125.9625
2902.34727	31159.8625
2904.83604	31117.8625
2907.32328	31199.0625
2909.809	31222.6625
2912.29319	31241.0625
2914.77587	31237.8625
2917.25702	31229.8625
2919.73665	31207.9625
2922.21476	31181.6625
2924.69136	31183.1625
2927.16644	31149.6625
2929.64	31153.5625
2932.11205	31042.5625
2934.58258	31070.2625
2937.05161	31108.1625
2939.51912	31093.1625
2941.98513	31050.4625
2944.44962	30937.5625
2946.91261	30940.4625
2949.37409	31029.8625
2951.83407	30988.2625
2954.29254	30992.2625
2956.74951	31017.1625
2959.20498	31038.3625
2961.65895	30992.6625
2964.11142	31014.3625
2966.56239	30969.9625
2969.01186	30894.8625
2971.45984	30789.9625
2973.90632	30720.3625
2976.35131	30645.3625
2978.7948	30699.3625
2981.23681	30595.4625
2983.67732	30541.5625
2986.11635	30474.6625
2988.55388	30385.8625
2990.98993	30385.7625
2993.4245	30341.4625
2995.85758	30242.9625
2998.28917	30114.6625
3000.71928	30087.6625
3003.14791	30004.1625
3005.57506	30038.4625
3008.00073	29976.4625
3010.42493	29971.4625
3012.84764	29876.1625
3015.26888	29884.4625
3017.68865	29793.0625
3020.10694	29763.4625
3022.52376	29713.7625
3024.9391	29638.3625
3027.35298	29629.1625
3029.76539	29593.8625
3032.17632	29554.2625
3034.5858	29513.5625
3036.9938	29473.4625
3039.40034	29453.2625
3041.80542	29484.6625
3044.20903	29421.9625
3046.61118	29402.0625
3049.01187	29291.2625
3051.4111	29268.8625
3053.80888	29191.3625
3056.20519	29159.0625
3058.60005	29109.0625
3060.99345	29070.3625
3063.3854	29008.6625
3065.7759	28943.6625
3068.16494	28862.9625
3070.55254	28736.6625
3072.93868	28672.3625
3075.32338	28602.5625
3077.70662	28587.7625
3080.08842	28469.2625
3082.46878	28411.4625
3084.84769	28350.0625
3087.22515	28359.4625
3089.60118	28356.2625
3091.97576	28366.7625
3094.3489	28330.1625
3096.72061	28331.4625
3099.09087	28360.8625
3101.4597	28301.4625
3103.82709	28300.6625
3106.19305	28274.8625
3108.55757	28238.3625
3110.92066	28182.3625
3113.28232	28175.6625
3115.64255	28100.8625
3118.00134	28001.1625
3120.35871	27939.5625
3122.71466	27847.6625
3125.06917	27831.9625
3127.42226	27802.0625
3129.77393	27802.8625
3132.12417	27707.6625
3134.47299	27686.6625
3136.82039	27661.3625
3139.16636	27604.6625
3141.51092	27604.2625
3143.85406	27653.7625
3146.19579	27615.7625
3148.53609	27548.1625
3150.87499	27616.0625
3153.21246	27581.1625
3155.54853	27664.7625
3157.88318	27622.8625
3160.21642	27617.4625
3162.54826	27553.7625
3164.87868	27519.3625
3167.2077	27478.7625
3169.5353	27517.1625
3171.86151	27511.7625
3174.18631	27501.7625
3176.5097	27533.8625
3178.83169	27483.7625
3181.15228	27414.0625
3183.47147	27298.0625
3185.78926	27271.7625
3188.10565	27213.4625
3190.42065	27214.1625
3192.73424	27170.2625
3195.04645	27125.2625
3197.35725	27093.7625
3199.66667	27036.5625
3201.97469	27102.1625
3204.28132	27078.5625
3206.58656	27027.1625
3208.8904	27032.4625
3211.19287	27039.9625
3213.49394	27023.7625
3215.79363	27032.5625
3218.09193	27078.6625
3220.38884	27110.5625
3222.68438	27128.1625
3224.97853	26999.6625
3227.2713	26968.4625
3229.56269	26948.2625
3231.8527	26953.3625
3234.14133	26882.1625
3236.42858	26881.3625
3238.71446	26807.3625
3240.99896	26743.6625
3243.28209	26752.0625
3245.56384	26729.6625
3247.84423	26694.3625
3250.12324	26640.7625
3252.40088	26616.0625
3254.67715	26602.7625
3256.95205	26578.1625
3259.22558	26530.7625
3261.49775	26498.8625
3263.76855	26490.4625
3266.03799	26348.5625
3268.30606	26349.7625
3270.57277	26356.6625
3272.83812	26287.4625
3275.10211	26265.1625
3277.36474	26176.8625
3279.62601	26198.8625
3281.88593	26138.5625
3284.14448	26175.1625
3286.40168	26165.7625
3288.65753	26104.3625
3290.91202	26100.4625
3293.16516	26064.5625
3295.41695	26021.4625
3297.66738	25910.5625
3299.91647	25740.6625
3302.16421	25574.3625
3304.4106	25474.8625
3306.65564	25262.7625
3308.89933	25126.7625
3311.14169	24951.6625
3313.38269	24755.2625
3315.62236	24637.7625
3317.86068	24361.4625
3320.09766	24122.0625
3322.3333	24021.2625
3324.5676	23912.0625
3326.80056	23498.2625
3329.03219	23392.5625
3331.26248	6.7625
3333.49143	0.3625
3335.71905	-0.3375
