Data from AgNPs_FTO_APTES_UA_20uM_CRN_0uM_R6G_10uM_NaF_0.1M_Addition_RamanShift__15__11-07-11-940.txt Node

Date: Thu Feb 17 11:07:11 GMT 2022
User: TCL
Spectrometer: QEP01345
Trigger mode: 4
Integration Time (sec): 7.000000E0
Scans to average: 10
Electric dark correction enabled: true
Nonlinearity correction enabled: false
Boxcar width: 0
XAxis mode: Raman Shifts
Number of Pixels in Spectrum: 1044
>>>>>Begin Spectral Data<<<<<
46.04893	1.3
50.45542	-0.4
54.85868	-1.2
59.25871	1.3
63.6555	43.1
68.04907	41.5
72.43941	42.5
76.82654	49.2
81.21044	49.3
85.59113	53.9
89.96862	51
94.34289	55.8
98.71396	54.2
103.08183	56.4
107.4465	60.8
111.80798	57.7
116.16626	62.5
120.52136	66.9
124.87327	65.7
129.222	71.2
133.56755	72.6
137.90993	79.4
142.24913	83
146.58517	96.9
150.91804	117.2
155.24774	127.1
159.57429	167.4
163.89768	213.6
168.21792	288.8
172.53501	392.1
176.84895	544.6
181.15975	766.6
185.46741	1075.7
189.77193	1480.4
194.07331	1980.4
198.37157	2539.1
202.6667	3136.6
206.9587	3732.4
211.24758	4337.6
215.53334	4944.9
219.81599	5654.8
224.09553	6468.9
228.37195	7340.8
232.64527	8307
236.91549	9249.2
241.18261	10136.6
245.44663	10809.1
249.70755	11337.9
253.96539	11717.8
258.22014	12093.4
262.4718	12416
266.72039	12694
270.96589	12787.2
275.20832	12732.3
279.44768	12472.2
283.68397	12248.6
287.91719	12064.5
292.14735	12080
296.37445	12278.7
300.59849	12694.4
304.81948	13254.5
309.03742	13730.4
313.25231	13895.1
317.46415	13530.3
321.67296	12705.7
325.87872	11898.2
330.08145	11471.4
334.28114	11335.7
338.47781	11467.5
342.67145	11740.4
346.86207	12134.3
351.04966	12733.9
355.23424	13440.2
359.4158	13932.2
363.59435	14122
367.76989	14119.9
371.94243	14023.7
376.11196	13916.9
380.27849	13856.1
384.44203	13730.7
388.60257	13643.6
392.76012	13580.5
396.91468	13681
401.06626	14010.6
405.21485	14195.7
409.36047	13873.3
413.50311	13185.8
417.64277	12529.6
421.77947	12217.5
425.9132	12141.8
430.04396	12160.9
434.17176	12212.6
438.2966	12310.1
442.41849	12662.1
446.53742	13167.3
450.6534	13641.4
454.76644	13808.2
458.87653	13643.8
462.98368	13315.6
467.08789	12893.7
471.18916	12555.4
475.2875	12144.7
479.38291	11879.9
483.4754	11655.9
487.56496	11499
491.6516	11409.2
495.73531	11360.1
499.81612	11361.9
503.89401	11526.7
507.96899	11687.9
512.04106	11866.7
516.11023	11967.7
520.1765	12018.6
524.23987	11988.2
528.30034	11837.7
532.35792	11689.2
536.41261	11413.4
540.46441	11083.4
544.51333	10837.8
548.55936	10897.7
552.60252	11203.1
556.64279	11686.6
560.6802	12048.5
564.71473	12290.2
568.7464	12755.6
572.7752	13261.3
576.80114	13144.8
580.82422	12836.9
584.84444	12922.7
588.86181	13400.7
592.87633	14125.2
596.888	14496.6
600.89682	14061.3
604.9028	14450.1
608.90594	17887
612.90624	23107.7
616.90371	22546.5
620.89834	15543.4
624.89015	11775.8
628.87913	11015.7
632.86528	11157.8
636.84862	11387.8
640.82913	11198.8
644.80683	10613.9
648.78172	10227.6
652.75379	10192.5
656.72306	10594
660.68952	11120.8
664.65319	11018.2
668.61405	10323.4
672.57211	9988.4
676.52738	9989.9
680.47986	9984.2
684.42955	9863.9
688.37646	9734.3
692.32058	9690
696.26192	9836
700.20048	10017.7
704.13626	10171.1
708.06928	10179.9
711.99952	10095.1
715.927	10034.2
719.85171	10122.2
723.77365	10154.3
727.69284	10032.4
731.60928	9896.7
735.52295	9881.9
739.43388	9896.2
743.34206	9984
747.24749	10030.7
751.15017	10072.4
755.05012	10291
758.94733	10859.2
762.8418	12208.9
766.73354	14695.1
770.62254	17258.8
774.50882	18349.4
778.39237	17296.1
782.27321	14878.7
786.15132	12501
790.02671	11011.9
793.89938	10292.3
797.76935	9944.1
801.6366	9789.4
805.50115	9682.8
809.36299	9601.9
813.22213	9478.6
817.07857	9387.9
820.93231	9373
824.78336	9346.2
828.63172	9355.2
832.47738	9352
836.32036	9330.2
840.16066	9248.8
843.99827	9221.3
847.8332	9224.6
851.66546	9206.3
855.49504	9195.2
859.32195	9174.4
863.1462	9128.7
866.96777	9073.5
870.78668	9065.2
874.60293	9090.2
878.41652	9092.7
882.22745	9173.3
886.03573	9253
889.84136	9218.6
893.64433	9188.3
897.44466	9172
901.24235	9168.2
905.0374	9109.4
908.8298	8993.3
912.61957	8956.9
916.40671	8966.5
920.19121	9044.6
923.97308	9203.3
927.75233	9370.8
931.52895	9448.2
935.30295	9292.1
939.07433	8910.4
942.84309	8594.8
946.60924	8405
950.37278	8300.2
954.13371	8291.7
957.89203	8243.8
961.64774	8213.5
965.40086	8173
969.15137	8151.3
972.89929	8091.8
976.64461	8030.6
980.38733	8006.6
984.12747	7990.5
987.86502	8018.9
991.59999	8092.1
995.33237	8219.7
999.06217	8429.9
1002.78939	8713.7
1006.51404	9011.2
1010.23611	9287.4
1013.95561	9442.1
1017.67255	9452.8
1021.38692	9234
1025.09872	8894.4
1028.80796	8606.3
1032.51465	8490.5
1036.21877	8450.2
1039.92035	8495.3
1043.61937	8496.7
1047.31584	8540.1
1051.00976	8590.8
1054.70114	8600.1
1058.38998	8593.8
1062.07627	8592.6
1065.76003	8633.3
1069.44126	8713.5
1073.11995	8872.5
1076.79611	9100.9
1080.46974	9319.3
1084.14085	9665.3
1087.80943	10132
1091.47549	10311.5
1095.13903	10104.4
1098.80005	9677.6
1102.45857	9241.7
1106.11456	9050.1
1109.76805	9075.3
1113.41903	9285.9
1117.06751	9657.4
1120.71348	10169.1
1124.35696	10755.6
1127.99793	11331.7
1131.63641	11348.1
1135.2724	10753.9
1138.90589	10132.4
1142.5369	9767.2
1146.16542	9587
1149.79145	9479.7
1153.415	9474
1157.03607	9579.2
1160.65467	9910
1164.27079	10521.3
1167.88443	11461.3
1171.49561	12912.5
1175.10432	15021.1
1178.71056	17801.4
1182.31434	20087.8
1185.91565	20762.5
1189.51451	19930
1193.11091	18533.4
1196.70485	16917.6
1200.29634	15448
1203.88538	14235.7
1207.47197	13058.4
1211.05612	12151.6
1214.63782	11654.3
1218.21708	11522.3
1221.79391	11639
1225.36829	11866.1
1228.94024	11800.8
1232.50976	11482.1
1236.07685	11102.4
1239.6415	10892
1243.20374	10807
1246.76355	10772.3
1250.32093	10847.1
1253.8759	11101.1
1257.42845	11534.8
1260.97859	12149.6
1264.52631	12862.7
1268.07163	13603.3
1271.61453	14193
1275.15503	14644.7
1278.69312	14979.5
1282.22882	15205.3
1285.76211	15798.3
1289.29301	16660
1292.82151	17649.4
1296.34761	18777.2
1299.87133	20190.4
1303.39266	22240.2
1306.9116	25047.4
1310.42815	28309.5
1313.94233	30475.9
1317.45412	30128.3
1320.96354	27859.7
1324.47058	25216.7
1327.97525	22884
1331.47754	21201.8
1334.97747	20363.6
1338.47502	20013
1341.97022	20082.1
1345.46305	20668.2
1348.95352	21788.6
1352.44163	23520.2
1355.92738	26125.9
1359.41078	30243.5
1362.89183	34353
1366.37053	33990.8
1369.84688	28481.3
1373.32088	22341.4
1376.79254	18501.2
1380.26186	16748.4
1383.72883	15896.9
1387.19347	15222.9
1390.65578	14642
1394.11575	14407.3
1397.57339	14539.8
1401.0287	14821
1404.48168	15099.7
1407.93234	15046.6
1411.38068	14738.5
1414.82669	14320.7
1418.27039	13828.4
1421.71177	13315.9
1425.15083	12858.6
1428.58758	12595.4
1432.02203	12763
1435.45416	13108.9
1438.88399	13434.6
1442.31151	13558.6
1445.73673	13680.4
1449.15965	13788.7
1452.58027	13860
1455.9986	13773.9
1459.41463	13852.7
1462.82837	14084
1466.23982	14485.3
1469.64898	14871.2
1473.05586	15069.9
1476.46045	15104.1
1479.86276	15075.6
1483.26279	15171
1486.66054	15385.8
1490.05602	15901.6
1493.44922	16645.6
1496.84016	17762.5
1500.22882	19608.6
1503.61521	22167.1
1506.99934	25361.3
1510.38121	28419.8
1513.76081	29767.1
1517.13816	28122.5
1520.51324	24396.5
1523.88607	20613.6
1527.25665	18107.7
1530.62498	16801.4
1533.99105	15983.6
1537.35488	15345.9
1540.71647	14769.3
1544.07581	14305.4
1547.4329	13931.3
1550.78776	13684
1554.14038	13594.8
1557.49077	13725.4
1560.83892	14015.8
1564.18484	14529.4
1567.52853	15082.2
1570.86999	15595.5
1574.20922	15966.1
1577.54624	15931.3
1580.88103	15126.4
1584.2136	13972.7
1587.54395	13441.3
1590.87208	13857.3
1594.19801	15126.1
1597.52172	16706.3
1600.84321	17489.1
1604.16251	16676.1
1607.47959	15018.6
1610.79447	13309.3
1614.10715	11765.5
1617.41763	10508.3
1620.7259	9688.4
1624.03199	9288.7
1627.33587	9262.9
1630.63757	9684.3
1633.93707	10654
1637.23439	12353.4
1640.52951	15104.7
1643.82246	18699.1
1647.11321	22294.5
1650.40179	24127.5
1653.68819	22625.3
1656.97241	18408.2
1660.25446	13980.7
1663.53433	10847.9
1666.81203	9030.6
1670.08756	7973.3
1673.36092	7393.3
1676.63211	7028
1679.90115	6756.5
1683.16801	6588.5
1686.43272	6459.8
1689.69527	6373.9
1692.95567	6294.3
1696.2139	6241.3
1699.46999	6213.5
1702.72392	6182.9
1705.97571	6145.5
1709.22535	6066.5
1712.47284	6079.5
1715.71819	6107.2
1718.96139	6084.6
1722.20246	6025.9
1725.44139	5979.4
1728.67818	5917.2
1731.91284	5831
1735.14537	5759.3
1738.37576	5660.4
1741.60403	5664.7
1744.83017	5649.5
1748.05418	5614.5
1751.27607	5595.2
1754.49584	5566.1
1757.71349	5536.3
1760.92903	5540.2
1764.14244	5515.1
1767.35375	5498.5
1770.56294	5452.2
1773.77002	5442.5
1776.97499	5421.4
1780.17785	5389.2
1783.37861	5356.2
1786.57727	5332.1
1789.77382	5322.4
1792.96828	5321
1796.16064	5297.5
1799.3509	5293.9
1802.53907	5265.5
1805.72514	5253.1
1808.90913	5213.1
1812.09102	5190.7
1815.27083	5187.9
1818.44856	5173.4
1821.6242	5141.2
1824.79776	5140.3
1827.96924	5124.4
1831.13864	5132.6
1834.30597	5140
1837.47122	5136.9
1840.6344	5108.2
1843.7955	5122.5
1846.95454	5118.4
1850.11151	5099.5
1853.26642	5097.7
1856.41926	5099.1
1859.57004	5080.2
1862.71876	5064.4
1865.86542	5078.4
1869.01003	5043.6
1872.15258	5043.7
1875.29308	5040
1878.43152	5026.8
1881.56792	5013.1
1884.70227	5025.2
1887.83457	5021.8
1890.96482	5028.2
1894.09304	5003.5
1897.21921	4979.1
1900.34335	4989.5
1903.46544	4976.2
1906.58551	4968.3
1909.70353	4964.7
1912.81953	4936.9
1915.93349	4939.4
1919.04543	4888.3
1922.15534	4889.7
1925.26322	4844.9
1928.36908	4823
1931.47292	4793.9
1934.57473	4756.7
1937.67453	4737.8
1940.77232	4710.1
1943.86808	4685.9
1946.96184	4664.7
1950.05358	4655.3
1953.14331	4640.1
1956.23103	4626.7
1959.31675	4616.3
1962.40046	4608.5
1965.48217	4577
1968.56188	4577.7
1971.63959	4574.6
1974.7153	4563.3
1977.78901	4535.6
1980.86073	4530.5
1983.93046	4500.6
1986.99819	4470.6
1990.06394	4446.1
1993.1277	4441.6
1996.18947	4408.2
1999.24925	4403.9
2002.30706	4349.5
2005.36288	4362.6
2008.41672	4335.7
2011.46859	4332.9
2014.51848	4309
2017.56639	4303.2
2020.61233	4278.7
2023.6563	4240.8
2026.6983	4237.6
2029.73833	4229.6
2032.7764	4214.3
2035.8125	4220.4
2038.84664	4199.4
2041.87881	4205.9
2044.90903	4164.9
2047.93729	4170.5
2050.96359	4160.1
2053.98794	4152.7
2057.01034	4152.8
2060.03078	4125.9
2063.04927	4117.4
2066.06582	4107.5
2069.08042	4115
2072.09307	4104.3
2075.10378	4103.7
2078.11255	4091.1
2081.11938	4092.4
2084.12426	4081.7
2087.12722	4073.2
2090.12824	4079.7
2093.12732	4090.1
2096.12447	4083.7
2099.11969	4068.2
2102.11299	4083.4
2105.10435	4083.5
2108.09379	4077.1
2111.08131	4085.9
2114.0669	4073.9
2117.05057	4091.4
2120.03233	4077.1
2123.01216	4079.9
2125.99008	4098.5
2128.96609	4100.5
2131.94018	4092
2134.91236	4090.6
2137.88263	4092
2140.851	4080.1
2143.81746	4086.5
2146.78201	4069.6
2149.74466	4068.1
2152.7054	4070.9
2155.66425	4051.1
2158.6212	4042.9
2161.57625	4052.2
2164.52941	4036.2
2167.48067	4027.9
2170.43004	4013.3
2173.37752	4033.2
2176.32311	4041.1
2179.26681	4031.5
2182.20863	4033.5
2185.14856	4038.5
2188.08661	4021.4
2191.02278	4035.4
2193.95707	4018.4
2196.88948	4001.4
2199.82001	4009.3
2202.74867	3985.3
2205.67545	3985.8
2208.60037	3971.9
2211.52341	3968.2
2214.44458	3958.7
2217.36388	3937.7
2220.28132	3944.1
2223.1969	3932.4
2226.11061	3940.9
2229.02246	3917.4
2231.93245	3908.1
2234.84058	3905.5
2237.74686	3914.9
2240.65128	3911.2
2243.55385	3890.5
2246.45456	3901.7
2249.35343	3875.6
2252.25044	3873.4
2255.14561	3877.3
2258.03893	3885.5
2260.93041	3870
2263.82004	3864.3
2266.70783	3862.6
2269.59378	3855.1
2272.4779	3838.5
2275.36017	3825.3
2278.24061	3820.8
2281.11922	3803.1
2283.996	3810.4
2286.87094	3787.7
2289.74405	3781.9
2292.61534	3756.2
2295.4848	3754.2
2298.35243	3744
2301.21824	3746.8
2304.08223	3750.9
2306.94439	3729.4
2309.80474	3746.6
2312.66327	3742.9
2315.51999	3741.3
2318.37489	3728
2321.22797	3730.1
2324.07925	3733.7
2326.92871	3727.5
2329.77637	3712.1
2332.62222	3717.7
2335.46626	3720.6
2338.3085	3699.7
2341.14893	3708.9
2343.98756	3703.2
2346.8244	3710
2349.65943	3721.1
2352.49267	3743.6
2355.32411	3745.5
2358.15376	3773.3
2360.98161	3767.2
2363.80768	3786.4
2366.63195	3792.3
2369.45444	3799.4
2372.27514	3799.4
2375.09405	3793.6
2377.91118	3765.8
2380.72652	3753.8
2383.54009	3734.7
2386.35187	3712.8
2389.16188	3700.1
2391.97011	3673.1
2394.77657	3642.6
2397.58125	3643.3
2400.38416	3639
2403.18529	3612.5
2405.98466	3605.1
2408.78226	3602
2411.57809	3603.3
2414.37216	3595.1
2417.16446	3589
2419.955	3604.1
2422.74378	3594.8
2425.5308	3593.6
2428.31606	3596.5
2431.09956	3610.2
2433.88131	3609.4
2436.6613	3612.8
2439.43954	3609
2442.21603	3618.6
2444.99077	3617.8
2447.76377	3611.8
2450.53501	3628.2
2453.30451	3632.7
2456.07226	3630.4
2458.83827	3629.8
2461.60254	3633.9
2464.36507	3631.5
2467.12586	3649.9
2469.88492	3638.6
2472.64224	3639.5
2475.39782	3645.9
2478.15167	3651
2480.90379	3664.1
2483.65417	3680.2
2486.40283	3693.8
2489.14976	3694.6
2491.89497	3701
2494.63845	3719.8
2497.3802	3690
2500.12024	3698.5
2502.85855	3688.7
2505.59514	3679.1
2508.33002	3655.9
2511.06318	3628.4
2513.79462	3618.7
2516.52435	3607.6
2519.25237	3575.9
2521.97867	3568.5
2524.70327	3567
2527.42616	3553.8
2530.14734	3544.9
2532.86681	3528.9
2535.58458	3532.9
2538.30065	3546.9
2541.01501	3547.9
2543.72768	3540.3
2546.43864	3561.9
2549.14791	3552.3
2551.85548	3553.4
2554.56136	3542.1
2557.26554	3543.8
2559.96803	3540
2562.66883	3531.4
2565.36794	3527.3
2568.06536	3538.1
2570.7611	3524.4
2573.45514	3517
2576.14751	3512.8
2578.83819	3516.9
2581.52719	3514.7
2584.21451	3502.7
2586.90015	3508.4
2589.58411	3499.8
2592.2664	3497.9
2594.94701	3500.7
2597.62594	3488.6
2600.30321	3495.8
2602.9788	3503.9
2605.65273	3501.7
2608.32498	3476.6
2610.99557	3486.2
2613.66449	3494
2616.33175	3497.6
2618.99734	3510.1
2621.66128	3497
2624.32355	3499.3
2626.98416	3485.3
2629.64311	3477.5
2632.30041	3476.7
2634.95605	3461.4
2637.61004	3466.5
2640.26238	3456.6
2642.91306	3460.9
2645.56209	3447.8
2648.20948	3456.9
2650.85521	3459.9
2653.4993	3465.7
2656.14175	3471.6
2658.78255	3482.7
2661.42171	3476.3
2664.05923	3482.4
2666.6951	3485.3
2669.32934	3498
2671.96194	3490.6
2674.59291	3506.1
2677.22224	3508.7
2679.84993	3508.1
2682.476	3488.4
2685.10043	3487
2687.72324	3496.3
2690.34441	3491.5
2692.96396	3481.6
2695.58188	3482.5
2698.19818	3471.5
2700.81285	3473.9
2703.4259	3478.1
2706.03733	3484.1
2708.64714	3470.2
2711.25533	3492.3
2713.86191	3505.1
2716.46687	3518.3
2719.07021	3510.9
2721.67194	3519.5
2724.27206	3507.4
2726.87057	3503.2
2729.46747	3511.8
2732.06276	3502.8
2734.65644	3508.7
2737.24852	3497.4
2739.83899	3496.5
2742.42786	3487.6
2745.01513	3491.6
2747.60079	3472.8
2750.18486	3475.6
2752.76733	3470.1
2755.3482	3473.2
2757.92747	3460.1
2760.50515	3464
2763.08123	3446.3
2765.65573	3448.4
2768.22863	3444.4
2770.79994	3448.3
2773.36967	3449
2775.9378	3443.2
2778.50435	3449
2781.06932	3461.5
2783.6327	3459.3
2786.1945	3454.1
2788.75471	3477.2
2791.31335	3449.9
2793.87041	3462.2
2796.42589	3450.1
2798.97979	3459.9
2801.53212	3435
2804.08288	3439.7
2806.63206	3436.8
2809.17967	3431.4
2811.72571	3438.3
2814.27018	3435.2
2816.81308	3442.9
2819.35442	3440.4
2821.89419	3441.4
2824.43239	3432.2
2826.96904	3448.4
2829.50412	3466.6
2832.03763	3461.8
2834.56959	3463.8
2837.1	3465.6
2839.62884	3445.5
2842.15613	3482.2
2844.68186	3494.3
2847.20604	3519.6
2849.72867	3533.5
2852.24974	3529.2
2854.76927	3541.5
2857.28724	3547.9
2859.80367	3547.7
2862.31855	3553
2864.83189	3566.1
2867.34368	3548.8
2869.85393	3560.3
2872.36264	3554.6
2874.8698	3556.4
2877.37543	3551.1
2879.87952	3551.2
2882.38207	3554
2884.88308	3538
2887.38256	3542.5
2889.88051	3538.9
2892.37692	3533.3
2894.8718	3534.1
2897.36515	3543.2
2899.85698	3555.9
2902.34727	3553.5
2904.83604	3559.6
2907.32328	3560.6
2909.809	3561.2
2912.29319	3571.2
2914.77587	3574.3
2917.25702	3573.2
2919.73665	3564.9
2922.21476	3569.4
2924.69136	3548.3
2927.16644	3537.1
2929.64	3527
2932.11205	3533.8
2934.58258	3512
2937.05161	3512.1
2939.51912	3501.8
2941.98513	3485.9
2944.44962	3459.1
2946.91261	3432.4
2949.37409	3440.1
2951.83407	3419.7
2954.29254	3414.3
2956.74951	3424
2959.20498	3418
2961.65895	3404.1
2964.11142	3393.9
2966.56239	3386.1
2969.01186	3368.6
2971.45984	3349.4
2973.90632	3353.1
2976.35131	3314.2
2978.7948	3309.2
2981.23681	3297.8
2983.67732	3281.1
2986.11635	3278.6
2988.55388	3265.8
2990.98993	3257.4
2993.4245	3261.1
2995.85758	3252.1
2998.28917	3241.5
3000.71928	3238.7
3003.14791	3229.1
3005.57506	3232.4
3008.00073	3217.3
3010.42493	3237.7
3012.84764	3212.1
3015.26888	3221
3017.68865	3204
3020.10694	3197.4
3022.52376	3194.6
3024.9391	3178.2
3027.35298	3168.3
3029.76539	3160.1
3032.17632	3160.9
3034.5858	3158.3
3036.9938	3142.4
3039.40034	3164
3041.80542	3145.9
3044.20903	3136.3
3046.61118	3133.9
3049.01187	3122.8
3051.4111	3116.3
3053.80888	3108.1
3056.20519	3110.5
3058.60005	3102
3060.99345	3093.7
3063.3854	3091.2
3065.7759	3081.4
3068.16494	3062.5
3070.55254	3059.6
3072.93868	3055.1
3075.32338	3044
3077.70662	3048
3080.08842	3019.4
3082.46878	3029.6
3084.84769	3016.1
3087.22515	3021.9
3089.60118	3016.1
3091.97576	3006.7
3094.3489	3011.1
3096.72061	3014.3
3099.09087	3022.4
3101.4597	3022.6
3103.82709	3011.8
3106.19305	3010.8
3108.55757	3015.3
3110.92066	3006
3113.28232	3005.4
3115.64255	2998.3
3118.00134	2994.5
3120.35871	2979.1
3122.71466	2983.1
3125.06917	2980.6
3127.42226	2975.8
3129.77393	2997.5
3132.12417	2989.5
3134.47299	2987.9
3136.82039	2984.7
3139.16636	2990.6
3141.51092	2988.9
3143.85406	2994.4
3146.19579	2992.7
3148.53609	2998.8
3150.87499	2993.5
3153.21246	2996.7
3155.54853	3024.7
3157.88318	3025.2
3160.21642	3014.9
3162.54826	3017.3
3164.87868	3027.9
3167.2077	3027.9
3169.5353	3033.8
3171.86151	3035.2
3174.18631	3036.4
3176.5097	3048
3178.83169	3023.5
3181.15228	3043.8
3183.47147	3018.4
3185.78926	3023.7
3188.10565	3018
3190.42065	3021.1
3192.73424	3028
3195.04645	3014.4
3197.35725	3015.4
3199.66667	3025.9
3201.97469	3028.5
3204.28132	3031.9
3206.58656	3040.6
3208.8904	3044.3
3211.19287	3048.5
3213.49394	3033.5
3215.79363	3055.8
3218.09193	3066.3
3220.38884	3063.8
3222.68438	3076.1
3224.97853	3062.7
3227.2713	3057.7
3229.56269	3049.4
3231.8527	3051.5
3234.14133	3042.6
3236.42858	3046.7
3238.71446	3041.3
3240.99896	3053.4
3243.28209	3047.4
3245.56384	3024.4
3247.84423	3034.6
3250.12324	3042.2
3252.40088	3036.8
3254.67715	3030.9
3256.95205	3025.5
3259.22558	3018.9
3261.49775	3010.9
3263.76855	3018.7
3266.03799	2998.1
3268.30606	3009.7
3270.57277	3001.7
3272.83812	3011.8
3275.10211	3000.6
3277.36474	2982.7
3279.62601	2994.6
3281.88593	3000.3
3284.14448	3010.2
3286.40168	3001.8
3288.65753	3007.3
3290.91202	3012
3293.16516	2993.4
3295.41695	3014.8
3297.66738	2972.8
3299.91647	2962.3
3302.16421	2950.2
3304.4106	2929.4
3306.65564	2928.7
3308.89933	2881.1
3311.14169	2858
3313.38269	2844
3315.62236	2845.7
3317.86068	2798.6
3320.09766	2774.4
3322.3333	2753.1
3324.5676	2741.1
3326.80056	2695.2
3329.03219	2669.3
3331.26248	1.7
3333.49143	-1.2
3335.71905	-1.1
