Data from AgNPs_FTO_APTES_UA_20uM_CRN_100uM_R6G_10uM_NaF_0.1M_Addition_RamanShift__5__17-24-24-868.txt Node

Date: Thu Feb 17 17:24:24 GMT 2022
User: TCL
Spectrometer: QEP01345
Trigger mode: 4
Integration Time (sec): 1.000000E1
Scans to average: 7
Electric dark correction enabled: true
Nonlinearity correction enabled: false
Boxcar width: 0
XAxis mode: Raman Shifts
Number of Pixels in Spectrum: 1044
>>>>>Begin Spectral Data<<<<<
46.04893	0.39286
50.45542	-1.46429
54.85868	0.67857
59.25871	-1.60714
63.6555	74.96429
68.04907	80.67857
72.43941	88.67857
76.82654	89.53571
81.21044	97.53571
85.59113	97.53571
89.96862	103.96429
94.34289	99.67857
98.71396	106.53571
103.08183	110.53571
107.4465	116.67857
111.80798	111.96429
116.16626	114.96429
120.52136	122.39286
124.87327	127.39286
129.222	131.67857
133.56755	132.10714
137.90993	142.96429
142.24913	158.96429
146.58517	172.96429
150.91804	204.53571
155.24774	237.39286
159.57429	290.10714
163.89768	367.96429
168.21792	485.96429
172.53501	662.96429
176.84895	930.53571
181.15975	1310.67857
185.46741	1844.53571
189.77193	2558.39286
194.07331	3451.67857
198.37157	4490.10714
202.6667	5535.10714
206.9587	6611.53571
211.24758	7666.10714
215.53334	8687.53571
219.81599	9772.53571
224.09553	10946.96429
228.37195	12226.96429
232.64527	13694.10714
236.91549	15248.10714
241.18261	16756.39286
245.44663	18269.10714
249.70755	19664.96429
253.96539	20867.25
258.22014	21805.25
262.4718	22682.39286
266.72039	23198.96429
270.96589	23497.53571
275.20832	23496.96429
279.44768	23326.10714
283.68397	23046.53571
287.91719	22744.82143
292.14735	22473.53571
296.37445	22432.53571
300.59849	22450.67857
304.81948	22567.53571
309.03742	22598.53571
313.25231	22573.53571
317.46415	22450.53571
321.67296	22114.25
325.87872	21823.82143
330.08145	21724.25
334.28114	21804.53571
338.47781	21967.67857
342.67145	22295.82143
346.86207	22711.25
351.04966	23066.25
355.23424	23527.96429
359.4158	23932.39286
363.59435	24212.39286
367.76989	24425.10714
371.94243	24609.96429
376.11196	24742.96429
380.27849	24843.67857
384.44203	24997.53571
388.60257	25167.53571
392.76012	25286.53571
396.91468	25537.25
401.06626	25833.67857
405.21485	26078.96429
409.36047	26051.53571
413.50311	25796.39286
417.64277	25522.25
421.77947	25434.82143
425.9132	25519.25
430.04396	25640.25
434.17176	25732.82143
438.2966	25923.25
442.41849	26195.67857
446.53742	26558.96429
450.6534	26970.82143
454.76644	27237.10714
458.87653	27363.67857
462.98368	27393.96429
467.08789	27311.25
471.18916	27164.82143
475.2875	26914.82143
479.38291	26688.82143
483.4754	26478.39286
487.56496	26331.39286
491.6516	26352.53571
495.73531	26350.53571
499.81612	26347.82143
503.89401	26477.67857
507.96899	26636.10714
512.04106	26711.67857
516.11023	26743.25
520.1765	26823.53571
524.23987	26841.67857
528.30034	26848.10714
532.35792	26772.39286
536.41261	26711.82143
540.46441	26497.53571
544.51333	26498.10714
548.55936	26554.82143
552.60252	26794.96429
556.64279	27046.96429
560.6802	27203.10714
564.71473	27205.82143
568.7464	27237.53571
572.7752	27418.96429
576.80114	27502.25
580.82422	27651.53571
584.84444	27969.82143
588.86181	28398.39286
592.87633	28869.39286
596.888	29117.53571
600.89682	29152.96429
604.9028	29674.10714
608.90594	31491.67857
612.90624	33950.39286
616.90371	33021.82143
620.89834	29463.10714
624.89015	27717.10714
628.87913	27426.10714
632.86528	27641.67857
636.84862	27826.10714
640.82913	27751.53571
644.80683	27437.96429
648.78172	27129.67857
652.75379	27169.10714
656.72306	27370.10714
660.68952	27723.39286
664.65319	27669.25
668.61405	27416.96429
672.57211	27453.96429
676.52738	27558.39286
680.47986	27574.25
684.42955	27515.96429
688.37646	27448.39286
692.32058	27508.25
696.26192	27665.82143
700.20048	27843.10714
704.13626	27976.53571
708.06928	27886.25
711.99952	27814.82143
715.927	27769.53571
719.85171	27861.10714
723.77365	27804.10714
727.69284	27758.39286
731.60928	27628.67857
735.52295	27580.82143
739.43388	27560.39286
743.34206	27659.53571
747.24749	27689.82143
751.15017	27777.10714
755.05012	27895.82143
758.94733	28203.10714
762.8418	28978.53571
766.73354	30307.39286
770.62254	31616.67857
774.50882	32247.82143
778.39237	31659.82143
782.27321	30401.10714
786.15132	29180.25
790.02671	28289.10714
793.89938	27897.25
797.76935	27714.25
801.6366	27622.39286
805.50115	27558.25
809.36299	27508.82143
813.22213	27477.25
817.07857	27442.53571
820.93231	27434.10714
824.78336	27492.10714
828.63172	27462.53571
832.47738	27490.67857
836.32036	27441.25
840.16066	27463.96429
843.99827	27485.82143
847.8332	27539.10714
851.66546	27538.39286
855.49504	27570.39286
859.32195	27593.10714
863.1462	27618.25
866.96777	27643.82143
870.78668	27709.10714
874.60293	27741.96429
878.41652	27809.96429
882.22745	27908.82143
886.03573	27896.82143
889.84136	27938.53571
893.64433	27846.25
897.44466	27778.39286
901.24235	27701.67857
905.0374	27692.10714
908.8298	27658.82143
912.61957	27519.25
916.40671	27562.53571
920.19121	27640.10714
923.97308	27793.39286
927.75233	27830.96429
931.52895	27872.67857
935.30295	27699.10714
939.07433	27501.25
942.84309	27367.10714
946.60924	27252.96429
950.37278	27226.25
954.13371	27138.82143
957.89203	27063.96429
961.64774	27050.96429
965.40086	27064.39286
969.15137	27028.82143
972.89929	27010.82143
976.64461	27009.39286
980.38733	27080.96429
984.12747	27092.10714
987.86502	27176.96429
991.59999	27264.82143
995.33237	27385.39286
999.06217	27573.39286
1002.78939	27832.25
1006.51404	28063.67857
1010.23611	28352.96429
1013.95561	28510.10714
1017.67255	28592.96429
1021.38692	28516.82143
1025.09872	28358.67857
1028.80796	28162.53571
1032.51465	28142.39286
1036.21877	28112.25
1039.92035	28214.25
1043.61937	28239.53571
1047.31584	28240.25
1051.00976	28273.67857
1054.70114	28283.39286
1058.38998	28321.53571
1062.07627	28417.96429
1065.76003	28588.39286
1069.44126	28725.39286
1073.11995	28937.53571
1076.79611	29209.96429
1080.46974	29437.82143
1084.14085	29555.10714
1087.80943	29646.39286
1091.47549	29729.39286
1095.13903	29671.10714
1098.80005	29457.53571
1102.45857	29233.82143
1106.11456	29015.10714
1109.76805	28980.39286
1113.41903	28993.96429
1117.06751	29072.25
1120.71348	29276.82143
1124.35696	29572.67857
1127.99793	29788.39286
1131.63641	29865.82143
1135.2724	29696.53571
1138.90589	29465.10714
1142.5369	29223.96429
1146.16542	29177.39286
1149.79145	29131.25
1153.415	29024.96429
1157.03607	28945.25
1160.65467	29170.39286
1164.27079	29583.53571
1167.88443	30191.53571
1171.49561	30991.96429
1175.10432	32119.67857
1178.71056	33530.82143
1182.31434	34894.82143
1185.91565	35717.96429
1189.51451	35847.96429
1193.11091	35435.53571
1196.70485	34732.10714
1200.29634	33987.10714
1203.88538	33228.39286
1207.47197	32435.25
1211.05612	31762.82143
1214.63782	31269.96429
1218.21708	30952.25
1221.79391	30740.53571
1225.36829	30623.96429
1228.94024	30683.96429
1232.50976	30636.10714
1236.07685	30544.67857
1239.6415	30485.96429
1243.20374	30545.82143
1246.76355	30583.25
1250.32093	30786.96429
1253.8759	30988.10714
1257.42845	31387.96429
1260.97859	31760.25
1264.52631	32277.67857
1268.07163	32630.39286
1271.61453	33024.10714
1275.15503	33290.82143
1278.69312	33509.67857
1282.22882	33724.82143
1285.76211	34075.82143
1289.29301	34452.96429
1292.82151	34927.25
1296.34761	35541.10714
1299.87133	36351.39286
1303.39266	37475.67857
1306.9116	38825.53571
1310.42815	40175.82143
1313.94233	40964.82143
1317.45412	40739.10714
1320.96354	39763.96429
1324.47058	38686.39286
1327.97525	37823.67857
1331.47754	37131.96429
1334.97747	36895.10714
1338.47502	36989.25
1341.97022	37346.82143
1345.46305	38010.10714
1348.95352	38824.39286
1352.44163	39917.53571
1355.92738	41074.67857
1359.41078	42586.25
1362.89183	43856.39286
1366.37053	43256.53571
1369.84688	40471.67857
1373.32088	37208.53571
1376.79254	34946.25
1380.26186	33774.67857
1383.72883	33257.96429
1387.19347	32701.10714
1390.65578	32214.53571
1394.11575	31809.39286
1397.57339	31572.25
1401.0287	31474.96429
1404.48168	31439.96429
1407.93234	31397.67857
1411.38068	31423.53571
1414.82669	31414.25
1418.27039	31220.39286
1421.71177	31076.67857
1425.15083	30814.39286
1428.58758	30591.25
1432.02203	30666.96429
1435.45416	30842.67857
1438.88399	31002.96429
1442.31151	31069.67857
1445.73673	31125.53571
1449.15965	31173.10714
1452.58027	31136.10714
1455.9986	31116.53571
1459.41463	31121.10714
1462.82837	31334.82143
1466.23982	31721.25
1469.64898	32179.53571
1473.05586	32544.82143
1476.46045	32777.39286
1479.86276	32988.25
1483.26279	33150.82143
1486.66054	33350.67857
1490.05602	33743.82143
1493.44922	34340.10714
1496.84016	35104.67857
1500.22882	36260.25
1503.61521	37828.96429
1506.99934	39334.96429
1510.38121	40395.25
1513.76081	40237.39286
1517.13816	38829.82143
1520.51324	37061.25
1523.88607	35382.39286
1527.25665	34400.96429
1530.62498	33898.25
1533.99105	33595.25
1537.35488	33417.10714
1540.71647	33225.25
1544.07581	32957.67857
1547.4329	32786.10714
1550.78776	32595.25
1554.14038	32318.82143
1557.49077	32305.67857
1560.83892	32324.96429
1564.18484	32553.53571
1567.52853	32767.39286
1570.86999	33060.67857
1574.20922	33279.39286
1577.54624	33256.82143
1580.88103	32875.67857
1584.2136	32303.67857
1587.54395	32050.10714
1590.87208	32312.10714
1594.19801	33093.39286
1597.52172	34102.10714
1600.84321	34691.25
1604.16251	34392.67857
1607.47959	33704.25
1610.79447	32644.67857
1614.10715	31515.10714
1617.41763	30482.82143
1620.7259	29646.53571
1624.03199	29194.96429
1627.33587	29029.53571
1630.63757	29202.82143
1633.93707	29745.96429
1637.23439	30762.82143
1640.52951	32250.82143
1643.82246	34289.10714
1647.11321	36252.53571
1650.40179	37061.96429
1653.68819	35944.39286
1656.97241	33553.67857
1660.25446	31044.67857
1663.53433	29300.53571
1666.81203	28197.96429
1670.08756	27459.10714
1673.36092	27037.82143
1676.63211	26771.10714
1679.90115	26551.39286
1683.16801	26338.67857
1686.43272	26201.10714
1689.69527	26062.10714
1692.95567	26002.25
1696.2139	25910.67857
1699.46999	25942.67857
1702.72392	25851.53571
1705.97571	25803.82143
1709.22535	25796.53571
1712.47284	25801.82143
1715.71819	25808.25
1718.96139	25706.96429
1722.20246	25666.67857
1725.44139	25616.82143
1728.67818	25595.25
1731.91284	25525.67857
1735.14537	25428.67857
1738.37576	25355.39286
1741.60403	25311.67857
1744.83017	25250.96429
1748.05418	25229.67857
1751.27607	25201.10714
1754.49584	25185.53571
1757.71349	25162.82143
1760.92903	25200.53571
1764.14244	25157.82143
1767.35375	25128.67857
1770.56294	25088.82143
1773.77002	25056.25
1776.97499	25025.82143
1780.17785	25021.39286
1783.37861	25007.82143
1786.57727	24928.82143
1789.77382	24866.82143
1792.96828	24839.53571
1796.16064	24820.96429
1799.3509	24767.39286
1802.53907	24709.53571
1805.72514	24675.53571
1808.90913	24666.39286
1812.09102	24585.67857
1815.27083	24594.96429
1818.44856	24566.67857
1821.6242	24522.39286
1824.79776	24476.53571
1827.96924	24461.67857
1831.13864	24442.67857
1834.30597	24394.10714
1837.47122	24458.39286
1840.6344	24413.82143
1843.7955	24439.53571
1846.95454	24421.39286
1850.11151	24397.53571
1853.26642	24352.53571
1856.41926	24296.96429
1859.57004	24277.10714
1862.71876	24276.82143
1865.86542	24301.10714
1869.01003	24297.96429
1872.15258	24239.53571
1875.29308	24191.39286
1878.43152	24190.82143
1881.56792	24161.96429
1884.70227	24177.10714
1887.83457	24080.67857
1890.96482	24094.82143
1894.09304	24058.39286
1897.21921	24073.10714
1900.34335	24022.10714
1903.46544	23991.10714
1906.58551	23959.10714
1909.70353	23924.96429
1912.81953	23901.67857
1915.93349	23854.39286
1919.04543	23835.96429
1922.15534	23808.10714
1925.26322	23706.10714
1928.36908	23719.96429
1931.47292	23717.96429
1934.57473	23620.82143
1937.67453	23588.39286
1940.77232	23537.96429
1943.86808	23482.82143
1946.96184	23430.67857
1950.05358	23360.67857
1953.14331	23366.25
1956.23103	23302.53571
1959.31675	23226.82143
1962.40046	23163.53571
1965.48217	23066.53571
1968.56188	23053.67857
1971.63959	23004.25
1974.7153	22876.82143
1977.78901	22840.96429
1980.86073	22785.10714
1983.93046	22777.67857
1986.99819	22634.53571
1990.06394	22575.25
1993.1277	22542.82143
1996.18947	22478.67857
1999.24925	22419.96429
2002.30706	22371.67857
2005.36288	22252.25
2008.41672	22239.10714
2011.46859	22176.25
2014.51848	22124.53571
2017.56639	22061.10714
2020.61233	22013.96429
2023.6563	21956.67857
2026.6983	21884.67857
2029.73833	21841.53571
2032.7764	21796.53571
2035.8125	21778.25
2038.84664	21695.39286
2041.87881	21668.10714
2044.90903	21618.10714
2047.93729	21606.10714
2050.96359	21537.82143
2053.98794	21558.39286
2057.01034	21538.96429
2060.03078	21511.10714
2063.04927	21479.82143
2066.06582	21544.82143
2069.08042	21456.67857
2072.09307	21469.25
2075.10378	21491.53571
2078.11255	21423.25
2081.11938	21486.53571
2084.12426	21448.39286
2087.12722	21462.39286
2090.12824	21451.82143
2093.12732	21436.25
2096.12447	21427.53571
2099.11969	21447.25
2102.11299	21462.39286
2105.10435	21447.82143
2108.09379	21497.96429
2111.08131	21513.39286
2114.0669	21528.10714
2117.05057	21548.96429
2120.03233	21518.67857
2123.01216	21559.82143
2125.99008	21589.82143
2128.96609	21642.82143
2131.94018	21640.96429
2134.91236	21671.67857
2137.88263	21672.39286
2140.851	21683.67857
2143.81746	21711.39286
2146.78201	21751.67857
2149.74466	21748.53571
2152.7054	21775.67857
2155.66425	21748.25
2158.6212	21721.10714
2161.57625	21714.82143
2164.52941	21684.67857
2167.48067	21677.10714
2170.43004	21684.67857
2173.37752	21691.96429
2176.32311	21686.82143
2179.26681	21657.96429
2182.20863	21664.10714
2185.14856	21683.82143
2188.08661	21728.96429
2191.02278	21702.39286
2193.95707	21671.10714
2196.88948	21681.67857
2199.82001	21673.25
2202.74867	21621.10714
2205.67545	21611.53571
2208.60037	21556.67857
2211.52341	21516.53571
2214.44458	21485.10714
2217.36388	21479.82143
2220.28132	21451.53571
2223.1969	21379.67857
2226.11061	21300.96429
2229.02246	21279.10714
2231.93245	21278.53571
2234.84058	21270.10714
2237.74686	21190.82143
2240.65128	21214.25
2243.55385	21193.10714
2246.45456	21219.67857
2249.35343	21198.67857
2252.25044	21132.10714
2255.14561	21089.10714
2258.03893	21068.53571
2260.93041	21031.10714
2263.82004	20989.10714
2266.70783	20953.39286
2269.59378	20930.96429
2272.4779	20878.25
2275.36017	20834.82143
2278.24061	20785.82143
2281.11922	20737.39286
2283.996	20773.67857
2286.87094	20706.25
2289.74405	20670.67857
2292.61534	20679.53571
2295.4848	20651.53571
2298.35243	20666.67857
2301.21824	20605.67857
2304.08223	20636.53571
2306.94439	20553.25
2309.80474	20577.39286
2312.66327	20553.67857
2315.51999	20565.25
2318.37489	20521.53571
2321.22797	20458.10714
2324.07925	20444.82143
2326.92871	20399.82143
2329.77637	20393.10714
2332.62222	20356.39286
2335.46626	20356.39286
2338.3085	20314.39286
2341.14893	20311.10714
2343.98756	20272.39286
2346.8244	20259.67857
2349.65943	20202.82143
2352.49267	20228.25
2355.32411	20233.96429
2358.15376	20212.96429
2360.98161	20180.82143
2363.80768	20187.10714
2366.63195	20145.25
2369.45444	20127.39286
2372.27514	20113.67857
2375.09405	20091.96429
2377.91118	20090.53571
2380.72652	20044.82143
2383.54009	19992.10714
2386.35187	19974.53571
2389.16188	19921.67857
2391.97011	19866.67857
2394.77657	19859.10714
2397.58125	19850.53571
2400.38416	19829.53571
2403.18529	19818.96429
2405.98466	19799.67857
2408.78226	19728.39286
2411.57809	19682.82143
2414.37216	19647.67857
2417.16446	19623.53571
2419.955	19615.82143
2422.74378	19636.53571
2425.5308	19593.10714
2428.31606	19574.53571
2431.09956	19568.67857
2433.88131	19521.67857
2436.6613	19551.10714
2439.43954	19532.96429
2442.21603	19521.53571
2444.99077	19498.39286
2447.76377	19519.67857
2450.53501	19490.53571
2453.30451	19459.67857
2456.07226	19441.39286
2458.83827	19455.10714
2461.60254	19373.96429
2464.36507	19422.82143
2467.12586	19340.39286
2469.88492	19328.25
2472.64224	19320.10714
2475.39782	19288.67857
2478.15167	19329.10714
2480.90379	19355.82143
2483.65417	19318.39286
2486.40283	19346.10714
2489.14976	19357.39286
2491.89497	19287.96429
2494.63845	19302.10714
2497.3802	19294.25
2500.12024	19291.25
2502.85855	19218.53571
2505.59514	19225.10714
2508.33002	19200.53571
2511.06318	19155.53571
2513.79462	19149.53571
2516.52435	19169.67857
2519.25237	19108.82143
2521.97867	19085.67857
2524.70327	19123.67857
2527.42616	19053.96429
2530.14734	19005.10714
2532.86681	18990.10714
2535.58458	18999.10714
2538.30065	18926.39286
2541.01501	18947.25
2543.72768	18876.67857
2546.43864	18883.10714
2549.14791	18824.39286
2551.85548	18823.67857
2554.56136	18789.53571
2557.26554	18736.25
2559.96803	18742.67857
2562.66883	18718.10714
2565.36794	18703.10714
2568.06536	18626.39286
2570.7611	18612.25
2573.45514	18582.39286
2576.14751	18512.10714
2578.83819	18503.82143
2581.52719	18516.53571
2584.21451	18470.53571
2586.90015	18432.82143
2589.58411	18383.53571
2592.2664	18413.96429
2594.94701	18373.39286
2597.62594	18297.67857
2600.30321	18229.39286
2602.9788	18226.82143
2605.65273	18205.53571
2608.32498	18261.67857
2610.99557	18211.67857
2613.66449	18173.39286
2616.33175	18173.53571
2618.99734	18170.39286
2621.66128	18134.96429
2624.32355	18139.96429
2626.98416	18084.39286
2629.64311	18008.25
2632.30041	18061.39286
2634.95605	17970.67857
2637.61004	17943.39286
2640.26238	17905.53571
2642.91306	17952.96429
2645.56209	17964.82143
2648.20948	17927.53571
2650.85521	17889.25
2653.4993	17908.10714
2656.14175	17910.53571
2658.78255	17889.25
2661.42171	17864.53571
2664.05923	17931.96429
2666.6951	17866.82143
2669.32934	17908.67857
2671.96194	17899.25
2674.59291	17893.67857
2677.22224	17890.82143
2679.84993	17901.25
2682.476	17874.25
2685.10043	17898.39286
2687.72324	17844.39286
2690.34441	17856.82143
2692.96396	17867.82143
2695.58188	17871.25
2698.19818	17826.82143
2700.81285	17869.82143
2703.4259	17829.82143
2706.03733	17859.67857
2708.64714	17851.67857
2711.25533	17880.96429
2713.86191	17906.67857
2716.46687	17936.96429
2719.07021	17879.82143
2721.67194	17870.10714
2724.27206	17890.10714
2726.87057	17925.39286
2729.46747	17894.39286
2732.06276	17877.39286
2734.65644	17853.67857
2737.24852	17861.96429
2739.83899	17820.53571
2742.42786	17821.67857
2745.01513	17819.39286
2747.60079	17767.39286
2750.18486	17733.82143
2752.76733	17737.67857
2755.3482	17740.10714
2757.92747	17731.96429
2760.50515	17708.39286
2763.08123	17689.39286
2765.65573	17656.82143
2768.22863	17646.96429
2770.79994	17599.82143
2773.36967	17575.39286
2775.9378	17561.39286
2778.50435	17548.53571
2781.06932	17518.53571
2783.6327	17494.39286
2786.1945	17467.96429
2788.75471	17436.82143
2791.31335	17400.39286
2793.87041	17390.10714
2796.42589	17364.10714
2798.97979	17331.82143
2801.53212	17276.67857
2804.08288	17239.67857
2806.63206	17243.53571
2809.17967	17189.67857
2811.72571	17177.96429
2814.27018	17130.39286
2816.81308	17106.53571
2819.35442	17036.39286
2821.89419	16989.67857
2824.43239	16972.39286
2826.96904	16966.96429
2829.50412	16992.82143
2832.03763	16943.10714
2834.56959	16977.39286
2837.1	16934.82143
2839.62884	16897.10714
2842.15613	16840.53571
2844.68186	16902.25
2847.20604	16848.82143
2849.72867	16840.82143
2852.24974	16836.39286
2854.76927	16806.39286
2857.28724	16800.39286
2859.80367	16793.53571
2862.31855	16769.96429
2864.83189	16729.25
2867.34368	16742.39286
2869.85393	16719.25
2872.36264	16667.53571
2874.8698	16674.82143
2877.37543	16675.53571
2879.87952	16656.67857
2882.38207	16639.82143
2884.88308	16605.53571
2887.38256	16647.25
2889.88051	16676.96429
2892.37692	16667.39286
2894.8718	16615.10714
2897.36515	16661.25
2899.85698	16655.10714
2902.34727	16690.96429
2904.83604	16675.39286
2907.32328	16677.96429
2909.809	16687.53571
2912.29319	16685.25
2914.77587	16659.82143
2917.25702	16694.96429
2919.73665	16676.67857
2922.21476	16675.10714
2924.69136	16666.53571
2927.16644	16659.25
2929.64	16614.53571
2932.11205	16622.82143
2934.58258	16536.53571
2937.05161	16584.53571
2939.51912	16609.25
2941.98513	16580.53571
2944.44962	16588.96429
2946.91261	16518.67857
2949.37409	16554.39286
2951.83407	16582.25
2954.29254	16568.96429
2956.74951	16575.53571
2959.20498	16552.53571
2961.65895	16460.10714
2964.11142	16503.96429
2966.56239	16436.10714
2969.01186	16498.25
2971.45984	16447.25
2973.90632	16442.53571
2976.35131	16397.39286
2978.7948	16355.25
2981.23681	16340.96429
2983.67732	16372.10714
2986.11635	16321.39286
2988.55388	16258.10714
2990.98993	16240.39286
2993.4245	16244.67857
2995.85758	16206.25
2998.28917	16183.39286
3000.71928	16147.39286
3003.14791	16138.96429
3005.57506	16127.67857
3008.00073	16041.82143
3010.42493	16035.10714
3012.84764	16023.39286
3015.26888	16038.67857
3017.68865	15994.82143
3020.10694	16011.39286
3022.52376	15971.39286
3024.9391	15954.82143
3027.35298	15901.96429
3029.76539	15902.10714
3032.17632	15882.96429
3034.5858	15858.96429
3036.9938	15885.53571
3039.40034	15888.25
3041.80542	15839.82143
3044.20903	15784.67857
3046.61118	15757.53571
3049.01187	15739.25
3051.4111	15747.82143
3053.80888	15698.39286
3056.20519	15656.82143
3058.60005	15635.96429
3060.99345	15641.39286
3063.3854	15579.25
3065.7759	15551.10714
3068.16494	15546.25
3070.55254	15494.10714
3072.93868	15452.82143
3075.32338	15450.53571
3077.70662	15445.67857
3080.08842	15419.67857
3082.46878	15365.96429
3084.84769	15341.67857
3087.22515	15338.96429
3089.60118	15344.53571
3091.97576	15365.39286
3094.3489	15359.67857
3096.72061	15366.10714
3099.09087	15365.67857
3101.4597	15345.25
3103.82709	15331.25
3106.19305	15328.39286
3108.55757	15356.53571
3110.92066	15334.96429
3113.28232	15270.67857
3115.64255	15242.53571
3118.00134	15225.82143
3120.35871	15228.82143
3122.71466	15148.67857
3125.06917	15150.39286
3127.42226	15085.67857
3129.77393	15106.82143
3132.12417	15079.67857
3134.47299	15082.82143
3136.82039	15097.10714
3139.16636	15080.25
3141.51092	15080.53571
3143.85406	15085.96429
3146.19579	15085.82143
3148.53609	15090.39286
3150.87499	15072.39286
3153.21246	15111.96429
3155.54853	15116.10714
3157.88318	15119.39286
3160.21642	15145.96429
3162.54826	15171.39286
3164.87868	15164.82143
3167.2077	15165.25
3169.5353	15120.67857
3171.86151	15166.67857
3174.18631	15149.82143
3176.5097	15138.53571
3178.83169	15106.25
3181.15228	15150.67857
3183.47147	15069.96429
3185.78926	15067.53571
3188.10565	15043.53571
3190.42065	15021.10714
3192.73424	15050.96429
3195.04645	14988.53571
3197.35725	14997.39286
3199.66667	14986.39286
3201.97469	14988.25
3204.28132	14975.10714
3206.58656	15021.25
3208.8904	15024.67857
3211.19287	15056.10714
3213.49394	14997.67857
3215.79363	14975.82143
3218.09193	15015.39286
3220.38884	15005.82143
3222.68438	15070.82143
3224.97853	15038.96429
3227.2713	15028.10714
3229.56269	14998.39286
3231.8527	15011.25
3234.14133	14957.39286
3236.42858	14915.67857
3238.71446	14915.53571
3240.99896	14868.96429
3243.28209	14846.67857
3245.56384	14836.96429
3247.84423	14851.10714
3250.12324	14814.39286
3252.40088	14812.39286
3254.67715	14828.39286
3256.95205	14789.82143
3259.22558	14780.67857
3261.49775	14794.10714
3263.76855	14781.10714
3266.03799	14781.39286
3268.30606	14742.96429
3270.57277	14722.25
3272.83812	14652.82143
3275.10211	14652.39286
3277.36474	14609.82143
3279.62601	14616.96429
3281.88593	14614.39286
3284.14448	14593.67857
3286.40168	14571.10714
3288.65753	14539.39286
3290.91202	14549.53571
3293.16516	14530.53571
3295.41695	14496.53571
3297.66738	14403.53571
3299.91647	14375.67857
3302.16421	14265.39286
3304.4106	14196.10714
3306.65564	14094.82143
3308.89933	14006.39286
3311.14169	13908.82143
3313.38269	13819.96429
3315.62236	13775.96429
3317.86068	13637.67857
3320.09766	13546.53571
3322.3333	13470.96429
3324.5676	13415.67857
3326.80056	13228.67857
3329.03219	13128.10714
3331.26248	3.10714
3333.49143	-1.17857
3335.71905	-0.17857
