Data from AgNPs_FTO_APTES_UA_20uM_CRN_1uM_R6G_10uM_NaF_0.1M_Addition_RamanShift__9__12-12-32-025.txt Node

Date: Thu Feb 17 12:12:32 GMT 2022
User: TCL
Spectrometer: QEP01345
Trigger mode: 4
Integration Time (sec): 7.000000E0
Scans to average: 10
Electric dark correction enabled: true
Nonlinearity correction enabled: false
Boxcar width: 0
XAxis mode: Raman Shifts
Number of Pixels in Spectrum: 1044
>>>>>Begin Spectral Data<<<<<
46.04893	0.2625
50.45542	-2.5375
54.85868	-3.2375
59.25871	-1.5375
63.6555	111.0625
68.04907	115.8625
72.43941	117.3625
76.82654	120.4625
81.21044	129.6625
85.59113	128.9625
89.96862	131.1625
94.34289	135.1625
98.71396	138.8625
103.08183	140.4625
107.4465	147.2625
111.80798	149.8625
116.16626	157.0625
120.52136	160.3625
124.87327	171.2625
129.222	182.1625
133.56755	192.7625
137.90993	207.5625
142.24913	227.9625
146.58517	264.9625
150.91804	310.6625
155.24774	370.7625
159.57429	466.0625
163.89768	600.4625
168.21792	801.9625
172.53501	1110.8625
176.84895	1553.7625
181.15975	2201.3625
185.46741	3101.3625
189.77193	4300.1625
194.07331	5745.8625
198.37157	7424.5625
202.6667	9194.3625
206.9587	10957.0625
211.24758	12653.4625
215.53334	14351.8625
219.81599	16150.4625
224.09553	18124.1625
228.37195	20305.1625
232.64527	22749.3625
236.91549	25328.2625
241.18261	27971.4625
245.44663	30383.4625
249.70755	32568.8625
253.96539	34495.0625
258.22014	36049.5625
262.4718	37313.3625
266.72039	38273.9625
270.96589	38772.8625
275.20832	38787.8625
279.44768	38556.0625
283.68397	38154.8625
287.91719	37871.6625
292.14735	37664.7625
296.37445	37579.6625
300.59849	37653.3625
304.81948	37832.6625
309.03742	37983.7625
313.25231	37956.3625
317.46415	37590.3625
321.67296	37071.5625
325.87872	36602.1625
330.08145	36369.3625
334.28114	36360.0625
338.47781	36628.5625
342.67145	37103.8625
346.86207	37662.2625
351.04966	38303.8625
355.23424	38883.7625
359.4158	39418.6625
363.59435	39850.2625
367.76989	40127.6625
371.94243	40352.4625
376.11196	40532.0625
380.27849	40685.2625
384.44203	40926.1625
388.60257	41244.8625
392.76012	41735.0625
396.91468	42306.8625
401.06626	42909.3625
405.21485	43261.2625
409.36047	43202.6625
413.50311	42851.3625
417.64277	42708.7625
421.77947	42890.7625
425.9132	43203.2625
430.04396	43479.1625
434.17176	43629.2625
438.2966	43874.4625
442.41849	44423.8625
446.53742	45357.4625
450.6534	46423.2625
454.76644	47251.2625
458.87653	47499.1625
462.98368	47374.0625
467.08789	46951.4625
471.18916	46420.5625
475.2875	45739.5625
479.38291	45306.7625
483.4754	45064.8625
487.56496	44753.0625
491.6516	44397.4625
495.73531	44038.7625
499.81612	43860.6625
503.89401	44088.0625
507.96899	44261.8625
512.04106	44315.0625
516.11023	44140.2625
520.1765	43910.2625
524.23987	43704.0625
528.30034	43542.5625
532.35792	43339.8625
536.41261	42964.8625
540.46441	42667.6625
544.51333	42612.7625
548.55936	42996.0625
552.60252	43600.6625
556.64279	44499.7625
560.6802	45173.3625
564.71473	45559.5625
568.7464	46262.7625
572.7752	47546.9625
576.80114	49136.6625
580.82422	50690.6625
584.84444	52411.0625
588.86181	54561.1625
592.87633	56550.9625
596.888	56238.5625
600.89682	53798.0625
604.9028	52648.7625
608.90594	54492.8625
612.90624	56659.0625
616.90371	53793.6625
620.89834	47702.6625
624.89015	45059.6625
628.87913	44922.6625
632.86528	45357.0625
636.84862	45377.2625
640.82913	44703.2625
644.80683	43817.3625
648.78172	43303.1625
652.75379	43281.8625
656.72306	43753.7625
660.68952	44320.8625
664.65319	44137.7625
668.61405	43674.1625
672.57211	43702.6625
676.52738	43914.8625
680.47986	43883.7625
684.42955	43662.8625
688.37646	43557.5625
692.32058	43815.8625
696.26192	44333.8625
700.20048	44943.2625
704.13626	45346.2625
708.06928	45409.7625
711.99952	45356.4625
715.927	45228.3625
719.85171	45322.3625
723.77365	45210.3625
727.69284	44669.9625
731.60928	44125.9625
735.52295	43936.9625
739.43388	43927.6625
743.34206	44089.0625
747.24749	44397.8625
751.15017	44823.8625
755.05012	45422.3625
758.94733	46394.8625
762.8418	48104.8625
766.73354	50672.3625
770.62254	52934.7625
774.50882	53056.1625
778.39237	51209.8625
782.27321	48764.5625
786.15132	46747.6625
790.02671	45482.0625
793.89938	44778.4625
797.76935	44453.2625
801.6366	44312.8625
805.50115	44243.6625
809.36299	44130.2625
813.22213	43894.1625
817.07857	43788.5625
820.93231	43661.4625
824.78336	43556.7625
828.63172	43412.0625
832.47738	43285.6625
836.32036	43383.6625
840.16066	43424.2625
843.99827	43507.9625
847.8332	43636.1625
851.66546	43715.7625
855.49504	43775.5625
859.32195	43857.1625
863.1462	43767.4625
866.96777	43794.5625
870.78668	43801.8625
874.60293	43814.5625
878.41652	43899.1625
882.22745	43989.5625
886.03573	44075.6625
889.84136	44126.8625
893.64433	43966.5625
897.44466	43866.0625
901.24235	43799.0625
905.0374	43635.1625
908.8298	43606.5625
912.61957	43676.1625
916.40671	43997.1625
920.19121	44500.4625
923.97308	44965.4625
927.75233	44996.2625
931.52895	44585.9625
935.30295	44018.4625
939.07433	43479.4625
942.84309	43129.8625
946.60924	42983.5625
950.37278	42982.7625
954.13371	43004.3625
957.89203	42986.2625
961.64774	43015.5625
965.40086	42958.0625
969.15137	42979.1625
972.89929	42867.8625
976.64461	42807.7625
980.38733	42785.0625
984.12747	42915.0625
987.86502	43055.8625
991.59999	43369.0625
995.33237	43739.5625
999.06217	44349.2625
1002.78939	45182.4625
1006.51404	46034.1625
1010.23611	46889.4625
1013.95561	47364.9625
1017.67255	47538.8625
1021.38692	47085.0625
1025.09872	46355.3625
1028.80796	45826.9625
1032.51465	45721.5625
1036.21877	45863.5625
1039.92035	45974.1625
1043.61937	46034.0625
1047.31584	45962.9625
1051.00976	45878.9625
1054.70114	45977.6625
1058.38998	46152.4625
1062.07627	46559.2625
1065.76003	47093.5625
1069.44126	47696.4625
1073.11995	48472.5625
1076.79611	49112.7625
1080.46974	49512.5625
1084.14085	49774.4625
1087.80943	50241.6625
1091.47549	50575.3625
1095.13903	50657.8625
1098.80005	50095.0625
1102.45857	49181.9625
1106.11456	48473.3625
1109.76805	48061.0625
1113.41903	47983.1625
1117.06751	48139.5625
1120.71348	48481.2625
1124.35696	48747.9625
1127.99793	49103.0625
1131.63641	49286.4625
1135.2724	49186.8625
1138.90589	49223.5625
1142.5369	49338.8625
1146.16542	49606.4625
1149.79145	49957.7625
1153.415	50268.1625
1157.03607	50750.2625
1160.65467	51715.4625
1164.27079	53339.5625
1167.88443	55464.5625
1171.49561	57779.3625
1175.10432	60608.8625
1178.71056	64065.9625
1182.31434	67357.0625
1185.91565	69061.2625
1189.51451	69101.3625
1193.11091	68041.3625
1196.70485	66320.2625
1200.29634	64469.2625
1203.88538	63164.4625
1207.47197	62491.3625
1211.05612	62062.8625
1214.63782	61143.6625
1218.21708	59900.6625
1221.79391	58593.2625
1225.36829	57637.1625
1228.94024	57218.2625
1232.50976	56636.1625
1236.07685	55932.3625
1239.6415	55411.0625
1243.20374	55348.6625
1246.76355	55726.7625
1250.32093	56386.3625
1253.8759	57336.0625
1257.42845	58666.8625
1260.97859	60209.9625
1264.52631	61684.3625
1268.07163	63240.2625
1271.61453	64663.9625
1275.15503	65996.8625
1278.69312	67333.6625
1282.22882	68893.5625
1285.76211	70793.2625
1289.29301	73021.5625
1292.82151	75618.8625
1296.34761	78735.8625
1299.87133	82443.7625
1303.39266	86304.1625
1306.9116	89955.4625
1310.42815	92702.3625
1313.94233	93847.1625
1317.45412	93160.2625
1320.96354	91449.9625
1324.47058	90018.0625
1327.97525	89263.2625
1331.47754	88685.2625
1334.97747	88152.6625
1338.47502	87726.9625
1341.97022	87356.3625
1345.46305	87026.3625
1348.95352	86699.8625
1352.44163	86524.6625
1355.92738	87507.6625
1359.41078	89698.9625
1362.89183	91619.9625
1366.37053	90391.4625
1369.84688	84893.1625
1373.32088	77509.5625
1376.79254	72266.4625
1380.26186	70085.4625
1383.72883	69970.9625
1387.19347	69994.9625
1390.65578	69404.3625
1394.11575	69051.1625
1397.57339	69334.1625
1401.0287	70013.3625
1404.48168	70700.6625
1407.93234	70664.1625
1411.38068	69575.9625
1414.82669	67921.4625
1418.27039	66013.2625
1421.71177	64123.5625
1425.15083	62609.7625
1428.58758	62103.0625
1432.02203	62698.5625
1435.45416	64201.8625
1438.88399	65727.5625
1442.31151	66865.3625
1445.73673	67391.3625
1449.15965	67537.1625
1452.58027	67533.3625
1455.9986	67330.6625
1459.41463	67822.2625
1462.82837	68716.3625
1466.23982	69788.1625
1469.64898	70868.6625
1473.05586	71548.7625
1476.46045	71699.1625
1479.86276	71581.4625
1483.26279	71107.4625
1486.66054	70933.1625
1490.05602	71289.3625
1493.44922	72000.0625
1496.84016	72821.9625
1500.22882	74072.9625
1503.61521	75820.9625
1506.99934	77488.1625
1510.38121	78527.3625
1513.76081	78227.6625
1517.13816	76691.1625
1520.51324	74932.5625
1523.88607	73995.0625
1527.25665	74123.5625
1530.62498	74438.5625
1533.99105	74313.4625
1537.35488	73462.8625
1540.71647	72124.4625
1544.07581	70379.2625
1547.4329	68811.4625
1550.78776	67313.1625
1554.14038	66282.1625
1557.49077	65642.4625
1560.83892	65309.1625
1564.18484	65107.4625
1567.52853	65182.2625
1570.86999	65486.0625
1574.20922	66407.5625
1577.54624	67066.7625
1580.88103	67211.4625
1584.2136	67530.6625
1587.54395	69236.9625
1590.87208	72305.3625
1594.19801	76224.0625
1597.52172	79765.0625
1600.84321	80722.8625
1604.16251	77695.7625
1607.47959	72759.1625
1610.79447	67604.8625
1614.10715	62886.4625
1617.41763	58916.8625
1620.7259	56233.7625
1624.03199	54906.1625
1627.33587	54889.8625
1630.63757	56148.3625
1633.93707	59082.8625
1637.23439	64172.5625
1640.52951	71605.4625
1643.82246	80482.7625
1647.11321	87193.0625
1650.40179	87794.0625
1653.68819	81503.6625
1656.97241	71680.0625
1660.25446	62582.4625
1663.53433	56108.3625
1666.81203	51958.4625
1670.08756	49409.6625
1673.36092	47903.0625
1676.63211	46825.4625
1679.90115	46052.9625
1683.16801	45439.0625
1686.43272	45072.0625
1689.69527	44717.2625
1692.95567	44417.7625
1696.2139	44314.7625
1699.46999	44232.1625
1702.72392	44127.4625
1705.97571	44009.0625
1709.22535	43900.3625
1712.47284	43916.2625
1715.71819	43957.1625
1718.96139	43891.4625
1722.20246	43715.2625
1725.44139	43557.9625
1728.67818	43450.8625
1731.91284	43228.8625
1735.14537	42960.7625
1738.37576	42818.9625
1741.60403	42739.8625
1744.83017	42529.2625
1748.05418	42449.3625
1751.27607	42421.0625
1754.49584	42349.6625
1757.71349	42371.7625
1760.92903	42356.2625
1764.14244	42298.6625
1767.35375	42272.9625
1770.56294	42218.2625
1773.77002	42201.7625
1776.97499	42203.1625
1780.17785	42101.2625
1783.37861	42096.8625
1786.57727	41993.8625
1789.77382	41922.1625
1792.96828	41866.5625
1796.16064	41817.0625
1799.3509	41793.2625
1802.53907	41715.8625
1805.72514	41663.1625
1808.90913	41574.2625
1812.09102	41495.5625
1815.27083	41440.1625
1818.44856	41410.2625
1821.6242	41294.6625
1824.79776	41285.7625
1827.96924	41311.5625
1831.13864	41322.5625
1834.30597	41340.9625
1837.47122	41310.0625
1840.6344	41137.4625
1843.7955	41250.6625
1846.95454	41249.4625
1850.11151	41261.6625
1853.26642	41204.1625
1856.41926	41221.7625
1859.57004	41261.6625
1862.71876	41098.0625
1865.86542	41067.2625
1869.01003	41040.4625
1872.15258	40968.2625
1875.29308	40933.5625
1878.43152	40920.6625
1881.56792	40890.0625
1884.70227	40896.0625
1887.83457	40844.3625
1890.96482	40845.5625
1894.09304	40791.8625
1897.21921	40721.5625
1900.34335	40640.2625
1903.46544	40599.7625
1906.58551	40642.7625
1909.70353	40647.2625
1912.81953	40548.4625
1915.93349	40522.9625
1919.04543	40384.9625
1922.15534	40348.6625
1925.26322	40345.1625
1928.36908	40264.3625
1931.47292	40188.7625
1934.57473	40126.6625
1937.67453	40032.2625
1940.77232	39955.0625
1943.86808	39832.9625
1946.96184	39744.5625
1950.05358	39633.5625
1953.14331	39541.0625
1956.23103	39488.1625
1959.31675	39330.6625
1962.40046	39215.5625
1965.48217	39044.5625
1968.56188	39021.4625
1971.63959	38905.5625
1974.7153	38809.4625
1977.78901	38686.2625
1980.86073	38595.8625
1983.93046	38546.0625
1986.99819	38416.8625
1990.06394	38346.9625
1993.1277	38316.4625
1996.18947	38135.5625
1999.24925	38084.4625
2002.30706	37960.7625
2005.36288	37847.4625
2008.41672	37712.4625
2011.46859	37686.4625
2014.51848	37544.4625
2017.56639	37478.5625
2020.61233	37355.6625
2023.6563	37280.3625
2026.6983	37222.7625
2029.73833	37123.2625
2032.7764	37034.5625
2035.8125	36951.6625
2038.84664	36932.8625
2041.87881	36878.3625
2044.90903	36806.9625
2047.93729	36712.0625
2050.96359	36711.3625
2053.98794	36685.2625
2057.01034	36700.7625
2060.03078	36743.1625
2063.04927	36695.1625
2066.06582	36729.8625
2069.08042	36704.0625
2072.09307	36635.5625
2075.10378	36582.7625
2078.11255	36518.6625
2081.11938	36576.2625
2084.12426	36547.1625
2087.12722	36537.8625
2090.12824	36538.6625
2093.12732	36552.0625
2096.12447	36520.5625
2099.11969	36544.2625
2102.11299	36563.5625
2105.10435	36580.7625
2108.09379	36661.7625
2111.08131	36651.6625
2114.0669	36637.0625
2117.05057	36656.2625
2120.03233	36682.1625
2123.01216	36710.5625
2125.99008	36762.6625
2128.96609	36806.9625
2131.94018	36914.8625
2134.91236	36883.8625
2137.88263	36965.1625
2140.851	36979.3625
2143.81746	37009.6625
2146.78201	36978.2625
2149.74466	37011.3625
2152.7054	37125.1625
2155.66425	37049.9625
2158.6212	37043.1625
2161.57625	37053.8625
2164.52941	37063.2625
2167.48067	37000.2625
2170.43004	36973.7625
2173.37752	36988.2625
2176.32311	37082.3625
2179.26681	37073.3625
2182.20863	37029.6625
2185.14856	37068.5625
2188.08661	37085.2625
2191.02278	37088.0625
2193.95707	36977.9625
2196.88948	36992.5625
2199.82001	36977.7625
2202.74867	36916.0625
2205.67545	36938.3625
2208.60037	36839.4625
2211.52341	36807.9625
2214.44458	36762.5625
2217.36388	36743.1625
2220.28132	36750.1625
2223.1969	36664.9625
2226.11061	36532.4625
2229.02246	36410.4625
2231.93245	36423.1625
2234.84058	36363.2625
2237.74686	36367.5625
2240.65128	36385.0625
2243.55385	36292.8625
2246.45456	36302.3625
2249.35343	36184.0625
2252.25044	36171.1625
2255.14561	36050.0625
2258.03893	36058.6625
2260.93041	36020.0625
2263.82004	35855.0625
2266.70783	35775.4625
2269.59378	35758.4625
2272.4779	35659.3625
2275.36017	35627.2625
2278.24061	35634.1625
2281.11922	35491.4625
2283.996	35482.4625
2286.87094	35474.5625
2289.74405	35411.9625
2292.61534	35380.1625
2295.4848	35338.8625
2298.35243	35391.4625
2301.21824	35326.1625
2304.08223	35276.4625
2306.94439	35246.4625
2309.80474	35239.5625
2312.66327	35262.4625
2315.51999	35234.2625
2318.37489	35152.6625
2321.22797	35158.9625
2324.07925	35172.6625
2326.92871	35080.4625
2329.77637	35006.5625
2332.62222	34968.3625
2335.46626	35001.5625
2338.3085	34913.6625
2341.14893	34901.4625
2343.98756	34903.6625
2346.8244	34934.3625
2349.65943	34884.3625
2352.49267	34885.1625
2355.32411	34876.6625
2358.15376	34826.7625
2360.98161	34837.7625
2363.80768	34797.9625
2366.63195	34786.6625
2369.45444	34764.9625
2372.27514	34742.7625
2375.09405	34703.0625
2377.91118	34680.6625
2380.72652	34555.5625
2383.54009	34490.5625
2386.35187	34451.0625
2389.16188	34365.6625
2391.97011	34258.0625
2394.77657	34244.4625
2397.58125	34245.9625
2400.38416	34145.0625
2403.18529	34074.9625
2405.98466	34096.5625
2408.78226	34058.0625
2411.57809	34050.1625
2414.37216	33984.1625
2417.16446	33976.5625
2419.955	33980.4625
2422.74378	33940.6625
2425.5308	33911.4625
2428.31606	33951.5625
2431.09956	33926.4625
2433.88131	33915.2625
2436.6613	33934.6625
2439.43954	33889.2625
2442.21603	33851.9625
2444.99077	33822.1625
2447.76377	33868.5625
2450.53501	33836.2625
2453.30451	33793.0625
2456.07226	33737.2625
2458.83827	33754.3625
2461.60254	33712.8625
2464.36507	33705.3625
2467.12586	33719.4625
2469.88492	33685.5625
2472.64224	33703.5625
2475.39782	33690.9625
2478.15167	33730.3625
2480.90379	33723.8625
2483.65417	33705.1625
2486.40283	33708.3625
2489.14976	33685.8625
2491.89497	33649.6625
2494.63845	33672.2625
2497.3802	33645.2625
2500.12024	33666.5625
2502.85855	33612.2625
2505.59514	33595.0625
2508.33002	33590.5625
2511.06318	33552.3625
2513.79462	33529.2625
2516.52435	33542.0625
2519.25237	33553.9625
2521.97867	33468.6625
2524.70327	33432.0625
2527.42616	33388.0625
2530.14734	33385.6625
2532.86681	33349.7625
2535.58458	33360.5625
2538.30065	33354.2625
2541.01501	33326.7625
2543.72768	33289.4625
2546.43864	33319.4625
2549.14791	33241.5625
2551.85548	33186.6625
2554.56136	33120.8625
2557.26554	33058.8625
2559.96803	33057.3625
2562.66883	32952.8625
2565.36794	32972.7625
2568.06536	32941.1625
2570.7611	32899.3625
2573.45514	32843.4625
2576.14751	32801.9625
2578.83819	32743.0625
2581.52719	32817.3625
2584.21451	32711.5625
2586.90015	32697.8625
2589.58411	32612.5625
2592.2664	32626.8625
2594.94701	32585.2625
2597.62594	32626.3625
2600.30321	32588.1625
2602.9788	32580.4625
2605.65273	32529.5625
2608.32498	32522.5625
2610.99557	32522.7625
2613.66449	32560.7625
2616.33175	32483.4625
2618.99734	32438.8625
2621.66128	32328.1625
2624.32355	32323.2625
2626.98416	32263.0625
2629.64311	32219.8625
2632.30041	32247.0625
2634.95605	32234.7625
2637.61004	32194.7625
2640.26238	32234.0625
2642.91306	32143.9625
2645.56209	32131.0625
2648.20948	32173.2625
2650.85521	32150.3625
2653.4993	32208.8625
2656.14175	32165.9625
2658.78255	32238.5625
2661.42171	32227.0625
2664.05923	32278.0625
2666.6951	32271.5625
2669.32934	32332.5625
2671.96194	32236.1625
2674.59291	32263.7625
2677.22224	32300.2625
2679.84993	32320.9625
2682.476	32247.0625
2685.10043	32266.6625
2687.72324	32200.3625
2690.34441	32242.4625
2692.96396	32219.2625
2695.58188	32259.4625
2698.19818	32218.8625
2700.81285	32235.7625
2703.4259	32192.2625
2706.03733	32295.8625
2708.64714	32240.8625
2711.25533	32275.5625
2713.86191	32286.7625
2716.46687	32351.6625
2719.07021	32377.1625
2721.67194	32373.5625
2724.27206	32330.1625
2726.87057	32369.3625
2729.46747	32415.1625
2732.06276	32365.6625
2734.65644	32385.5625
2737.24852	32385.9625
2739.83899	32331.6625
2742.42786	32396.8625
2745.01513	32330.4625
2747.60079	32295.5625
2750.18486	32302.4625
2752.76733	32288.2625
2755.3482	32258.1625
2757.92747	32225.7625
2760.50515	32207.1625
2763.08123	32103.9625
2765.65573	32106.0625
2768.22863	32118.8625
2770.79994	32035.5625
2773.36967	32031.5625
2775.9378	32041.5625
2778.50435	32098.6625
2781.06932	31983.1625
2783.6327	32006.3625
2786.1945	31974.8625
2788.75471	31940.9625
2791.31335	31846.4625
2793.87041	31851.2625
2796.42589	31746.4625
2798.97979	31731.1625
2801.53212	31627.2625
2804.08288	31607.1625
2806.63206	31542.2625
2809.17967	31495.2625
2811.72571	31388.2625
2814.27018	31262.1625
2816.81308	31206.8625
2819.35442	31179.9625
2821.89419	31121.0625
2824.43239	31112.0625
2826.96904	31109.3625
2829.50412	31144.5625
2832.03763	31019.5625
2834.56959	31055.6625
2837.1	30969.3625
2839.62884	30961.3625
2842.15613	30867.0625
2844.68186	30936.2625
2847.20604	30871.0625
2849.72867	30855.9625
2852.24974	30840.3625
2854.76927	30748.5625
2857.28724	30735.9625
2859.80367	30753.4625
2862.31855	30711.0625
2864.83189	30654.7625
2867.34368	30599.1625
2869.85393	30575.9625
2872.36264	30509.8625
2874.8698	30468.1625
2877.37543	30457.9625
2879.87952	30435.5625
2882.38207	30463.8625
2884.88308	30475.4625
2887.38256	30457.3625
2889.88051	30417.1625
2892.37692	30456.9625
2894.8718	30497.8625
2897.36515	30494.4625
2899.85698	30467.9625
2902.34727	30528.1625
2904.83604	30523.5625
2907.32328	30572.1625
2909.809	30568.3625
2912.29319	30626.1625
2914.77587	30551.6625
2917.25702	30601.7625
2919.73665	30553.1625
2922.21476	30581.4625
2924.69136	30489.8625
2927.16644	30505.5625
2929.64	30505.4625
2932.11205	30473.3625
2934.58258	30338.9625
2937.05161	30456.9625
2939.51912	30403.8625
2941.98513	30372.1625
2944.44962	30339.2625
2946.91261	30270.3625
2949.37409	30317.3625
2951.83407	30315.5625
2954.29254	30322.3625
2956.74951	30287.2625
2959.20498	30292.8625
2961.65895	30244.1625
2964.11142	30282.7625
2966.56239	30209.4625
2969.01186	30219.2625
2971.45984	30123.4625
2973.90632	30125.4625
2976.35131	30058.4625
2978.7948	30050.8625
2981.23681	29991.1625
2983.67732	29900.4625
2986.11635	29808.4625
2988.55388	29758.9625
2990.98993	29744.8625
2993.4245	29691.9625
2995.85758	29594.9625
2998.28917	29477.7625
3000.71928	29430.4625
3003.14791	29371.0625
3005.57506	29370.6625
3008.00073	29262.9625
3010.42493	29259.7625
3012.84764	29195.2625
3015.26888	29192.1625
3017.68865	29141.4625
3020.10694	29111.0625
3022.52376	29005.4625
3024.9391	29015.2625
3027.35298	28927.7625
3029.76539	28948.4625
3032.17632	28966.2625
3034.5858	28842.9625
3036.9938	28849.4625
3039.40034	28813.4625
3041.80542	28811.3625
3044.20903	28792.5625
3046.61118	28748.7625
3049.01187	28666.7625
3051.4111	28603.8625
3053.80888	28522.1625
3056.20519	28530.6625
3058.60005	28435.6625
3060.99345	28422.5625
3063.3854	28297.5625
3065.7759	28245.0625
3068.16494	28158.7625
3070.55254	28045.0625
3072.93868	27979.7625
3075.32338	27892.8625
3077.70662	27853.2625
3080.08842	27750.1625
3082.46878	27700.3625
3084.84769	27673.6625
3087.22515	27678.3625
3089.60118	27669.2625
3091.97576	27617.7625
3094.3489	27621.8625
3096.72061	27621.5625
3099.09087	27591.7625
3101.4597	27619.0625
3103.82709	27616.8625
3106.19305	27536.5625
3108.55757	27536.0625
3110.92066	27466.2625
3113.28232	27458.9625
3115.64255	27388.0625
3118.00134	27264.7625
3120.35871	27204.2625
3122.71466	27126.0625
3125.06917	27080.4625
3127.42226	27065.4625
3129.77393	27021.8625
3132.12417	26985.6625
3134.47299	26917.1625
3136.82039	26919.7625
3139.16636	26920.1625
3141.51092	26830.1625
3143.85406	26893.6625
3146.19579	26840.2625
3148.53609	26836.8625
3150.87499	26885.3625
3153.21246	26875.6625
3155.54853	26892.6625
3157.88318	26837.6625
3160.21642	26903.1625
3162.54826	26869.9625
3164.87868	26777.2625
3167.2077	26751.8625
3169.5353	26736.7625
3171.86151	26719.4625
3174.18631	26738.7625
3176.5097	26760.6625
3178.83169	26678.8625
3181.15228	26706.9625
3183.47147	26507.4625
3185.78926	26509.6625
3188.10565	26477.7625
3190.42065	26458.0625
3192.73424	26413.6625
3195.04645	26376.6625
3197.35725	26334.3625
3199.66667	26305.5625
3201.97469	26328.2625
3204.28132	26271.7625
3206.58656	26258.0625
3208.8904	26247.5625
3211.19287	26222.4625
3213.49394	26245.7625
3215.79363	26263.0625
3218.09193	26314.9625
3220.38884	26300.3625
3222.68438	26313.5625
3224.97853	26217.6625
3227.2713	26189.1625
3229.56269	26159.1625
3231.8527	26146.0625
3234.14133	26102.3625
3236.42858	26045.7625
3238.71446	25986.2625
3240.99896	25946.1625
3243.28209	25969.2625
3245.56384	25900.5625
3247.84423	25892.9625
3250.12324	25807.3625
3252.40088	25802.7625
3254.67715	25809.8625
3256.95205	25754.8625
3259.22558	25737.4625
3261.49775	25692.8625
3263.76855	25684.4625
3266.03799	25613.1625
3268.30606	25555.5625
3270.57277	25487.0625
3272.83812	25488.6625
3275.10211	25422.1625
3277.36474	25360.2625
3279.62601	25370.2625
3281.88593	25304.1625
3284.14448	25338.0625
3286.40168	25334.4625
3288.65753	25290.0625
3290.91202	25288.6625
3293.16516	25227.0625
3295.41695	25170.6625
3297.66738	25046.4625
3299.91647	24889.7625
3302.16421	24732.2625
3304.4106	24648.6625
3306.65564	24472.2625
3308.89933	24281.7625
3311.14169	24160.4625
3313.38269	23968.8625
3315.62236	23829.0625
3317.86068	23534.8625
3320.09766	23363.1625
3322.3333	23202.8625
3324.5676	23106.1625
3326.80056	22741.7625
3329.03219	22610.0625
3331.26248	6.7625
3333.49143	1.1625
3335.71905	-0.0375
