Data from AgNPs_FTO_APTES_UA_20uM_CRN_1000uM_R6G_10uM_NaF_0.1M_Addition_RamanShift__3__19-15-15-007.txt Node

Date: Thu Feb 17 19:15:15 GMT 2022
User: TCL
Spectrometer: QEP01345
Trigger mode: 4
Integration Time (sec): 1.000000E1
Scans to average: 7
Electric dark correction enabled: true
Nonlinearity correction enabled: false
Boxcar width: 0
XAxis mode: Raman Shifts
Number of Pixels in Spectrum: 1044
>>>>>Begin Spectral Data<<<<<
46.04893	0.16071
50.45542	-1.125
54.85868	-1.69643
59.25871	-1.125
63.6555	82.30357
68.04907	83.73214
72.43941	92.73214
76.82654	93.73214
81.21044	95.16071
85.59113	101.16071
89.96862	107.58929
94.34289	106.875
98.71396	111.44643
103.08183	114.16071
107.4465	120.44643
111.80798	121.16071
116.16626	122.01786
120.52136	127.875
124.87327	133.875
129.222	137.16071
133.56755	145.58929
137.90993	155.875
142.24913	172.875
146.58517	193.16071
150.91804	221.73214
155.24774	264.73214
159.57429	332.30357
163.89768	424.73214
168.21792	564.875
172.53501	771.30357
176.84895	1082.44643
181.15975	1524.875
185.46741	2171.16071
189.77193	2998.58929
194.07331	4039.44643
198.37157	5243.58929
202.6667	6493.73214
206.9587	7756.58929
211.24758	8989.58929
215.53334	10302.30357
219.81599	11600.44643
224.09553	13058.16071
228.37195	14727.58929
232.64527	16499.44643
236.91549	18375.875
241.18261	20173.44643
245.44663	21803.16071
249.70755	23159.01786
253.96539	24227.73214
258.22014	25195.58929
262.4718	26028.30357
266.72039	26583.01786
270.96589	26800.30357
275.20832	26671.16071
279.44768	26329.58929
283.68397	25930.30357
287.91719	25596.44643
292.14735	25429.01786
296.37445	25496.58929
300.59849	25855.73214
304.81948	26453.16071
309.03742	26970.01786
313.25231	27150.01786
317.46415	26864.16071
321.67296	26155.16071
325.87872	25366.73214
330.08145	24956.58929
334.28114	24916.01786
338.47781	25104.30357
342.67145	25479.875
346.86207	26075.73214
351.04966	26804.01786
355.23424	27616.58929
359.4158	28251.58929
363.59435	28581.44643
367.76989	28721.30357
371.94243	28713.44643
376.11196	28751.30357
380.27849	28796.875
384.44203	28858.01786
388.60257	28910.30357
392.76012	29001.16071
396.91468	29205.16071
401.06626	29596.875
405.21485	29926.875
409.36047	29662.44643
413.50311	28932.875
417.64277	28267.30357
421.77947	27847.73214
425.9132	27767.44643
430.04396	27834.30357
434.17176	28027.30357
438.2966	28395.44643
442.41849	29041.16071
446.53742	29830.30357
450.6534	30703.01786
454.76644	31150.01786
458.87653	31095.58929
462.98368	30859.30357
467.08789	30403.01786
471.18916	29867.30357
475.2875	29246.16071
479.38291	28741.58929
483.4754	28308.16071
487.56496	28038.01786
491.6516	27861.01786
495.73531	27865.58929
499.81612	27843.16071
503.89401	28015.73214
507.96899	28263.01786
512.04106	28330.73214
516.11023	28429.58929
520.1765	28666.01786
524.23987	28739.875
528.30034	28746.01786
532.35792	28775.73214
536.41261	28500.875
540.46441	28124.30357
544.51333	27903.01786
548.55936	28017.875
552.60252	28421.58929
556.64279	29019.875
560.6802	29363.875
564.71473	29504.58929
568.7464	29697.16071
572.7752	30032.875
576.80114	29920.01786
580.82422	29800.30357
584.84444	30123.30357
588.86181	31109.16071
592.87633	32418.16071
596.888	33203.875
600.89682	33061.16071
604.9028	33770.30357
608.90594	37679.73214
612.90624	43174.30357
616.90371	41865.30357
620.89834	33825.16071
624.89015	29706.16071
628.87913	29059.44643
632.86528	29270.01786
636.84862	29496.01786
640.82913	29242.16071
644.80683	28456.01786
648.78172	27936.16071
652.75379	27848.875
656.72306	28369.875
660.68952	29022.16071
664.65319	28841.30357
668.61405	28064.73214
672.57211	27868.58929
676.52738	28025.01786
680.47986	28058.30357
684.42955	27891.44643
688.37646	27646.73214
692.32058	27701.44643
696.26192	27932.30357
700.20048	28290.44643
704.13626	28437.44643
708.06928	28328.30357
711.99952	28131.30357
715.927	28077.30357
719.85171	28217.30357
723.77365	28244.73214
727.69284	28037.30357
731.60928	27865.58929
735.52295	27804.01786
739.43388	27861.73214
743.34206	27928.01786
747.24749	27967.01786
751.15017	28074.16071
755.05012	28299.875
758.94733	29066.875
762.8418	30742.875
766.73354	33607.44643
770.62254	36599.44643
774.50882	37728.44643
778.39237	36489.01786
782.27321	33596.58929
786.15132	30848.30357
790.02671	29123.875
793.89938	28156.58929
797.76935	27830.58929
801.6366	27705.30357
805.50115	27553.30357
809.36299	27432.73214
813.22213	27313.875
817.07857	27251.44643
820.93231	27180.58929
824.78336	27180.44643
828.63172	27179.73214
832.47738	27243.73214
836.32036	27223.44643
840.16066	27266.73214
843.99827	27290.875
847.8332	27240.44643
851.66546	27234.875
855.49504	27215.58929
859.32195	27253.58929
863.1462	27227.01786
866.96777	27193.73214
870.78668	27178.58929
874.60293	27289.44643
878.41652	27326.44643
882.22745	27405.30357
886.03573	27521.01786
889.84136	27485.875
893.64433	27440.73214
897.44466	27286.875
901.24235	27245.16071
905.0374	27134.875
908.8298	26938.73214
912.61957	26919.30357
916.40671	26992.44643
920.19121	27126.16071
923.97308	27352.73214
927.75233	27605.44643
931.52895	27714.30357
935.30295	27471.30357
939.07433	27090.44643
942.84309	26680.58929
946.60924	26477.875
950.37278	26352.875
954.13371	26261.73214
957.89203	26168.01786
961.64774	26141.16071
965.40086	26100.58929
969.15137	26092.58929
972.89929	26081.58929
976.64461	26104.875
980.38733	26088.01786
984.12747	26167.58929
987.86502	26352.73214
991.59999	26585.44643
995.33237	26861.44643
999.06217	27319.16071
1002.78939	27868.58929
1006.51404	28327.73214
1010.23611	28654.73214
1013.95561	28910.16071
1017.67255	29009.73214
1021.38692	28829.58929
1025.09872	28543.30357
1028.80796	28330.875
1032.51465	28520.58929
1036.21877	28862.44643
1039.92035	29006.16071
1043.61937	28959.58929
1047.31584	28654.01786
1051.00976	28383.30357
1054.70114	28116.875
1058.38998	27975.44643
1062.07627	28021.875
1065.76003	28098.58929
1069.44126	28222.01786
1073.11995	28447.875
1076.79611	28858.44643
1080.46974	29169.58929
1084.14085	29538.01786
1087.80943	29900.30357
1091.47549	29985.73214
1095.13903	29843.875
1098.80005	29363.875
1102.45857	28909.16071
1106.11456	28740.01786
1109.76805	28811.01786
1113.41903	29081.01786
1117.06751	29525.875
1120.71348	30072.01786
1124.35696	30709.875
1127.99793	31209.16071
1131.63641	31249.73214
1135.2724	30738.875
1138.90589	30108.30357
1142.5369	29705.16071
1146.16542	29429.01786
1149.79145	29268.44643
1153.415	29194.44643
1157.03607	29337.875
1160.65467	29737.73214
1164.27079	30540.01786
1167.88443	31759.58929
1171.49561	33496.875
1175.10432	35956.30357
1178.71056	39214.16071
1182.31434	42150.16071
1185.91565	43315.16071
1189.51451	42811.58929
1193.11091	41191.16071
1196.70485	39365.30357
1200.29634	37761.58929
1203.88538	36236.30357
1207.47197	34810.58929
1211.05612	33493.30357
1214.63782	32631.01786
1218.21708	32339.01786
1221.79391	32352.58929
1225.36829	32585.73214
1228.94024	32558.44643
1232.50976	32229.875
1236.07685	31811.30357
1239.6415	31511.01786
1243.20374	31492.01786
1246.76355	31602.01786
1250.32093	31872.875
1253.8759	32301.58929
1257.42845	32982.73214
1260.97859	33734.875
1264.52631	34622.16071
1268.07163	35423.30357
1271.61453	36195.58929
1275.15503	36842.16071
1278.69312	37369.01786
1282.22882	37807.44643
1285.76211	38456.01786
1289.29301	39488.01786
1292.82151	40654.30357
1296.34761	42003.30357
1299.87133	44000.58929
1303.39266	46611.01786
1306.9116	50191.01786
1310.42815	54001.73214
1313.94233	56211.44643
1317.45412	55134.30357
1320.96354	52321.30357
1324.47058	49112.73214
1327.97525	46231.58929
1331.47754	44221.875
1334.97747	43219.44643
1338.47502	43024.44643
1341.97022	43466.44643
1345.46305	44462.44643
1348.95352	46346.875
1352.44163	48852.30357
1355.92738	52185.01786
1359.41078	56830.44643
1362.89183	61027.16071
1366.37053	59726.16071
1369.84688	52881.58929
1373.32088	45600.30357
1376.79254	40937.01786
1380.26186	38780.44643
1383.72883	37885.44643
1387.19347	37074.58929
1390.65578	36225.44643
1394.11575	35470.73214
1397.57339	35196.73214
1401.0287	35264.58929
1404.48168	35201.16071
1407.93234	35177.58929
1411.38068	35117.58929
1414.82669	35044.73214
1418.27039	34842.73214
1421.71177	34433.73214
1425.15083	33899.73214
1428.58758	33508.44643
1432.02203	33743.44643
1435.45416	34220.01786
1438.88399	34706.16071
1442.31151	34775.875
1445.73673	34857.58929
1449.15965	34859.01786
1452.58027	34661.16071
1455.9986	34396.58929
1459.41463	34334.58929
1462.82837	34631.73214
1466.23982	35304.73214
1469.64898	35915.875
1473.05586	36564.58929
1476.46045	36923.44643
1479.86276	37192.01786
1483.26279	37444.16071
1486.66054	37796.16071
1490.05602	38527.875
1493.44922	39669.44643
1496.84016	41297.30357
1500.22882	43604.30357
1503.61521	46837.73214
1506.99934	50509.30357
1510.38121	53382.44643
1513.76081	53672.01786
1517.13816	50844.875
1520.51324	46355.01786
1523.88607	42469.01786
1527.25665	40068.44643
1530.62498	38946.30357
1533.99105	38323.30357
1537.35488	37860.01786
1540.71647	37298.73214
1544.07581	36777.73214
1547.4329	36317.875
1550.78776	35866.73214
1554.14038	35547.73214
1557.49077	35444.875
1560.83892	35606.58929
1564.18484	36099.16071
1567.52853	36744.44643
1570.86999	37476.01786
1574.20922	37894.16071
1577.54624	37874.875
1580.88103	36998.16071
1584.2136	35755.73214
1587.54395	35220.58929
1590.87208	35869.44643
1594.19801	37588.58929
1597.52172	39824.73214
1600.84321	41074.44643
1604.16251	40431.30357
1607.47959	38564.875
1610.79447	36226.01786
1614.10715	33874.58929
1617.41763	31995.73214
1620.7259	30729.16071
1624.03199	29982.73214
1627.33587	29943.30357
1630.63757	30468.58929
1633.93707	31628.44643
1637.23439	33733.875
1640.52951	36957.875
1643.82246	41313.01786
1647.11321	45618.44643
1650.40179	47491.875
1653.68819	45146.73214
1656.97241	39813.01786
1660.25446	34586.875
1663.53433	30896.30357
1666.81203	28799.73214
1670.08756	27524.30357
1673.36092	26714.30357
1676.63211	26162.16071
1679.90115	25754.73214
1683.16801	25437.16071
1686.43272	25225.01786
1689.69527	25051.875
1692.95567	24873.30357
1696.2139	24776.875
1699.46999	24646.73214
1702.72392	24655.875
1705.97571	24614.01786
1709.22535	24614.16071
1712.47284	24557.44643
1715.71819	24561.01786
1718.96139	24491.30357
1722.20246	24398.16071
1725.44139	24309.01786
1728.67818	24218.58929
1731.91284	24092.16071
1735.14537	24036.58929
1738.37576	23925.73214
1741.60403	23855.16071
1744.83017	23748.73214
1748.05418	23697.875
1751.27607	23684.30357
1754.49584	23620.875
1757.71349	23593.44643
1760.92903	23604.01786
1764.14244	23567.875
1767.35375	23526.16071
1770.56294	23448.30357
1773.77002	23408.30357
1776.97499	23382.58929
1780.17785	23384.44643
1783.37861	23298.30357
1786.57727	23262.30357
1789.77382	23178.73214
1792.96828	23159.58929
1796.16064	23087.16071
1799.3509	23092.875
1802.53907	23019.44643
1805.72514	22982.58929
1808.90913	22935.01786
1812.09102	22910.875
1815.27083	22831.875
1818.44856	22809.30357
1821.6242	22796.875
1824.79776	22754.58929
1827.96924	22715.58929
1831.13864	22673.73214
1834.30597	22689.16071
1837.47122	22646.44643
1840.6344	22616.58929
1843.7955	22630.875
1846.95454	22556.01786
1850.11151	22534.875
1853.26642	22539.44643
1856.41926	22491.30357
1859.57004	22555.16071
1862.71876	22470.73214
1865.86542	22490.73214
1869.01003	22498.58929
1872.15258	22457.73214
1875.29308	22412.44643
1878.43152	22427.73214
1881.56792	22431.16071
1884.70227	22392.30357
1887.83457	22355.30357
1890.96482	22318.01786
1894.09304	22303.44643
1897.21921	22264.01786
1900.34335	22268.58929
1903.46544	22284.16071
1906.58551	22262.16071
1909.70353	22210.73214
1912.81953	22161.01786
1915.93349	22146.30357
1919.04543	22085.73214
1922.15534	22127.30357
1925.26322	22009.01786
1928.36908	21987.58929
1931.47292	22022.30357
1934.57473	21969.16071
1937.67453	21926.73214
1940.77232	21831.30357
1943.86808	21724.30357
1946.96184	21676.30357
1950.05358	21634.16071
1953.14331	21607.44643
1956.23103	21580.16071
1959.31675	21540.875
1962.40046	21467.44643
1965.48217	21392.44643
1968.56188	21331.30357
1971.63959	21304.44643
1974.7153	21274.73214
1977.78901	21175.16071
1980.86073	21071.44643
1983.93046	21075.30357
1986.99819	20965.73214
1990.06394	20909.44643
1993.1277	20867.30357
1996.18947	20826.16071
1999.24925	20671.58929
2002.30706	20648.875
2005.36288	20573.16071
2008.41672	20536.58929
2011.46859	20441.01786
2014.51848	20432.73214
2017.56639	20347.58929
2020.61233	20272.16071
2023.6563	20218.01786
2026.6983	20187.44643
2029.73833	20174.01786
2032.7764	20166.44643
2035.8125	20090.44643
2038.84664	20035.30357
2041.87881	20022.30357
2044.90903	19999.30357
2047.93729	19985.16071
2050.96359	19930.16071
2053.98794	19922.01786
2057.01034	19953.16071
2060.03078	19886.44643
2063.04927	19884.01786
2066.06582	19878.16071
2069.08042	19843.875
2072.09307	19820.30357
2075.10378	19827.01786
2078.11255	19833.875
2081.11938	19835.875
2084.12426	19817.44643
2087.12722	19810.01786
2090.12824	19802.73214
2093.12732	19796.16071
2096.12447	19830.875
2099.11969	19844.73214
2102.11299	19808.58929
2105.10435	19810.44643
2108.09379	19805.44643
2111.08131	19854.30357
2114.0669	19878.58929
2117.05057	19884.73214
2120.03233	19910.875
2123.01216	19951.44643
2125.99008	19957.58929
2128.96609	19988.01786
2131.94018	19997.16071
2134.91236	20010.30357
2137.88263	19987.44643
2140.851	19979.16071
2143.81746	20014.58929
2146.78201	20009.875
2149.74466	20046.44643
2152.7054	20024.44643
2155.66425	20004.01786
2158.6212	20016.875
2161.57625	20007.44643
2164.52941	19993.44643
2167.48067	20004.58929
2170.43004	19945.44643
2173.37752	20008.01786
2176.32311	20001.44643
2179.26681	19988.44643
2182.20863	19970.30357
2185.14856	20017.875
2188.08661	19991.30357
2191.02278	19996.01786
2193.95707	19987.73214
2196.88948	19988.58929
2199.82001	19949.01786
2202.74867	19927.875
2205.67545	19908.16071
2208.60037	19914.73214
2211.52341	19876.875
2214.44458	19824.01786
2217.36388	19851.44643
2220.28132	19795.30357
2223.1969	19736.01786
2226.11061	19745.73214
2229.02246	19692.30357
2231.93245	19648.73214
2234.84058	19616.875
2237.74686	19601.58929
2240.65128	19561.58929
2243.55385	19581.73214
2246.45456	19578.16071
2249.35343	19525.58929
2252.25044	19478.16071
2255.14561	19486.73214
2258.03893	19490.01786
2260.93041	19466.01786
2263.82004	19416.01786
2266.70783	19359.875
2269.59378	19344.44643
2272.4779	19282.30357
2275.36017	19218.01786
2278.24061	19199.16071
2281.11922	19142.16071
2283.996	19136.73214
2286.87094	19131.58929
2289.74405	19084.16071
2292.61534	19072.16071
2295.4848	19049.875
2298.35243	19081.73214
2301.21824	19065.16071
2304.08223	19062.16071
2306.94439	19006.73214
2309.80474	18988.01786
2312.66327	18995.58929
2315.51999	19012.875
2318.37489	19003.44643
2321.22797	18920.58929
2324.07925	18957.16071
2326.92871	18909.58929
2329.77637	18905.30357
2332.62222	18842.875
2335.46626	18842.44643
2338.3085	18858.16071
2341.14893	18856.01786
2343.98756	18829.01786
2346.8244	18849.16071
2349.65943	18786.01786
2352.49267	18780.16071
2355.32411	18779.30357
2358.15376	18780.30357
2360.98161	18816.58929
2363.80768	18793.58929
2366.63195	18799.44643
2369.45444	18730.01786
2372.27514	18667.875
2375.09405	18675.73214
2377.91118	18620.875
2380.72652	18621.58929
2383.54009	18577.73214
2386.35187	18538.73214
2389.16188	18505.16071
2391.97011	18449.73214
2394.77657	18423.875
2397.58125	18454.30357
2400.38416	18392.58929
2403.18529	18315.30357
2405.98466	18321.875
2408.78226	18285.44643
2411.57809	18268.01786
2414.37216	18239.01786
2417.16446	18237.30357
2419.955	18178.01786
2422.74378	18192.01786
2425.5308	18136.44643
2428.31606	18164.73214
2431.09956	18197.58929
2433.88131	18149.73214
2436.6613	18163.875
2439.43954	18131.58929
2442.21603	18105.30357
2444.99077	18080.44643
2447.76377	18104.875
2450.53501	18101.875
2453.30451	18115.16071
2456.07226	18085.44643
2458.83827	18054.73214
2461.60254	18062.44643
2464.36507	18037.44643
2467.12586	18023.73214
2469.88492	17954.58929
2472.64224	18015.01786
2475.39782	18024.01786
2478.15167	18041.01786
2480.90379	18020.44643
2483.65417	18061.58929
2486.40283	18019.44643
2489.14976	18078.16071
2491.89497	18076.16071
2494.63845	18082.73214
2497.3802	18045.01786
2500.12024	18056.875
2502.85855	17964.30357
2505.59514	17965.73214
2508.33002	17937.875
2511.06318	17897.73214
2513.79462	17843.16071
2516.52435	17850.73214
2519.25237	17853.44643
2521.97867	17795.44643
2524.70327	17786.58929
2527.42616	17768.73214
2530.14734	17760.44643
2532.86681	17771.73214
2535.58458	17721.16071
2538.30065	17681.44643
2541.01501	17709.16071
2543.72768	17704.44643
2546.43864	17675.16071
2549.14791	17641.16071
2551.85548	17631.875
2554.56136	17623.16071
2557.26554	17589.73214
2559.96803	17604.01786
2562.66883	17538.01786
2565.36794	17516.44643
2568.06536	17477.01786
2570.7611	17478.16071
2573.45514	17450.30357
2576.14751	17430.44643
2578.83819	17359.73214
2581.52719	17397.875
2584.21451	17363.30357
2586.90015	17322.16071
2589.58411	17327.01786
2592.2664	17303.01786
2594.94701	17282.875
2597.62594	17256.30357
2600.30321	17182.16071
2602.9788	17194.58929
2605.65273	17151.16071
2608.32498	17196.875
2610.99557	17152.875
2613.66449	17172.30357
2616.33175	17170.875
2618.99734	17152.44643
2621.66128	17119.16071
2624.32355	17071.73214
2626.98416	17068.875
2629.64311	17071.875
2632.30041	17065.875
2634.95605	17012.30357
2637.61004	17003.875
2640.26238	16949.875
2642.91306	16984.01786
2645.56209	16927.30357
2648.20948	16948.58929
2650.85521	16957.875
2653.4993	16928.44643
2656.14175	16919.30357
2658.78255	16944.44643
2661.42171	16927.30357
2664.05923	16994.58929
2666.6951	16967.73214
2669.32934	16977.16071
2671.96194	16978.30357
2674.59291	17000.875
2677.22224	16975.875
2679.84993	17002.30357
2682.476	16925.73214
2685.10043	16903.01786
2687.72324	16951.30357
2690.34441	16924.875
2692.96396	16942.58929
2695.58188	16979.73214
2698.19818	16915.44643
2700.81285	16953.58929
2703.4259	16939.30357
2706.03733	16918.73214
2708.64714	16922.73214
2711.25533	16939.44643
2713.86191	16978.44643
2716.46687	16958.30357
2719.07021	16946.58929
2721.67194	17015.58929
2724.27206	16958.58929
2726.87057	17000.01786
2729.46747	16966.16071
2732.06276	16933.16071
2734.65644	16895.875
2737.24852	16940.01786
2739.83899	16915.01786
2742.42786	16944.16071
2745.01513	16905.30357
2747.60079	16856.44643
2750.18486	16873.875
2752.76733	16817.58929
2755.3482	16807.01786
2757.92747	16839.58929
2760.50515	16817.30357
2763.08123	16797.30357
2765.65573	16729.73214
2768.22863	16765.875
2770.79994	16740.58929
2773.36967	16735.58929
2775.9378	16704.16071
2778.50435	16706.58929
2781.06932	16692.01786
2783.6327	16666.875
2786.1945	16686.30357
2788.75471	16619.58929
2791.31335	16603.875
2793.87041	16609.16071
2796.42589	16547.875
2798.97979	16532.44643
2801.53212	16527.30357
2804.08288	16490.44643
2806.63206	16418.30357
2809.17967	16445.16071
2811.72571	16400.01786
2814.27018	16411.01786
2816.81308	16340.30357
2819.35442	16316.875
2821.89419	16324.44643
2824.43239	16317.73214
2826.96904	16347.01786
2829.50412	16283.01786
2832.03763	16238.16071
2834.56959	16249.30357
2837.1	16268.01786
2839.62884	16287.58929
2842.15613	16247.73214
2844.68186	16252.44643
2847.20604	16246.875
2849.72867	16250.01786
2852.24974	16213.30357
2854.76927	16189.44643
2857.28724	16172.16071
2859.80367	16169.30357
2862.31855	16121.01786
2864.83189	16123.01786
2867.34368	16075.58929
2869.85393	16135.44643
2872.36264	16092.58929
2874.8698	16091.73214
2877.37543	16109.30357
2879.87952	16080.01786
2882.38207	16077.16071
2884.88308	16081.30357
2887.38256	16075.30357
2889.88051	16067.44643
2892.37692	16100.875
2894.8718	16068.73214
2897.36515	16131.01786
2899.85698	16108.16071
2902.34727	16166.30357
2904.83604	16159.16071
2907.32328	16155.01786
2909.809	16183.73214
2912.29319	16218.875
2914.77587	16228.30357
2917.25702	16201.58929
2919.73665	16228.30357
2922.21476	16231.73214
2924.69136	16195.16071
2927.16644	16232.44643
2929.64	16171.875
2932.11205	16126.44643
2934.58258	16107.73214
2937.05161	16114.01786
2939.51912	16113.16071
2941.98513	16102.16071
2944.44962	16048.73214
2946.91261	16058.30357
2949.37409	16050.01786
2951.83407	16016.73214
2954.29254	15974.16071
2956.74951	15970.01786
2959.20498	15985.30357
2961.65895	15970.44643
2964.11142	15949.16071
2966.56239	15938.875
2969.01186	15922.58929
2971.45984	15874.44643
2973.90632	15854.58929
2976.35131	15802.01786
2978.7948	15821.44643
2981.23681	15780.58929
2983.67732	15769.73214
2986.11635	15718.16071
2988.55388	15700.16071
2990.98993	15656.58929
2993.4245	15630.16071
2995.85758	15647.16071
2998.28917	15600.875
3000.71928	15596.73214
3003.14791	15551.73214
3005.57506	15541.44643
3008.00073	15504.16071
3010.42493	15480.44643
3012.84764	15463.58929
3015.26888	15416.58929
3017.68865	15432.73214
3020.10694	15422.875
3022.52376	15357.58929
3024.9391	15296.58929
3027.35298	15324.16071
3029.76539	15319.44643
3032.17632	15319.58929
3034.5858	15280.01786
3036.9938	15281.73214
3039.40034	15264.875
3041.80542	15249.58929
3044.20903	15223.875
3046.61118	15213.875
3049.01187	15191.44643
3051.4111	15172.44643
3053.80888	15131.16071
3056.20519	15126.73214
3058.60005	15092.875
3060.99345	15074.44643
3063.3854	15029.58929
3065.7759	15023.01786
3068.16494	14963.58929
3070.55254	14951.44643
3072.93868	14900.16071
3075.32338	14855.875
3077.70662	14843.01786
3080.08842	14837.875
3082.46878	14807.44643
3084.84769	14808.44643
3087.22515	14824.01786
3089.60118	14777.73214
3091.97576	14830.16071
3094.3489	14805.30357
3096.72061	14831.30357
3099.09087	14808.01786
3101.4597	14810.01786
3103.82709	14792.44643
3106.19305	14840.58929
3108.55757	14801.01786
3110.92066	14761.44643
3113.28232	14744.875
3115.64255	14712.01786
3118.00134	14645.73214
3120.35871	14646.01786
3122.71466	14651.44643
3125.06917	14637.30357
3127.42226	14587.01786
3129.77393	14594.875
3132.12417	14567.30357
3134.47299	14550.58929
3136.82039	14560.58929
3139.16636	14593.875
3141.51092	14557.16071
3143.85406	14562.16071
3146.19579	14575.875
3148.53609	14547.16071
3150.87499	14569.01786
3153.21246	14597.73214
3155.54853	14609.30357
3157.88318	14612.30357
3160.21642	14647.875
3162.54826	14636.01786
3164.87868	14649.30357
3167.2077	14632.44643
3169.5353	14619.01786
3171.86151	14587.58929
3174.18631	14603.58929
3176.5097	14622.30357
3178.83169	14582.73214
3181.15228	14575.58929
3183.47147	14532.73214
3185.78926	14526.875
3188.10565	14515.30357
3190.42065	14511.16071
3192.73424	14509.16071
3195.04645	14476.44643
3197.35725	14498.73214
3199.66667	14479.44643
3201.97469	14535.58929
3204.28132	14495.875
3206.58656	14536.44643
3208.8904	14520.01786
3211.19287	14558.58929
3213.49394	14571.58929
3215.79363	14607.44643
3218.09193	14576.30357
3220.38884	14550.875
3222.68438	14578.16071
3224.97853	14568.01786
3227.2713	14591.30357
3229.56269	14562.01786
3231.8527	14529.16071
3234.14133	14494.44643
3236.42858	14466.16071
3238.71446	14467.58929
3240.99896	14371.30357
3243.28209	14423.01786
3245.56384	14391.875
3247.84423	14392.01786
3250.12324	14363.01786
3252.40088	14341.16071
3254.67715	14374.01786
3256.95205	14350.30357
3259.22558	14363.30357
3261.49775	14312.30357
3263.76855	14315.875
3266.03799	14318.58929
3268.30606	14315.58929
3270.57277	14267.58929
3272.83812	14234.30357
3275.10211	14218.44643
3277.36474	14195.44643
3279.62601	14177.16071
3281.88593	14200.58929
3284.14448	14170.73214
3286.40168	14178.875
3288.65753	14134.01786
3290.91202	14161.30357
3293.16516	14133.16071
3295.41695	14108.01786
3297.66738	14045.875
3299.91647	13979.875
3302.16421	13926.01786
3304.4106	13861.30357
3306.65564	13768.30357
3308.89933	13692.875
3311.14169	13576.58929
3313.38269	13482.875
3315.62236	13402.58929
3317.86068	13290.16071
3320.09766	13205.875
3322.3333	13140.16071
3324.5676	13085.73214
3326.80056	12874.73214
3329.03219	12829.58929
3331.26248	2.58929
3333.49143	0.01786
3335.71905	0.01786
