Data from AgNPs_FTO_APTES_UA_20uM_CRN_2uM_R6G_10uM_NaF_0.1M_Addition_RamanShift__28__13-13-12-104.txt Node

Date: Thu Feb 17 13:13:12 GMT 2022
User: TCL
Spectrometer: QEP01345
Trigger mode: 4
Integration Time (sec): 7.000000E0
Scans to average: 10
Electric dark correction enabled: true
Nonlinearity correction enabled: false
Boxcar width: 0
XAxis mode: Raman Shifts
Number of Pixels in Spectrum: 1044
>>>>>Begin Spectral Data<<<<<
46.04893	-0.7375
50.45542	-0.6375
54.85868	-4.0375
59.25871	-0.9375
63.6555	114.3625
68.04907	117.4625
72.43941	121.6625
76.82654	124.4625
81.21044	128.0625
85.59113	130.7625
89.96862	132.8625
94.34289	138.5625
98.71396	142.6625
103.08183	146.3625
107.4465	157.0625
111.80798	154.7625
116.16626	159.6625
120.52136	167.0625
124.87327	174.6625
129.222	185.7625
133.56755	200.7625
137.90993	214.6625
142.24913	235.9625
146.58517	270.6625
150.91804	314.9625
155.24774	374.2625
159.57429	470.8625
163.89768	606.6625
168.21792	813.7625
172.53501	1118.9625
176.84895	1562.9625
181.15975	2196.0625
185.46741	3099.6625
189.77193	4281.9625
194.07331	5744.3625
198.37157	7403.9625
202.6667	9166.1625
206.9587	10919.9625
211.24758	12646.6625
215.53334	14416.4625
219.81599	16279.1625
224.09553	18385.7625
228.37195	20760.5625
232.64527	23295.4625
236.91549	26003.4625
241.18261	28693.2625
245.44663	31087.4625
249.70755	33283.1625
253.96539	35192.2625
258.22014	36849.9625
262.4718	38224.7625
266.72039	39300.2625
270.96589	39966.3625
275.20832	40015.1625
279.44768	39939.4625
283.68397	39600.9625
287.91719	39364.7625
292.14735	39212.0625
296.37445	39350.9625
300.59849	39754.1625
304.81948	40228.8625
309.03742	40395.3625
313.25231	40021.0625
317.46415	39010.3625
321.67296	37583.1625
325.87872	36434.2625
330.08145	35894.9625
334.28114	36023.5625
338.47781	36475.3625
342.67145	37136.6625
346.86207	37961.0625
351.04966	39177.1625
355.23424	40467.3625
359.4158	41530.5625
363.59435	42241.3625
367.76989	42685.5625
371.94243	42901.2625
376.11196	43108.9625
380.27849	43310.2625
384.44203	43412.4625
388.60257	43400.1625
392.76012	43599.4625
396.91468	44058.8625
401.06626	44767.7625
405.21485	45454.4625
409.36047	45308.9625
413.50311	44426.6625
417.64277	43661.8625
421.77947	43383.3625
425.9132	43394.7625
430.04396	43725.1625
434.17176	44178.7625
438.2966	44723.1625
442.41849	45652.5625
446.53742	46971.3625
450.6534	48375.3625
454.76644	49480.2625
458.87653	50048.2625
462.98368	49768.1625
467.08789	49114.6625
471.18916	48096.6625
475.2875	47182.6625
479.38291	46615.5625
483.4754	46140.7625
487.56496	45537.7625
491.6516	44906.0625
495.73531	44279.9625
499.81612	44059.3625
503.89401	44225.3625
507.96899	44407.5625
512.04106	44458.6625
516.11023	44489.3625
520.1765	44414.5625
524.23987	44348.6625
528.30034	44024.1625
532.35792	43613.9625
536.41261	43144.7625
540.46441	42652.3625
544.51333	42641.9625
548.55936	43056.3625
552.60252	43972.5625
556.64279	45039.8625
560.6802	45694.2625
564.71473	46103.2625
568.7464	47085.1625
572.7752	48020.0625
576.80114	48231.9625
580.82422	48036.8625
584.84444	48123.2625
588.86181	48658.2625
592.87633	49396.7625
596.888	49878.9625
600.89682	50300.0625
604.9028	52815.9625
608.90594	59649.5625
612.90624	67468.8625
616.90371	64030.2625
620.89834	52176.5625
624.89015	46911.7625
628.87913	46145.6625
632.86528	45974.1625
636.84862	45693.6625
640.82913	44907.7625
644.80683	43676.5625
648.78172	42807.4625
652.75379	42811.1625
656.72306	43677.0625
660.68952	44883.3625
664.65319	44802.8625
668.61405	43800.4625
672.57211	43346.6625
676.52738	43391.8625
680.47986	43324.5625
684.42955	43237.3625
688.37646	43247.2625
692.32058	43498.3625
696.26192	43956.7625
700.20048	44465.5625
704.13626	44778.2625
708.06928	44650.4625
711.99952	44281.6625
715.927	44256.8625
719.85171	44320.9625
723.77365	44261.6625
727.69284	43902.8625
731.60928	43626.7625
735.52295	43522.0625
739.43388	43769.4625
743.34206	44047.1625
747.24749	44361.5625
751.15017	44825.0625
755.05012	45597.0625
758.94733	47042.9625
762.8418	49828.9625
766.73354	54183.5625
770.62254	58436.2625
774.50882	59889.6625
778.39237	57081.1625
782.27321	52204.8625
786.15132	48042.5625
790.02671	45694.1625
793.89938	44634.1625
797.76935	44218.8625
801.6366	44032.0625
805.50115	43940.5625
809.36299	43785.8625
813.22213	43603.9625
817.07857	43601.4625
820.93231	43612.0625
824.78336	43657.4625
828.63172	43739.0625
832.47738	43838.0625
836.32036	43946.0625
840.16066	44115.3625
843.99827	44267.3625
847.8332	44203.4625
851.66546	43992.3625
855.49504	43838.9625
859.32195	43841.6625
863.1462	43591.5625
866.96777	43444.1625
870.78668	43410.5625
874.60293	43440.5625
878.41652	43507.1625
882.22745	43726.4625
886.03573	43770.3625
889.84136	43779.6625
893.64433	43492.8625
897.44466	43425.7625
901.24235	43377.7625
905.0374	43318.0625
908.8298	43292.1625
912.61957	43452.2625
916.40671	43849.8625
920.19121	44353.6625
923.97308	44937.6625
927.75233	45194.7625
931.52895	45135.7625
935.30295	44649.3625
939.07433	43855.6625
942.84309	43334.7625
946.60924	43123.9625
950.37278	42913.0625
954.13371	42672.7625
957.89203	42421.3625
961.64774	42323.2625
965.40086	42191.7625
969.15137	42093.3625
972.89929	41901.5625
976.64461	41849.1625
980.38733	41881.0625
984.12747	42028.9625
987.86502	42405.4625
991.59999	42958.5625
995.33237	43955.1625
999.06217	45561.8625
1002.78939	47474.4625
1006.51404	48748.1625
1010.23611	49472.5625
1013.95561	49870.7625
1017.67255	49891.8625
1021.38692	49461.9625
1025.09872	49180.3625
1028.80796	49861.1625
1032.51465	51515.0625
1036.21877	53006.7625
1039.92035	53084.3625
1043.61937	52169.7625
1047.31584	50493.4625
1051.00976	48727.7625
1054.70114	47619.2625
1058.38998	47381.9625
1062.07627	47380.2625
1065.76003	47525.3625
1069.44126	47673.7625
1073.11995	48078.3625
1076.79611	48385.1625
1080.46974	48725.1625
1084.14085	49318.4625
1087.80943	49975.5625
1091.47549	50128.1625
1095.13903	49697.7625
1098.80005	48847.6625
1102.45857	48102.0625
1106.11456	47704.3625
1109.76805	47852.8625
1113.41903	48356.5625
1117.06751	49046.7625
1120.71348	49804.4625
1124.35696	50504.3625
1127.99793	51052.3625
1131.63641	51024.7625
1135.2724	50240.6625
1138.90589	49525.0625
1142.5369	49110.4625
1146.16542	48928.0625
1149.79145	48959.1625
1153.415	49298.3625
1157.03607	49947.8625
1160.65467	50858.2625
1164.27079	52324.8625
1167.88443	54554.2625
1171.49561	57858.3625
1175.10432	62521.8625
1178.71056	68517.1625
1182.31434	73994.7625
1185.91565	76643.3625
1189.51451	76024.1625
1193.11091	72955.6625
1196.70485	69166.7625
1200.29634	66067.8625
1203.88538	63752.3625
1207.47197	61750.0625
1211.05612	60094.7625
1214.63782	59210.2625
1218.21708	59138.2625
1221.79391	59493.2625
1225.36829	59467.0625
1228.94024	58879.8625
1232.50976	57825.8625
1236.07685	57150.4625
1239.6415	56957.6625
1243.20374	57159.7625
1246.76355	57630.0625
1250.32093	58575.9625
1253.8759	59957.1625
1257.42845	61685.6625
1260.97859	63090.4625
1264.52631	64340.5625
1268.07163	65591.8625
1271.61453	67218.2625
1275.15503	68953.6625
1278.69312	70750.5625
1282.22882	72217.9625
1285.76211	73686.1625
1289.29301	75254.6625
1292.82151	77157.4625
1296.34761	79814.7625
1299.87133	83609.2625
1303.39266	88670.8625
1306.9116	95385.1625
1310.42815	102280.4625
1313.94233	106463.5625
1317.45412	106117.4625
1320.96354	102929.2625
1324.47058	99096.1625
1327.97525	95511.1625
1331.47754	93343.0625
1334.97747	92734.2625
1338.47502	94016.6625
1341.97022	95446.8625
1345.46305	95969.6625
1348.95352	95515.2625
1352.44163	95208.6625
1355.92738	97533.5625
1359.41078	103380.0625
1362.89183	108932.4625
1366.37053	106371.7625
1369.84688	95780.5625
1373.32088	84682.5625
1376.79254	77548.2625
1380.26186	74077.1625
1383.72883	72772.2625
1387.19347	72075.5625
1390.65578	71527.0625
1394.11575	71572.8625
1397.57339	72514.9625
1401.0287	74145.0625
1404.48168	76124.1625
1407.93234	77834.1625
1411.38068	78910.7625
1414.82669	78453.9625
1418.27039	76354.2625
1421.71177	73195.1625
1425.15083	70421.4625
1428.58758	68837.9625
1432.02203	68687.7625
1435.45416	69328.9625
1438.88399	70144.4625
1442.31151	71106.7625
1445.73673	71935.9625
1449.15965	72833.1625
1452.58027	73259.8625
1455.9986	73109.1625
1459.41463	73250.3625
1462.82837	73978.0625
1466.23982	75215.5625
1469.64898	76665.7625
1473.05586	77748.4625
1476.46045	78206.4625
1479.86276	78670.7625
1483.26279	79082.6625
1486.66054	79580.5625
1490.05602	80637.7625
1493.44922	81878.8625
1496.84016	83006.8625
1500.22882	84790.0625
1503.61521	87620.4625
1506.99934	91426.2625
1510.38121	95081.9625
1513.76081	96130.9625
1517.13816	93226.0625
1520.51324	88002.6625
1523.88607	83112.3625
1527.25665	79839.6625
1530.62498	78145.5625
1533.99105	77267.7625
1537.35488	76670.4625
1540.71647	76124.2625
1544.07581	75703.1625
1547.4329	74931.4625
1550.78776	73971.1625
1554.14038	73199.0625
1557.49077	72891.5625
1560.83892	72909.3625
1564.18484	72876.8625
1567.52853	72793.2625
1570.86999	72765.5625
1574.20922	72932.3625
1577.54624	73033.6625
1580.88103	72234.4625
1584.2136	71696.6625
1587.54395	73032.7625
1590.87208	76747.5625
1594.19801	82349.9625
1597.52172	88383.7625
1600.84321	91065.9625
1604.16251	88114.6625
1607.47959	81918.7625
1610.79447	74859.6625
1614.10715	68554.4625
1617.41763	63666.8625
1620.7259	60427.4625
1624.03199	59011.0625
1627.33587	59064.9625
1630.63757	60716.7625
1633.93707	63809.7625
1637.23439	68258.3625
1640.52951	73881.7625
1643.82246	80263.5625
1647.11321	85431.1625
1650.40179	86852.3625
1653.68819	82266.4625
1656.97241	73095.0625
1660.25446	63914.0625
1663.53433	57247.7625
1666.81203	52947.6625
1670.08756	50335.3625
1673.36092	48734.5625
1676.63211	47606.1625
1679.90115	46761.1625
1683.16801	46171.3625
1686.43272	45748.6625
1689.69527	45488.3625
1692.95567	45214.2625
1696.2139	45114.0625
1699.46999	45022.5625
1702.72392	44930.3625
1705.97571	44891.7625
1709.22535	44829.8625
1712.47284	44805.6625
1715.71819	44829.8625
1718.96139	44741.6625
1722.20246	44597.3625
1725.44139	44472.6625
1728.67818	44300.8625
1731.91284	44053.8625
1735.14537	43877.9625
1738.37576	43746.0625
1741.60403	43590.3625
1744.83017	43486.6625
1748.05418	43316.6625
1751.27607	43233.4625
1754.49584	43239.7625
1757.71349	43304.7625
1760.92903	43278.1625
1764.14244	43221.7625
1767.35375	43215.7625
1770.56294	43173.6625
1773.77002	43168.3625
1776.97499	43149.9625
1780.17785	43076.3625
1783.37861	43030.1625
1786.57727	42964.7625
1789.77382	42951.7625
1792.96828	42895.3625
1796.16064	42920.3625
1799.3509	42875.0625
1802.53907	42821.0625
1805.72514	42768.5625
1808.90913	42630.4625
1812.09102	42615.8625
1815.27083	42520.7625
1818.44856	42467.4625
1821.6242	42409.1625
1824.79776	42379.0625
1827.96924	42392.5625
1831.13864	42371.8625
1834.30597	42389.2625
1837.47122	42256.2625
1840.6344	42282.9625
1843.7955	42289.6625
1846.95454	42337.7625
1850.11151	42312.1625
1853.26642	42331.2625
1856.41926	42310.7625
1859.57004	42342.6625
1862.71876	42307.1625
1865.86542	42388.9625
1869.01003	42311.9625
1872.15258	42343.6625
1875.29308	42327.8625
1878.43152	42265.8625
1881.56792	42320.8625
1884.70227	42353.8625
1887.83457	42411.5625
1890.96482	42436.2625
1894.09304	42407.7625
1897.21921	42316.4625
1900.34335	42329.6625
1903.46544	42300.9625
1906.58551	42370.1625
1909.70353	42392.3625
1912.81953	42320.9625
1915.93349	42352.9625
1919.04543	42282.4625
1922.15534	42209.6625
1925.26322	42143.2625
1928.36908	42110.2625
1931.47292	42021.4625
1934.57473	41927.6625
1937.67453	41859.8625
1940.77232	41704.8625
1943.86808	41581.1625
1946.96184	41410.9625
1950.05358	41313.1625
1953.14331	41140.6625
1956.23103	41075.6625
1959.31675	40941.8625
1962.40046	40853.1625
1965.48217	40681.0625
1968.56188	40586.6625
1971.63959	40521.7625
1974.7153	40449.3625
1977.78901	40300.2625
1980.86073	40160.0625
1983.93046	40050.0625
1986.99819	39961.3625
1990.06394	39892.4625
1993.1277	39766.5625
1996.18947	39631.9625
1999.24925	39613.0625
2002.30706	39482.7625
2005.36288	39351.2625
2008.41672	39240.1625
2011.46859	39156.2625
2014.51848	39039.2625
2017.56639	38948.0625
2020.61233	38851.2625
2023.6563	38776.0625
2026.6983	38679.6625
2029.73833	38653.9625
2032.7764	38592.6625
2035.8125	38566.1625
2038.84664	38472.8625
2041.87881	38475.7625
2044.90903	38450.0625
2047.93729	38314.1625
2050.96359	38298.9625
2053.98794	38328.4625
2057.01034	38275.8625
2060.03078	38283.1625
2063.04927	38251.0625
2066.06582	38193.4625
2069.08042	38159.5625
2072.09307	38091.2625
2075.10378	37992.4625
2078.11255	37988.8625
2081.11938	37998.3625
2084.12426	37991.7625
2087.12722	37896.5625
2090.12824	37939.3625
2093.12732	37921.2625
2096.12447	37911.6625
2099.11969	37889.6625
2102.11299	37885.3625
2105.10435	37866.7625
2108.09379	37912.7625
2111.08131	37998.9625
2114.0669	37901.2625
2117.05057	37910.2625
2120.03233	37970.3625
2123.01216	37966.8625
2125.99008	38024.2625
2128.96609	38143.4625
2131.94018	38142.6625
2134.91236	38184.3625
2137.88263	38272.5625
2140.851	38264.0625
2143.81746	38296.4625
2146.78201	38307.5625
2149.74466	38342.4625
2152.7054	38346.8625
2155.66425	38361.4625
2158.6212	38319.6625
2161.57625	38304.0625
2164.52941	38288.0625
2167.48067	38243.9625
2170.43004	38267.6625
2173.37752	38264.2625
2176.32311	38311.6625
2179.26681	38352.3625
2182.20863	38342.2625
2185.14856	38408.3625
2188.08661	38355.6625
2191.02278	38370.5625
2193.95707	38377.7625
2196.88948	38333.7625
2199.82001	38332.6625
2202.74867	38356.3625
2205.67545	38313.0625
2208.60037	38266.9625
2211.52341	38296.4625
2214.44458	38272.8625
2217.36388	38244.8625
2220.28132	38194.3625
2223.1969	38110.6625
2226.11061	38096.6625
2229.02246	37936.4625
2231.93245	37896.1625
2234.84058	37824.5625
2237.74686	37804.7625
2240.65128	37797.3625
2243.55385	37667.4625
2246.45456	37670.8625
2249.35343	37629.8625
2252.25044	37548.7625
2255.14561	37491.1625
2258.03893	37504.0625
2260.93041	37484.4625
2263.82004	37378.1625
2266.70783	37285.0625
2269.59378	37150.9625
2272.4779	37129.7625
2275.36017	37049.3625
2278.24061	36988.6625
2281.11922	36937.8625
2283.996	36836.5625
2286.87094	36870.5625
2289.74405	36866.2625
2292.61534	36805.7625
2295.4848	36773.3625
2298.35243	36856.7625
2301.21824	36771.3625
2304.08223	36858.8625
2306.94439	36844.6625
2309.80474	36894.0625
2312.66327	36925.6625
2315.51999	36966.7625
2318.37489	36862.9625
2321.22797	36916.3625
2324.07925	36886.5625
2326.92871	36858.1625
2329.77637	36758.0625
2332.62222	36747.1625
2335.46626	36790.3625
2338.3085	36787.5625
2341.14893	36856.5625
2343.98756	36882.3625
2346.8244	36933.7625
2349.65943	36930.5625
2352.49267	36911.9625
2355.32411	36966.1625
2358.15376	36865.6625
2360.98161	36917.7625
2363.80768	36834.2625
2366.63195	36773.2625
2369.45444	36716.7625
2372.27514	36641.3625
2375.09405	36598.0625
2377.91118	36471.9625
2380.72652	36341.4625
2383.54009	36272.5625
2386.35187	36193.7625
2389.16188	36123.5625
2391.97011	36099.4625
2394.77657	36022.6625
2397.58125	36009.3625
2400.38416	35922.2625
2403.18529	35862.3625
2405.98466	35834.8625
2408.78226	35705.8625
2411.57809	35643.2625
2414.37216	35561.8625
2417.16446	35573.4625
2419.955	35524.6625
2422.74378	35516.9625
2425.5308	35433.4625
2428.31606	35454.2625
2431.09956	35502.6625
2433.88131	35451.3625
2436.6613	35444.3625
2439.43954	35437.0625
2442.21603	35405.8625
2444.99077	35400.3625
2447.76377	35397.2625
2450.53501	35335.2625
2453.30451	35392.9625
2456.07226	35312.5625
2458.83827	35287.8625
2461.60254	35241.9625
2464.36507	35267.2625
2467.12586	35292.5625
2469.88492	35277.7625
2472.64224	35330.1625
2475.39782	35322.8625
2478.15167	35355.3625
2480.90379	35393.1625
2483.65417	35470.9625
2486.40283	35485.6625
2489.14976	35525.5625
2491.89497	35557.8625
2494.63845	35607.5625
2497.3802	35611.1625
2500.12024	35611.8625
2502.85855	35535.9625
2505.59514	35540.8625
2508.33002	35487.0625
2511.06318	35409.6625
2513.79462	35373.9625
2516.52435	35302.5625
2519.25237	35296.8625
2521.97867	35246.2625
2524.70327	35274.0625
2527.42616	35214.7625
2530.14734	35290.3625
2532.86681	35175.9625
2535.58458	35129.1625
2538.30065	35163.2625
2541.01501	35208.8625
2543.72768	35204.8625
2546.43864	35174.4625
2549.14791	35087.0625
2551.85548	35047.3625
2554.56136	35015.2625
2557.26554	34935.6625
2559.96803	34920.2625
2562.66883	34874.3625
2565.36794	34886.8625
2568.06536	34873.8625
2570.7611	34808.9625
2573.45514	34782.0625
2576.14751	34764.3625
2578.83819	34754.2625
2581.52719	34806.6625
2584.21451	34755.4625
2586.90015	34758.3625
2589.58411	34712.1625
2592.2664	34759.8625
2594.94701	34716.1625
2597.62594	34738.3625
2600.30321	34797.5625
2602.9788	34769.1625
2605.65273	34838.3625
2608.32498	34812.7625
2610.99557	34735.0625
2613.66449	34818.8625
2616.33175	34747.1625
2618.99734	34804.1625
2621.66128	34774.6625
2624.32355	34781.4625
2626.98416	34795.4625
2629.64311	34744.3625
2632.30041	34776.6625
2634.95605	34751.1625
2637.61004	34738.0625
2640.26238	34703.5625
2642.91306	34644.9625
2645.56209	34587.3625
2648.20948	34567.8625
2650.85521	34550.7625
2653.4993	34548.6625
2656.14175	34505.8625
2658.78255	34561.6625
2661.42171	34595.9625
2664.05923	34639.3625
2666.6951	34611.1625
2669.32934	34674.3625
2671.96194	34740.0625
2674.59291	34783.4625
2677.22224	34788.3625
2679.84993	34812.9625
2682.476	34755.2625
2685.10043	34775.9625
2687.72324	34663.1625
2690.34441	34658.2625
2692.96396	34613.3625
2695.58188	34672.4625
2698.19818	34581.3625
2700.81285	34544.2625
2703.4259	34577.2625
2706.03733	34590.4625
2708.64714	34613.4625
2711.25533	34572.0625
2713.86191	34559.9625
2716.46687	34664.1625
2719.07021	34654.2625
2721.67194	34655.4625
2724.27206	34647.3625
2726.87057	34690.6625
2729.46747	34682.8625
2732.06276	34693.1625
2734.65644	34740.6625
2737.24852	34770.3625
2739.83899	34724.0625
2742.42786	34758.2625
2745.01513	34700.7625
2747.60079	34671.7625
2750.18486	34704.0625
2752.76733	34696.1625
2755.3482	34649.4625
2757.92747	34679.4625
2760.50515	34620.4625
2763.08123	34604.5625
2765.65573	34619.1625
2768.22863	34580.8625
2770.79994	34558.2625
2773.36967	34591.6625
2775.9378	34611.7625
2778.50435	34637.8625
2781.06932	34595.8625
2783.6327	34577.8625
2786.1945	34564.4625
2788.75471	34534.9625
2791.31335	34479.6625
2793.87041	34418.4625
2796.42589	34406.5625
2798.97979	34303.1625
2801.53212	34233.0625
2804.08288	34247.9625
2806.63206	34158.0625
2809.17967	34154.6625
2811.72571	34029.6625
2814.27018	33964.7625
2816.81308	33908.3625
2819.35442	33835.5625
2821.89419	33853.7625
2824.43239	33880.5625
2826.96904	33871.2625
2829.50412	33907.5625
2832.03763	33851.5625
2834.56959	33774.7625
2837.1	33747.7625
2839.62884	33742.5625
2842.15613	33692.3625
2844.68186	33713.8625
2847.20604	33669.2625
2849.72867	33622.0625
2852.24974	33536.3625
2854.76927	33557.3625
2857.28724	33484.3625
2859.80367	33532.4625
2862.31855	33500.3625
2864.83189	33478.3625
2867.34368	33345.0625
2869.85393	33404.7625
2872.36264	33373.0625
2874.8698	33347.7625
2877.37543	33325.8625
2879.87952	33305.8625
2882.38207	33359.4625
2884.88308	33294.4625
2887.38256	33331.8625
2889.88051	33375.2625
2892.37692	33394.6625
2894.8718	33353.7625
2897.36515	33425.1625
2899.85698	33413.9625
2902.34727	33494.4625
2904.83604	33501.9625
2907.32328	33553.8625
2909.809	33485.9625
2912.29319	33587.9625
2914.77587	33615.0625
2917.25702	33590.1625
2919.73665	33514.0625
2922.21476	33481.6625
2924.69136	33409.3625
2927.16644	33406.0625
2929.64	33406.3625
2932.11205	33379.4625
2934.58258	33266.2625
2937.05161	33359.2625
2939.51912	33321.9625
2941.98513	33302.4625
2944.44962	33231.6625
2946.91261	33166.3625
2949.37409	33237.8625
2951.83407	33174.6625
2954.29254	33187.2625
2956.74951	33184.6625
2959.20498	33157.6625
2961.65895	33120.3625
2964.11142	33119.1625
2966.56239	33040.6625
2969.01186	33029.0625
2971.45984	32903.3625
2973.90632	32831.9625
2976.35131	32786.0625
2978.7948	32746.4625
2981.23681	32706.8625
2983.67732	32647.7625
2986.11635	32543.3625
2988.55388	32491.4625
2990.98993	32470.0625
2993.4245	32386.0625
2995.85758	32347.3625
2998.28917	32229.5625
3000.71928	32175.9625
3003.14791	32114.7625
3005.57506	32099.3625
3008.00073	31971.2625
3010.42493	31986.1625
3012.84764	31916.1625
3015.26888	31851.3625
3017.68865	31764.4625
3020.10694	31720.4625
3022.52376	31665.5625
3024.9391	31612.7625
3027.35298	31608.5625
3029.76539	31557.4625
3032.17632	31546.3625
3034.5858	31522.4625
3036.9938	31517.4625
3039.40034	31436.0625
3041.80542	31487.6625
3044.20903	31399.2625
3046.61118	31358.8625
3049.01187	31280.0625
3051.4111	31196.2625
3053.80888	31136.7625
3056.20519	31107.7625
3058.60005	31009.5625
3060.99345	30971.8625
3063.3854	30827.1625
3065.7759	30712.3625
3068.16494	30643.0625
3070.55254	30538.9625
3072.93868	30472.6625
3075.32338	30316.7625
3077.70662	30291.6625
3080.08842	30148.9625
3082.46878	30099.5625
3084.84769	30073.2625
3087.22515	30039.1625
3089.60118	30059.2625
3091.97576	30042.7625
3094.3489	30006.4625
3096.72061	29983.7625
3099.09087	29965.9625
3101.4597	29931.0625
3103.82709	29948.5625
3106.19305	29909.1625
3108.55757	29872.8625
3110.92066	29809.9625
3113.28232	29777.5625
3115.64255	29667.3625
3118.00134	29604.7625
3120.35871	29525.9625
3122.71466	29449.7625
3125.06917	29423.9625
3127.42226	29373.5625
3129.77393	29398.1625
3132.12417	29295.2625
3134.47299	29285.5625
3136.82039	29223.3625
3139.16636	29271.8625
3141.51092	29174.8625
3143.85406	29206.4625
3146.19579	29168.3625
3148.53609	29170.4625
3150.87499	29185.5625
3153.21246	29127.7625
3155.54853	29184.1625
3157.88318	29102.3625
3160.21642	29135.4625
3162.54826	29112.0625
3164.87868	29061.0625
3167.2077	29056.4625
3169.5353	28998.2625
3171.86151	29006.8625
3174.18631	29000.6625
3176.5097	28963.3625
3178.83169	28961.2625
3181.15228	28909.0625
3183.47147	28808.8625
3185.78926	28830.3625
3188.10565	28778.0625
3190.42065	28774.1625
3192.73424	28752.1625
3195.04645	28686.3625
3197.35725	28691.3625
3199.66667	28662.3625
3201.97469	28653.5625
3204.28132	28638.6625
3206.58656	28621.9625
3208.8904	28675.3625
3211.19287	28669.4625
3213.49394	28701.0625
3215.79363	28705.7625
3218.09193	28695.1625
3220.38884	28715.0625
3222.68438	28717.1625
3224.97853	28637.4625
3227.2713	28579.9625
3229.56269	28567.3625
3231.8527	28602.6625
3234.14133	28563.0625
3236.42858	28477.4625
3238.71446	28448.5625
3240.99896	28389.7625
3243.28209	28369.3625
3245.56384	28318.3625
3247.84423	28297.1625
3250.12324	28252.2625
3252.40088	28226.7625
3254.67715	28223.6625
3256.95205	28175.2625
3259.22558	28186.0625
3261.49775	28127.2625
3263.76855	28146.9625
3266.03799	28057.3625
3268.30606	28046.6625
3270.57277	27983.7625
3272.83812	27920.3625
3275.10211	27845.5625
3277.36474	27793.6625
3279.62601	27830.7625
3281.88593	27774.8625
3284.14448	27797.1625
3286.40168	27774.7625
3288.65753	27780.1625
3290.91202	27732.1625
3293.16516	27703.9625
3295.41695	27639.9625
3297.66738	27452.9625
3299.91647	27347.4625
3302.16421	27174.4625
3304.4106	27060.9625
3306.65564	26910.1625
3308.89933	26670.2625
3311.14169	26546.0625
3313.38269	26358.1625
3315.62236	26212.9625
3317.86068	25958.9625
3320.09766	25762.0625
3322.3333	25574.5625
3324.5676	25458.1625
3326.80056	25088.0625
3329.03219	24955.3625
3331.26248	5.3625
3333.49143	1.1625
3335.71905	-0.6375
