Data from AgNPs_FTO_APTES_UA_20uM_CRN_500uM_R6G_10uM_NaF_0.1M_Addition_RamanShift__11__18-44-54-969.txt Node

Date: Thu Feb 17 18:44:54 GMT 2022
User: TCL
Spectrometer: QEP01345
Trigger mode: 4
Integration Time (sec): 1.000000E1
Scans to average: 7
Electric dark correction enabled: true
Nonlinearity correction enabled: false
Boxcar width: 0
XAxis mode: Raman Shifts
Number of Pixels in Spectrum: 1044
>>>>>Begin Spectral Data<<<<<
46.04893	-0.23214
50.45542	-1.375
54.85868	0.19643
59.25871	-1.23214
63.6555	70.05357
68.04907	68.91071
72.43941	75.05357
76.82654	77.91071
81.21044	83.76786
85.59113	80.76786
89.96862	90.625
94.34289	90.33929
98.71396	94.91071
103.08183	95.19643
107.4465	95.76786
111.80798	98.76786
116.16626	103.33929
120.52136	99.91071
124.87327	112.48214
129.222	110.05357
133.56755	114.48214
137.90993	129.19643
142.24913	139.625
146.58517	149.19643
150.91804	171.05357
155.24774	200.625
159.57429	244.76786
163.89768	308.19643
168.21792	411.05357
172.53501	550.48214
176.84895	773.625
181.15975	1088.48214
185.46741	1554.48214
189.77193	2146.33929
194.07331	2891.19643
198.37157	3753.48214
202.6667	4649.33929
206.9587	5577.625
211.24758	6471.76786
215.53334	7358.48214
219.81599	8246.33929
224.09553	9226.05357
228.37195	10315.625
232.64527	11555.625
236.91549	12837.48214
241.18261	14137.05357
245.44663	15448.48214
249.70755	16634.48214
253.96539	17628.48214
258.22014	18497.05357
262.4718	19178.33929
266.72039	19599.625
270.96589	19802.91071
275.20832	19779.33929
279.44768	19602.33929
283.68397	19369.33929
287.91719	19115.19643
292.14735	18922.48214
296.37445	18802.76786
300.59849	18740.33929
304.81948	18769.33929
309.03742	18734.48214
313.25231	18780.05357
317.46415	18634.33929
321.67296	18447.05357
325.87872	18285.91071
330.08145	18218.625
334.28114	18251.33929
338.47781	18413.05357
342.67145	18631.05357
346.86207	18854.91071
351.04966	19151.76786
355.23424	19468.76786
359.4158	19738.33929
363.59435	20030.33929
367.76989	20171.48214
371.94243	20354.91071
376.11196	20454.91071
380.27849	20593.91071
384.44203	20719.48214
388.60257	20853.625
392.76012	21061.48214
396.91468	21255.625
401.06626	21478.48214
405.21485	21668.33929
409.36047	21676.91071
413.50311	21509.48214
417.64277	21365.91071
421.77947	21332.33929
425.9132	21409.19643
430.04396	21509.33929
434.17176	21658.76786
438.2966	21836.625
442.41849	22088.19643
446.53742	22370.33929
450.6534	22670.05357
454.76644	22887.91071
458.87653	23009.625
462.98368	23087.33929
467.08789	23055.48214
471.18916	23001.76786
475.2875	22816.625
479.38291	22638.19643
483.4754	22515.05357
487.56496	22389.33929
491.6516	22365.19643
495.73531	22369.91071
499.81612	22302.76786
503.89401	22448.33929
507.96899	22511.91071
512.04106	22620.76786
516.11023	22651.76786
520.1765	22661.91071
524.23987	22674.625
528.30034	22658.33929
532.35792	22620.48214
536.41261	22571.05357
540.46441	22494.48214
544.51333	22515.19643
548.55936	22588.05357
552.60252	22805.48214
556.64279	23016.48214
560.6802	23126.33929
564.71473	23143.05357
568.7464	23195.33929
572.7752	23306.48214
576.80114	23475.05357
580.82422	23670.33929
584.84444	23896.33929
588.86181	24101.33929
592.87633	24409.91071
596.888	24581.05357
600.89682	24753.625
604.9028	25167.19643
608.90594	26374.19643
612.90624	27886.76786
616.90371	27242.05357
620.89834	24821.625
624.89015	23528.625
628.87913	23354.19643
632.86528	23482.19643
636.84862	23646.05357
640.82913	23551.48214
644.80683	23366.19643
648.78172	23137.33929
652.75379	23159.625
656.72306	23325.91071
660.68952	23595.76786
664.65319	23556.05357
668.61405	23389.19643
672.57211	23391.76786
676.52738	23605.625
680.47986	23657.76786
684.42955	23690.48214
688.37646	23586.625
692.32058	23570.91071
696.26192	23654.76786
700.20048	23787.05357
704.13626	23898.91071
708.06928	23896.625
711.99952	23787.48214
715.927	23751.76786
719.85171	23729.05357
723.77365	23724.76786
727.69284	23652.625
731.60928	23548.91071
735.52295	23533.19643
739.43388	23529.91071
743.34206	23571.625
747.24749	23656.91071
751.15017	23665.33929
755.05012	23788.76786
758.94733	24086.625
762.8418	24680.33929
766.73354	25628.05357
770.62254	26627.625
774.50882	27001.76786
778.39237	26567.19643
782.27321	25624.48214
786.15132	24760.33929
790.02671	24103.48214
793.89938	23782.19643
797.76935	23572.33929
801.6366	23502.48214
805.50115	23466.76786
809.36299	23387.05357
813.22213	23320.48214
817.07857	23303.19643
820.93231	23291.48214
824.78336	23329.48214
828.63172	23371.625
832.47738	23342.625
836.32036	23356.76786
840.16066	23344.91071
843.99827	23355.625
847.8332	23358.91071
851.66546	23415.625
855.49504	23458.19643
859.32195	23474.91071
863.1462	23460.91071
866.96777	23492.625
870.78668	23519.625
874.60293	23531.91071
878.41652	23566.33929
882.22745	23642.05357
886.03573	23641.33929
889.84136	23683.625
893.64433	23647.33929
897.44466	23621.48214
901.24235	23624.48214
905.0374	23564.625
908.8298	23560.76786
912.61957	23477.05357
916.40671	23527.33929
920.19121	23645.76786
923.97308	23637.91071
927.75233	23672.91071
931.52895	23628.33929
935.30295	23507.625
939.07433	23361.76786
942.84309	23260.91071
946.60924	23131.05357
950.37278	23096.625
954.13371	22989.76786
957.89203	23011.33929
961.64774	23043.91071
965.40086	22995.05357
969.15137	22948.19643
972.89929	22929.33929
976.64461	22925.76786
980.38733	22871.48214
984.12747	22911.91071
987.86502	22973.91071
991.59999	23034.76786
995.33237	23087.91071
999.06217	23207.05357
1002.78939	23370.33929
1006.51404	23512.91071
1010.23611	23741.625
1013.95561	23866.19643
1017.67255	23979.91071
1021.38692	23918.91071
1025.09872	23775.48214
1028.80796	23631.19643
1032.51465	23585.76786
1036.21877	23529.76786
1039.92035	23558.19643
1043.61937	23650.48214
1047.31584	23678.19643
1051.00976	23775.91071
1054.70114	23859.625
1058.38998	23850.91071
1062.07627	23919.625
1065.76003	24047.19643
1069.44126	24130.33929
1073.11995	24320.05357
1076.79611	24474.33929
1080.46974	24623.48214
1084.14085	24693.76786
1087.80943	24728.05357
1091.47549	24809.33929
1095.13903	24769.19643
1098.80005	24725.05357
1102.45857	24531.625
1106.11456	24404.625
1109.76805	24322.05357
1113.41903	24287.33929
1117.06751	24336.19643
1120.71348	24504.33929
1124.35696	24651.19643
1127.99793	24819.19643
1131.63641	24901.19643
1135.2724	24839.48214
1138.90589	24692.33929
1142.5369	24621.33929
1146.16542	24565.05357
1149.79145	24556.76786
1153.415	24486.19643
1157.03607	24555.76786
1160.65467	24728.625
1164.27079	24976.33929
1167.88443	25373.19643
1171.49561	25999.48214
1175.10432	26766.91071
1178.71056	27766.625
1182.31434	28766.625
1185.91565	29408.91071
1189.51451	29603.76786
1193.11091	29550.33929
1196.70485	29204.05357
1200.29634	28703.05357
1203.88538	28141.33929
1207.47197	27537.625
1211.05612	26970.91071
1214.63782	26558.33929
1218.21708	26181.91071
1221.79391	25956.76786
1225.36829	25909.48214
1228.94024	25822.05357
1232.50976	25830.19643
1236.07685	25741.05357
1239.6415	25764.91071
1243.20374	25798.91071
1246.76355	25852.48214
1250.32093	25915.05357
1253.8759	26083.625
1257.42845	26319.05357
1260.97859	26614.19643
1264.52631	26955.48214
1268.07163	27243.48214
1271.61453	27461.48214
1275.15503	27615.76786
1278.69312	27878.05357
1282.22882	28054.33929
1285.76211	28249.48214
1289.29301	28569.91071
1292.82151	28875.19643
1296.34761	29337.05357
1299.87133	29901.19643
1303.39266	30535.625
1306.9116	31375.05357
1310.42815	32211.33929
1313.94233	32748.19643
1317.45412	32609.76786
1320.96354	32208.05357
1324.47058	31693.91071
1327.97525	31214.91071
1331.47754	30909.48214
1334.97747	30836.48214
1338.47502	30970.05357
1341.97022	31415.625
1345.46305	31966.05357
1348.95352	32653.91071
1352.44163	33313.625
1355.92738	33894.625
1359.41078	34573.76786
1362.89183	35217.33929
1366.37053	34762.76786
1369.84688	32966.76786
1373.32088	30815.625
1376.79254	29179.48214
1380.26186	28249.33929
1383.72883	27760.625
1387.19347	27387.48214
1390.65578	26979.05357
1394.11575	26702.91071
1397.57339	26495.76786
1401.0287	26433.76786
1404.48168	26366.19643
1407.93234	26394.48214
1411.38068	26364.33929
1414.82669	26278.76786
1418.27039	26068.625
1421.71177	25815.48214
1425.15083	25591.91071
1428.58758	25358.76786
1432.02203	25322.48214
1435.45416	25322.76786
1438.88399	25456.19643
1442.31151	25578.19643
1445.73673	25658.625
1449.15965	25693.48214
1452.58027	25782.05357
1455.9986	25840.625
1459.41463	25872.33929
1462.82837	26048.19643
1466.23982	26348.91071
1469.64898	26711.05357
1473.05586	26993.19643
1476.46045	27207.76786
1479.86276	27352.33929
1483.26279	27452.76786
1486.66054	27588.625
1490.05602	27791.05357
1493.44922	28248.05357
1496.84016	28846.76786
1500.22882	29614.76786
1503.61521	30639.19643
1506.99934	31660.33929
1510.38121	32260.19643
1513.76081	32208.91071
1517.13816	31413.19643
1520.51324	30271.19643
1523.88607	29331.19643
1527.25665	28747.48214
1530.62498	28369.76786
1533.99105	28192.76786
1537.35488	28047.48214
1540.71647	27942.91071
1544.07581	27734.19643
1547.4329	27528.19643
1550.78776	27265.19643
1554.14038	27068.05357
1557.49077	26907.91071
1560.83892	26904.33929
1564.18484	27027.48214
1567.52853	27168.48214
1570.86999	27348.19643
1574.20922	27466.19643
1577.54624	27530.91071
1580.88103	27217.76786
1584.2136	26837.76786
1587.54395	26597.19643
1590.87208	26692.76786
1594.19801	27194.19643
1597.52172	27867.91071
1600.84321	28278.33929
1604.16251	28189.05357
1607.47959	27738.76786
1610.79447	27025.91071
1614.10715	26249.91071
1617.41763	25456.33929
1620.7259	24815.91071
1624.03199	24303.91071
1627.33587	24061.19643
1630.63757	24108.625
1633.93707	24429.76786
1637.23439	25058.91071
1640.52951	26034.48214
1643.82246	27327.48214
1647.11321	28640.76786
1650.40179	29394.76786
1653.68819	29010.19643
1656.97241	27587.91071
1660.25446	25864.33929
1663.53433	24450.91071
1666.81203	23466.33929
1670.08756	22807.05357
1673.36092	22409.19643
1676.63211	22155.05357
1679.90115	21938.625
1683.16801	21760.33929
1686.43272	21609.91071
1689.69527	21542.05357
1692.95567	21465.76786
1696.2139	21357.91071
1699.46999	21310.48214
1702.72392	21315.33929
1705.97571	21302.91071
1709.22535	21276.76786
1712.47284	21265.48214
1715.71819	21236.48214
1718.96139	21212.48214
1722.20246	21134.05357
1725.44139	21082.33929
1728.67818	21052.33929
1731.91284	20956.91071
1735.14537	20915.625
1738.37576	20867.33929
1741.60403	20784.91071
1744.83017	20721.33929
1748.05418	20657.625
1751.27607	20674.91071
1754.49584	20625.91071
1757.71349	20653.33929
1760.92903	20631.91071
1764.14244	20619.625
1767.35375	20564.625
1770.56294	20597.91071
1773.77002	20484.91071
1776.97499	20493.76786
1780.17785	20418.19643
1783.37861	20367.19643
1786.57727	20345.625
1789.77382	20286.33929
1792.96828	20232.76786
1796.16064	20176.625
1799.3509	20143.33929
1802.53907	20140.05357
1805.72514	20043.05357
1808.90913	20021.05357
1812.09102	19984.91071
1815.27083	19924.05357
1818.44856	19948.91071
1821.6242	19933.05357
1824.79776	19894.19643
1827.96924	19886.91071
1831.13864	19848.91071
1834.30597	19773.625
1837.47122	19796.19643
1840.6344	19750.19643
1843.7955	19767.33929
1846.95454	19775.33929
1850.11151	19738.33929
1853.26642	19723.05357
1856.41926	19683.19643
1859.57004	19692.48214
1862.71876	19624.625
1865.86542	19649.625
1869.01003	19598.76786
1872.15258	19634.33929
1875.29308	19599.33929
1878.43152	19573.19643
1881.56792	19533.48214
1884.70227	19518.05357
1887.83457	19463.91071
1890.96482	19430.625
1894.09304	19386.625
1897.21921	19370.48214
1900.34335	19362.48214
1903.46544	19343.76786
1906.58551	19305.19643
1909.70353	19253.33929
1912.81953	19230.91071
1915.93349	19235.05357
1919.04543	19193.05357
1922.15534	19173.19643
1925.26322	19151.19643
1928.36908	19100.33929
1931.47292	19081.76786
1934.57473	19051.33929
1937.67453	18985.33929
1940.77232	18933.91071
1943.86808	18882.19643
1946.96184	18815.76786
1950.05358	18763.76786
1953.14331	18745.33929
1956.23103	18708.48214
1959.31675	18668.33929
1962.40046	18585.05357
1965.48217	18548.76786
1968.56188	18500.91071
1971.63959	18435.48214
1974.7153	18406.76786
1977.78901	18310.33929
1980.86073	18254.91071
1983.93046	18205.48214
1986.99819	18116.19643
1990.06394	18083.19643
1993.1277	18056.33929
1996.18947	18018.91071
1999.24925	17975.91071
2002.30706	17892.91071
2005.36288	17803.19643
2008.41672	17754.91071
2011.46859	17703.05357
2014.51848	17657.625
2017.56639	17548.91071
2020.61233	17531.19643
2023.6563	17515.05357
2026.6983	17428.625
2029.73833	17427.76786
2032.7764	17347.33929
2035.8125	17270.05357
2038.84664	17243.48214
2041.87881	17274.625
2044.90903	17211.19643
2047.93729	17189.48214
2050.96359	17166.76786
2053.98794	17110.625
2057.01034	17138.05357
2060.03078	17111.33929
2063.04927	17087.625
2066.06582	17100.48214
2069.08042	17080.91071
2072.09307	16995.48214
2075.10378	17022.48214
2078.11255	17038.19643
2081.11938	17041.76786
2084.12426	17004.625
2087.12722	17027.625
2090.12824	17022.91071
2093.12732	17005.33929
2096.12447	17030.76786
2099.11969	16989.91071
2102.11299	16999.48214
2105.10435	17001.91071
2108.09379	17003.76786
2111.08131	17011.91071
2114.0669	17059.625
2117.05057	17034.33929
2120.03233	17072.33929
2123.01216	17060.91071
2125.99008	17099.625
2128.96609	17100.33929
2131.94018	17104.19643
2134.91236	17116.76786
2137.88263	17087.33929
2140.851	17132.48214
2143.81746	17142.05357
2146.78201	17143.19643
2149.74466	17128.33929
2152.7054	17142.33929
2155.66425	17108.19643
2158.6212	17114.19643
2161.57625	17097.33929
2164.52941	17067.625
2167.48067	17036.33929
2170.43004	17058.19643
2173.37752	17063.33929
2176.32311	17057.48214
2179.26681	17044.05357
2182.20863	17033.625
2185.14856	17028.91071
2188.08661	17001.76786
2191.02278	17020.76786
2193.95707	17009.91071
2196.88948	16968.33929
2199.82001	16969.48214
2202.74867	16972.625
2205.67545	16927.05357
2208.60037	16912.625
2211.52341	16844.19643
2214.44458	16811.76786
2217.36388	16823.91071
2220.28132	16749.48214
2223.1969	16725.48214
2226.11061	16733.76786
2229.02246	16696.625
2231.93245	16611.33929
2234.84058	16606.19643
2237.74686	16575.91071
2240.65128	16583.625
2243.55385	16567.05357
2246.45456	16519.76786
2249.35343	16498.33929
2252.25044	16522.76786
2255.14561	16481.76786
2258.03893	16449.76786
2260.93041	16422.91071
2263.82004	16364.625
2266.70783	16340.625
2269.59378	16253.48214
2272.4779	16261.33929
2275.36017	16221.05357
2278.24061	16207.625
2281.11922	16142.05357
2283.996	16100.76786
2286.87094	16111.48214
2289.74405	16078.05357
2292.61534	16024.76786
2295.4848	16019.625
2298.35243	16003.05357
2301.21824	15982.19643
2304.08223	15952.76786
2306.94439	15940.91071
2309.80474	15904.625
2312.66327	15922.19643
2315.51999	15881.33929
2318.37489	15871.91071
2321.22797	15818.48214
2324.07925	15795.76786
2326.92871	15787.48214
2329.77637	15759.33929
2332.62222	15719.91071
2335.46626	15675.33929
2338.3085	15697.76786
2341.14893	15651.48214
2343.98756	15635.91071
2346.8244	15638.625
2349.65943	15618.625
2352.49267	15570.48214
2355.32411	15578.76786
2358.15376	15573.48214
2360.98161	15551.05357
2363.80768	15549.76786
2366.63195	15498.19643
2369.45444	15495.05357
2372.27514	15474.91071
2375.09405	15442.76786
2377.91118	15407.33929
2380.72652	15406.91071
2383.54009	15367.48214
2386.35187	15338.625
2389.16188	15267.48214
2391.97011	15248.48214
2394.77657	15236.91071
2397.58125	15178.19643
2400.38416	15215.33929
2403.18529	15164.48214
2405.98466	15142.76786
2408.78226	15095.33929
2411.57809	15094.19643
2414.37216	15073.625
2417.16446	15061.48214
2419.955	15032.33929
2422.74378	15011.33929
2425.5308	15013.91071
2428.31606	14949.33929
2431.09956	14960.91071
2433.88131	14950.19643
2436.6613	14938.91071
2439.43954	14909.19643
2442.21603	14922.76786
2444.99077	14871.33929
2447.76377	14855.05357
2450.53501	14860.33929
2453.30451	14830.19643
2456.07226	14838.19643
2458.83827	14797.19643
2461.60254	14791.76786
2464.36507	14764.19643
2467.12586	14717.48214
2469.88492	14691.625
2472.64224	14697.33929
2475.39782	14657.91071
2478.15167	14669.33929
2480.90379	14686.48214
2483.65417	14677.48214
2486.40283	14674.19643
2489.14976	14631.05357
2491.89497	14655.625
2494.63845	14666.91071
2497.3802	14601.76786
2500.12024	14585.625
2502.85855	14586.33929
2505.59514	14538.05357
2508.33002	14505.33929
2511.06318	14502.33929
2513.79462	14483.33929
2516.52435	14465.91071
2519.25237	14431.91071
2521.97867	14451.33929
2524.70327	14407.76786
2527.42616	14404.33929
2530.14734	14395.76786
2532.86681	14355.76786
2535.58458	14320.625
2538.30065	14305.33929
2541.01501	14272.76786
2543.72768	14271.33929
2546.43864	14225.48214
2549.14791	14232.05357
2551.85548	14160.48214
2554.56136	14173.76786
2557.26554	14099.48214
2559.96803	14106.48214
2562.66883	14069.91071
2565.36794	14025.05357
2568.06536	14015.625
2570.7611	13985.05357
2573.45514	13949.625
2576.14751	13938.05357
2578.83819	13890.91071
2581.52719	13903.48214
2584.21451	13815.76786
2586.90015	13821.625
2589.58411	13812.33929
2592.2664	13777.625
2594.94701	13747.05357
2597.62594	13706.625
2600.30321	13672.48214
2602.9788	13670.48214
2605.65273	13596.19643
2608.32498	13608.19643
2610.99557	13597.48214
2613.66449	13590.625
2616.33175	13540.33929
2618.99734	13570.05357
2621.66128	13507.48214
2624.32355	13528.625
2626.98416	13463.91071
2629.64311	13484.48214
2632.30041	13430.19643
2634.95605	13412.625
2637.61004	13351.33929
2640.26238	13359.625
2642.91306	13385.19643
2645.56209	13355.76786
2648.20948	13359.33929
2650.85521	13334.19643
2653.4993	13318.76786
2656.14175	13299.05357
2658.78255	13332.48214
2661.42171	13325.05357
2664.05923	13329.48214
2666.6951	13334.625
2669.32934	13282.91071
2671.96194	13290.05357
2674.59291	13322.76786
2677.22224	13272.33929
2679.84993	13284.625
2682.476	13263.91071
2685.10043	13266.48214
2687.72324	13254.19643
2690.34441	13244.05357
2692.96396	13249.625
2695.58188	13243.48214
2698.19818	13235.625
2700.81285	13227.05357
2703.4259	13206.625
2706.03733	13222.05357
2708.64714	13239.05357
2711.25533	13242.33929
2713.86191	13208.48214
2716.46687	13257.48214
2719.07021	13231.19643
2721.67194	13199.91071
2724.27206	13210.625
2726.87057	13207.625
2729.46747	13202.05357
2732.06276	13193.33929
2734.65644	13167.91071
2737.24852	13174.76786
2739.83899	13155.625
2742.42786	13168.05357
2745.01513	13140.33929
2747.60079	13077.05357
2750.18486	13056.76786
2752.76733	13057.76786
2755.3482	13026.33929
2757.92747	13057.33929
2760.50515	13028.19643
2763.08123	12984.76786
2765.65573	12953.33929
2768.22863	12932.33929
2770.79994	12926.05357
2773.36967	12896.19643
2775.9378	12886.625
2778.50435	12891.76786
2781.06932	12846.48214
2783.6327	12849.19643
2786.1945	12822.33929
2788.75471	12784.76786
2791.31335	12761.19643
2793.87041	12753.625
2796.42589	12710.76786
2798.97979	12701.76786
2801.53212	12631.48214
2804.08288	12679.19643
2806.63206	12591.48214
2809.17967	12596.91071
2811.72571	12541.76786
2814.27018	12549.76786
2816.81308	12453.05357
2819.35442	12469.33929
2821.89419	12421.33929
2824.43239	12393.19643
2826.96904	12394.33929
2829.50412	12391.05357
2832.03763	12379.48214
2834.56959	12365.76786
2837.1	12356.48214
2839.62884	12316.33929
2842.15613	12316.33929
2844.68186	12340.91071
2847.20604	12302.05357
2849.72867	12310.33929
2852.24974	12318.33929
2854.76927	12259.19643
2857.28724	12235.91071
2859.80367	12224.05357
2862.31855	12178.76786
2864.83189	12143.625
2867.34368	12148.76786
2869.85393	12139.48214
2872.36264	12121.625
2874.8698	12127.91071
2877.37543	12098.76786
2879.87952	12090.48214
2882.38207	12063.76786
2884.88308	12051.91071
2887.38256	12050.05357
2889.88051	12072.625
2892.37692	12107.91071
2894.8718	12073.19643
2897.36515	12064.33929
2899.85698	12053.76786
2902.34727	12063.48214
2904.83604	12083.48214
2907.32328	12087.91071
2909.809	12085.48214
2912.29319	12100.91071
2914.77587	12075.05357
2917.25702	12098.33929
2919.73665	12068.48214
2922.21476	12085.33929
2924.69136	12082.19643
2927.16644	12072.76786
2929.64	12058.91071
2932.11205	12045.91071
2934.58258	12040.05357
2937.05161	12021.19643
2939.51912	12017.33929
2941.98513	11996.48214
2944.44962	12015.33929
2946.91261	11972.33929
2949.37409	11967.48214
2951.83407	11977.48214
2954.29254	11886.05357
2956.74951	11926.33929
2959.20498	11908.33929
2961.65895	11902.91071
2964.11142	11926.05357
2966.56239	11864.05357
2969.01186	11861.625
2971.45984	11842.625
2973.90632	11788.19643
2976.35131	11775.33929
2978.7948	11791.91071
2981.23681	11767.91071
2983.67732	11746.91071
2986.11635	11709.625
2988.55388	11668.625
2990.98993	11665.33929
2993.4245	11622.33929
2995.85758	11637.625
2998.28917	11609.19643
3000.71928	11571.625
3003.14791	11541.76786
3005.57506	11536.76786
3008.00073	11524.05357
3010.42493	11509.05357
3012.84764	11476.19643
3015.26888	11466.76786
3017.68865	11428.48214
3020.10694	11450.91071
3022.52376	11392.05357
3024.9391	11392.05357
3027.35298	11366.625
3029.76539	11351.19643
3032.17632	11325.91071
3034.5858	11335.625
3036.9938	11340.19643
3039.40034	11303.76786
3041.80542	11282.33929
3044.20903	11281.33929
3046.61118	11268.91071
3049.01187	11237.33929
3051.4111	11215.05357
3053.80888	11192.48214
3056.20519	11165.91071
3058.60005	11150.76786
3060.99345	11131.05357
3063.3854	11118.76786
3065.7759	11093.33929
3068.16494	11052.48214
3070.55254	11044.76786
3072.93868	11011.76786
3075.32338	10987.19643
3077.70662	10961.91071
3080.08842	10934.91071
3082.46878	10940.19643
3084.84769	10934.33929
3087.22515	10913.76786
3089.60118	10914.48214
3091.97576	10923.19643
3094.3489	10921.48214
3096.72061	10916.625
3099.09087	10923.48214
3101.4597	10920.76786
3103.82709	10925.625
3106.19305	10881.33929
3108.55757	10918.05357
3110.92066	10895.91071
3113.28232	10861.76786
3115.64255	10832.76786
3118.00134	10810.48214
3120.35871	10781.91071
3122.71466	10765.33929
3125.06917	10784.625
3127.42226	10740.48214
3129.77393	10768.19643
3132.12417	10734.76786
3134.47299	10730.625
3136.82039	10730.33929
3139.16636	10707.625
3141.51092	10718.91071
3143.85406	10708.625
3146.19579	10747.05357
3148.53609	10734.76786
3150.87499	10733.91071
3153.21246	10746.91071
3155.54853	10760.33929
3157.88318	10749.05357
3160.21642	10776.05357
3162.54826	10780.05357
3164.87868	10754.05357
3167.2077	10746.76786
3169.5353	10766.05357
3171.86151	10762.19643
3174.18631	10764.625
3176.5097	10758.76786
3178.83169	10730.48214
3181.15228	10704.625
3183.47147	10683.48214
3185.78926	10656.76786
3188.10565	10674.76786
3190.42065	10659.05357
3192.73424	10636.48214
3195.04645	10620.76786
3197.35725	10640.19643
3199.66667	10609.625
3201.97469	10623.76786
3204.28132	10632.33929
3206.58656	10653.91071
3208.8904	10648.05357
3211.19287	10697.91071
3213.49394	10681.33929
3215.79363	10666.91071
3218.09193	10697.19643
3220.38884	10675.625
3222.68438	10673.05357
3224.97853	10679.33929
3227.2713	10665.76786
3229.56269	10647.05357
3231.8527	10644.05357
3234.14133	10625.19643
3236.42858	10562.91071
3238.71446	10553.625
3240.99896	10525.48214
3243.28209	10503.19643
3245.56384	10470.625
3247.84423	10481.19643
3250.12324	10501.91071
3252.40088	10498.91071
3254.67715	10473.19643
3256.95205	10507.05357
3259.22558	10456.91071
3261.49775	10439.76786
3263.76855	10434.19643
3266.03799	10426.625
3268.30606	10394.91071
3270.57277	10381.625
3272.83812	10336.33929
3275.10211	10322.05357
3277.36474	10304.625
3279.62601	10286.19643
3281.88593	10285.625
3284.14448	10290.625
3286.40168	10264.48214
3288.65753	10277.91071
3290.91202	10242.76786
3293.16516	10226.48214
3295.41695	10213.05357
3297.66738	10166.91071
3299.91647	10107.48214
3302.16421	10042.48214
3304.4106	10007.625
3306.65564	9926.33929
3308.89933	9837.91071
3311.14169	9809.91071
3313.38269	9701.625
3315.62236	9671.91071
3317.86068	9576.19643
3320.09766	9512.05357
3322.3333	9444.625
3324.5676	9396.05357
3326.80056	9266.91071
3329.03219	9194.91071
3331.26248	2.05357
3333.49143	-0.08929
3335.71905	0.05357
