Data from AgNPs_FTO_APTES_UA_20uM_CRN_500uM_R6G_10uM_NaF_0.1M_Addition_RamanShift__15__18-49-34-975.txt Node

Date: Thu Feb 17 18:49:34 GMT 2022
User: TCL
Spectrometer: QEP01345
Trigger mode: 4
Integration Time (sec): 1.000000E1
Scans to average: 7
Electric dark correction enabled: true
Nonlinearity correction enabled: false
Boxcar width: 0
XAxis mode: Raman Shifts
Number of Pixels in Spectrum: 1044
>>>>>Begin Spectral Data<<<<<
46.04893	0.17857
50.45542	-1.25
54.85868	0.60714
59.25871	-2.53571
63.6555	84.17857
68.04907	83.60714
72.43941	89.60714
76.82654	90.03571
81.21044	91.17857
85.59113	97.03571
89.96862	99.75
94.34289	98.75
98.71396	104.75
103.08183	104.89286
107.4465	110.17857
111.80798	116.17857
116.16626	115.17857
120.52136	120.60714
124.87327	127.46429
129.222	129.32143
133.56755	140.60714
137.90993	152.03571
142.24913	163.60714
146.58517	180.60714
150.91804	203.89286
155.24774	247.17857
159.57429	301.32143
163.89768	384.32143
168.21792	506.60714
172.53501	695.32143
176.84895	975.46429
181.15975	1388.60714
185.46741	1948.46429
189.77193	2716.75
194.07331	3648.32143
198.37157	4771.46429
202.6667	5926.32143
206.9587	7090.03571
211.24758	8237.75
215.53334	9351.46429
219.81599	10525.03571
224.09553	11764.75
228.37195	13164.89286
232.64527	14660.46429
236.91549	16286.75
241.18261	17958.32143
245.44663	19612.75
249.70755	21075.17857
253.96539	22407.75
258.22014	23486.46429
262.4718	24366.03571
266.72039	24969.32143
270.96589	25299.32143
275.20832	25361.89286
279.44768	25151.32143
283.68397	24824.32143
287.91719	24528.03571
292.14735	24288.03571
296.37445	24092.17857
300.59849	24041.46429
304.81948	24080.89286
309.03742	24145.46429
313.25231	24049.60714
317.46415	23822.75
321.67296	23521.89286
325.87872	23237.89286
330.08145	23251.17857
334.28114	23336.46429
338.47781	23557.32143
342.67145	23885.60714
346.86207	24211.60714
351.04966	24690.03571
355.23424	25155.60714
359.4158	25564.46429
363.59435	26002.46429
367.76989	26237.89286
371.94243	26543.32143
376.11196	26712.32143
380.27849	26887.17857
384.44203	27095.60714
388.60257	27203.60714
392.76012	27356.89286
396.91468	27570.32143
401.06626	27834.46429
405.21485	28052.17857
409.36047	28080.60714
413.50311	27857.32143
417.64277	27583.32143
421.77947	27465.17857
425.9132	27459.17857
430.04396	27588.89286
434.17176	27754.03571
438.2966	28008.32143
442.41849	28257.17857
446.53742	28580.32143
450.6534	28958.60714
454.76644	29218.03571
458.87653	29445.17857
462.98368	29500.32143
467.08789	29514.75
471.18916	29460.32143
475.2875	29245.60714
479.38291	29178.75
483.4754	29024.03571
487.56496	28996.75
491.6516	28987.46429
495.73531	28973.46429
499.81612	28982.89286
503.89401	29145.75
507.96899	29262.17857
512.04106	29358.75
516.11023	29414.75
520.1765	29565.46429
524.23987	29538.32143
528.30034	29525.03571
532.35792	29510.46429
536.41261	29440.46429
540.46441	29353.75
544.51333	29329.03571
548.55936	29441.17857
552.60252	29554.03571
556.64279	29759.32143
560.6802	29936.89286
564.71473	29999.46429
568.7464	30057.32143
572.7752	30118.46429
576.80114	30074.03571
580.82422	30053.03571
584.84444	30127.75
588.86181	30207.75
592.87633	30350.89286
596.888	30506.89286
600.89682	30851.17857
604.9028	31750.17857
608.90594	33807.46429
612.90624	36230.03571
616.90371	35594.89286
620.89834	32289.46429
624.89015	30608.46429
628.87913	30323.89286
632.86528	30446.75
636.84862	30666.17857
640.82913	30613.03571
644.80683	30372.60714
648.78172	30177.89286
652.75379	30201.46429
656.72306	30483.89286
660.68952	30830.17857
664.65319	30862.32143
668.61405	30703.46429
672.57211	30731.89286
676.52738	31031.75
680.47986	31131.03571
684.42955	31016.89286
688.37646	30889.89286
692.32058	30868.75
696.26192	30923.60714
700.20048	31041.89286
704.13626	31169.60714
708.06928	31135.17857
711.99952	30961.46429
715.927	30907.17857
719.85171	30932.89286
723.77365	30970.75
727.69284	30913.75
731.60928	30822.60714
735.52295	30828.32143
739.43388	30799.32143
743.34206	30783.89286
747.24749	30823.17857
751.15017	30822.60714
755.05012	30959.89286
758.94733	31260.32143
762.8418	31818.89286
766.73354	32908.89286
770.62254	34188.03571
774.50882	34959.17857
778.39237	34615.60714
782.27321	33483.03571
786.15132	32308.32143
790.02671	31368.75
793.89938	30982.89286
797.76935	30776.89286
801.6366	30759.89286
805.50115	30706.89286
809.36299	30566.46429
813.22213	30481.89286
817.07857	30522.17857
820.93231	30540.46429
824.78336	30528.60714
828.63172	30594.32143
832.47738	30548.32143
836.32036	30633.60714
840.16066	30590.17857
843.99827	30603.03571
847.8332	30644.60714
851.66546	30675.46429
855.49504	30662.60714
859.32195	30750.46429
863.1462	30787.89286
866.96777	30831.03571
870.78668	30849.17857
874.60293	30939.89286
878.41652	30901.60714
882.22745	30977.60714
886.03573	31021.32143
889.84136	31017.75
893.64433	30936.60714
897.44466	30846.03571
901.24235	30837.75
905.0374	30778.89286
908.8298	30707.17857
912.61957	30580.17857
916.40671	30601.60714
920.19121	30656.32143
923.97308	30700.32143
927.75233	30744.32143
931.52895	30744.32143
935.30295	30734.75
939.07433	30570.46429
942.84309	30463.89286
946.60924	30335.32143
950.37278	30185.60714
954.13371	30161.03571
957.89203	30113.17857
961.64774	30087.17857
965.40086	30010.46429
969.15137	29982.75
972.89929	29949.46429
976.64461	29979.75
980.38733	29977.89286
984.12747	29993.32143
987.86502	30077.89286
991.59999	30185.03571
995.33237	30277.03571
999.06217	30403.89286
1002.78939	30519.03571
1006.51404	30662.17857
1010.23611	30902.17857
1013.95561	31026.89286
1017.67255	31057.17857
1021.38692	31053.03571
1025.09872	30827.89286
1028.80796	30804.89286
1032.51465	30799.60714
1036.21877	30894.03571
1039.92035	30948.46429
1043.61937	30939.32143
1047.31584	31001.03571
1051.00976	30985.17857
1054.70114	31009.32143
1058.38998	31039.89286
1062.07627	31058.46429
1065.76003	31174.03571
1069.44126	31261.03571
1073.11995	31374.32143
1076.79611	31640.75
1080.46974	31731.17857
1084.14085	31881.17857
1087.80943	31943.46429
1091.47549	32004.60714
1095.13903	31897.89286
1098.80005	31734.89286
1102.45857	31673.75
1106.11456	31586.17857
1109.76805	31555.03571
1113.41903	31510.46429
1117.06751	31613.46429
1120.71348	31723.60714
1124.35696	31904.32143
1127.99793	32097.60714
1131.63641	32160.75
1135.2724	31989.32143
1138.90589	31781.32143
1142.5369	31584.17857
1146.16542	31410.89286
1149.79145	31222.32143
1153.415	31135.46429
1157.03607	31106.03571
1160.65467	31259.03571
1164.27079	31521.32143
1167.88443	31924.32143
1171.49561	32567.46429
1175.10432	33504.89286
1178.71056	34568.32143
1182.31434	35724.89286
1185.91565	36402.03571
1189.51451	36491.03571
1193.11091	36172.03571
1196.70485	35488.60714
1200.29634	34909.17857
1203.88538	34315.75
1207.47197	33631.46429
1211.05612	33012.03571
1214.63782	32532.32143
1218.21708	32292.75
1221.79391	32133.60714
1225.36829	32057.17857
1228.94024	32065.89286
1232.50976	31957.89286
1236.07685	31918.60714
1239.6415	31956.60714
1243.20374	32010.75
1246.76355	32113.46429
1250.32093	32234.03571
1253.8759	32366.89286
1257.42845	32610.89286
1260.97859	32934.03571
1264.52631	33208.60714
1268.07163	33476.75
1271.61453	33823.46429
1275.15503	33994.46429
1278.69312	34136.03571
1282.22882	34218.03571
1285.76211	34315.46429
1289.29301	34513.17857
1292.82151	34766.17857
1296.34761	35196.46429
1299.87133	35681.32143
1303.39266	36458.17857
1306.9116	37460.60714
1310.42815	38601.75
1313.94233	39308.89286
1317.45412	39143.75
1320.96354	38485.03571
1324.47058	37713.60714
1327.97525	36905.03571
1331.47754	36392.75
1334.97747	36087.89286
1338.47502	36158.32143
1341.97022	36542.46429
1345.46305	37110.75
1348.95352	38013.03571
1352.44163	38948.17857
1355.92738	39935.89286
1359.41078	41222.89286
1362.89183	42287.46429
1366.37053	41795.32143
1369.84688	39367.32143
1373.32088	36719.32143
1376.79254	34861.60714
1380.26186	33808.32143
1383.72883	33203.89286
1387.19347	32759.32143
1390.65578	32395.89286
1394.11575	31873.17857
1397.57339	31554.03571
1401.0287	31357.46429
1404.48168	31331.46429
1407.93234	31304.60714
1411.38068	31358.46429
1414.82669	31447.89286
1418.27039	31330.75
1421.71177	31313.89286
1425.15083	31104.60714
1428.58758	30983.46429
1432.02203	30869.89286
1435.45416	30873.60714
1438.88399	30958.46429
1442.31151	30942.60714
1445.73673	31002.46429
1449.15965	31022.17857
1452.58027	31018.89286
1455.9986	30944.60714
1459.41463	30975.89286
1462.82837	31140.32143
1466.23982	31402.75
1469.64898	31712.32143
1473.05586	31952.17857
1476.46045	32181.75
1479.86276	32336.03571
1483.26279	32471.32143
1486.66054	32611.32143
1490.05602	32880.60714
1493.44922	33283.17857
1496.84016	34022.89286
1500.22882	34915.17857
1503.61521	36214.17857
1506.99934	37719.60714
1510.38121	38728.89286
1513.76081	38837.46429
1517.13816	37819.60714
1520.51324	36283.60714
1523.88607	34789.03571
1527.25665	33832.32143
1530.62498	33176.75
1533.99105	32896.60714
1537.35488	32733.03571
1540.71647	32628.60714
1544.07581	32512.17857
1547.4329	32443.32143
1550.78776	32372.89286
1554.14038	32271.03571
1557.49077	32258.89286
1560.83892	32367.46429
1564.18484	32543.32143
1567.52853	32752.60714
1570.86999	32939.03571
1574.20922	33080.32143
1577.54624	33110.03571
1580.88103	32706.32143
1584.2136	32096.32143
1587.54395	31802.89286
1590.87208	31826.46429
1594.19801	32229.75
1597.52172	32883.60714
1600.84321	33266.17857
1604.16251	33140.75
1607.47959	32728.75
1610.79447	32178.32143
1614.10715	31432.03571
1617.41763	30745.32143
1620.7259	30067.17857
1624.03199	29644.75
1627.33587	29450.03571
1630.63757	29484.75
1633.93707	29792.75
1637.23439	30371.17857
1640.52951	31210.46429
1643.82246	32465.32143
1647.11321	33839.75
1650.40179	34568.60714
1653.68819	34150.60714
1656.97241	32569.03571
1660.25446	30912.89286
1663.53433	29626.46429
1666.81203	28809.17857
1670.08756	28260.89286
1673.36092	27906.60714
1676.63211	27719.89286
1679.90115	27484.17857
1683.16801	27256.17857
1686.43272	27164.46429
1689.69527	27067.32143
1692.95567	27041.60714
1696.2139	26993.89286
1699.46999	26936.32143
1702.72392	26885.60714
1705.97571	26839.46429
1709.22535	26876.60714
1712.47284	26845.03571
1715.71819	26825.89286
1718.96139	26757.03571
1722.20246	26706.32143
1725.44139	26590.75
1728.67818	26572.75
1731.91284	26546.60714
1735.14537	26486.17857
1738.37576	26402.75
1741.60403	26350.46429
1744.83017	26238.32143
1748.05418	26273.17857
1751.27607	26233.46429
1754.49584	26226.60714
1757.71349	26199.17857
1760.92903	26201.60714
1764.14244	26182.89286
1767.35375	26086.89286
1770.56294	26014.60714
1773.77002	25980.60714
1776.97499	25943.89286
1780.17785	25845.89286
1783.37861	25835.03571
1786.57727	25729.17857
1789.77382	25630.89286
1792.96828	25639.03571
1796.16064	25564.60714
1799.3509	25463.17857
1802.53907	25474.17857
1805.72514	25374.89286
1808.90913	25311.32143
1812.09102	25273.03571
1815.27083	25183.46429
1818.44856	25238.03571
1821.6242	25169.60714
1824.79776	25175.75
1827.96924	25118.75
1831.13864	25080.46429
1834.30597	25028.03571
1837.47122	24970.60714
1840.6344	24996.89286
1843.7955	25012.75
1846.95454	24945.03571
1850.11151	24887.89286
1853.26642	24859.89286
1856.41926	24862.17857
1859.57004	24858.32143
1862.71876	24790.03571
1865.86542	24813.17857
1869.01003	24761.46429
1872.15258	24748.32143
1875.29308	24723.32143
1878.43152	24648.32143
1881.56792	24608.46429
1884.70227	24610.75
1887.83457	24615.32143
1890.96482	24556.03571
1894.09304	24502.03571
1897.21921	24430.89286
1900.34335	24416.32143
1903.46544	24423.03571
1906.58551	24407.17857
1909.70353	24348.46429
1912.81953	24283.46429
1915.93349	24242.46429
1919.04543	24214.46429
1922.15534	24181.32143
1925.26322	24135.46429
1928.36908	24063.17857
1931.47292	24063.46429
1934.57473	24018.75
1937.67453	24002.32143
1940.77232	23918.46429
1943.86808	23810.46429
1946.96184	23723.75
1950.05358	23717.17857
1953.14331	23689.75
1956.23103	23590.17857
1959.31675	23534.32143
1962.40046	23382.17857
1965.48217	23354.03571
1968.56188	23319.89286
1971.63959	23269.32143
1974.7153	23173.32143
1977.78901	23110.03571
1980.86073	23078.46429
1983.93046	22962.89286
1986.99819	22893.32143
1990.06394	22841.03571
1993.1277	22787.46429
1996.18947	22706.89286
1999.24925	22606.75
2002.30706	22527.89286
2005.36288	22408.89286
2008.41672	22381.32143
2011.46859	22306.03571
2014.51848	22240.46429
2017.56639	22191.60714
2020.61233	22148.60714
2023.6563	22055.17857
2026.6983	21958.75
2029.73833	21949.60714
2032.7764	21848.03571
2035.8125	21809.17857
2038.84664	21744.75
2041.87881	21737.89286
2044.90903	21656.75
2047.93729	21658.17857
2050.96359	21653.03571
2053.98794	21579.32143
2057.01034	21564.89286
2060.03078	21526.32143
2063.04927	21533.17857
2066.06582	21518.75
2069.08042	21499.89286
2072.09307	21442.75
2075.10378	21464.32143
2078.11255	21433.89286
2081.11938	21433.89286
2084.12426	21442.46429
2087.12722	21426.89286
2090.12824	21407.46429
2093.12732	21415.32143
2096.12447	21402.60714
2099.11969	21358.46429
2102.11299	21389.32143
2105.10435	21343.03571
2108.09379	21420.03571
2111.08131	21431.75
2114.0669	21426.32143
2117.05057	21445.75
2120.03233	21468.17857
2123.01216	21483.60714
2125.99008	21563.17857
2128.96609	21548.32143
2131.94018	21530.03571
2134.91236	21574.32143
2137.88263	21557.60714
2140.851	21562.17857
2143.81746	21594.03571
2146.78201	21539.46429
2149.74466	21568.03571
2152.7054	21554.03571
2155.66425	21553.89286
2158.6212	21557.89286
2161.57625	21526.75
2164.52941	21514.60714
2167.48067	21501.03571
2170.43004	21493.60714
2173.37752	21458.46429
2176.32311	21497.32143
2179.26681	21424.75
2182.20863	21452.32143
2185.14856	21430.60714
2188.08661	21428.17857
2191.02278	21363.03571
2193.95707	21392.89286
2196.88948	21352.75
2199.82001	21337.17857
2202.74867	21299.17857
2205.67545	21323.46429
2208.60037	21282.60714
2211.52341	21223.75
2214.44458	21217.89286
2217.36388	21153.03571
2220.28132	21134.17857
2223.1969	21027.03571
2226.11061	21006.17857
2229.02246	20937.17857
2231.93245	20891.89286
2234.84058	20848.17857
2237.74686	20799.46429
2240.65128	20898.03571
2243.55385	20832.17857
2246.45456	20786.89286
2249.35343	20742.75
2252.25044	20716.89286
2255.14561	20670.89286
2258.03893	20713.03571
2260.93041	20633.17857
2263.82004	20572.89286
2266.70783	20551.46429
2269.59378	20452.46429
2272.4779	20417.03571
2275.36017	20364.60714
2278.24061	20332.89286
2281.11922	20260.75
2283.996	20241.75
2286.87094	20204.17857
2289.74405	20201.75
2292.61534	20140.03571
2295.4848	20133.03571
2298.35243	20122.60714
2301.21824	20129.17857
2304.08223	20085.17857
2306.94439	20005.32143
2309.80474	20012.75
2312.66327	19978.75
2315.51999	19967.75
2318.37489	19952.60714
2321.22797	19910.75
2324.07925	19876.89286
2326.92871	19845.60714
2329.77637	19807.75
2332.62222	19767.46429
2335.46626	19693.89286
2338.3085	19711.17857
2341.14893	19663.89286
2343.98756	19660.46429
2346.8244	19608.89286
2349.65943	19583.17857
2352.49267	19558.60714
2355.32411	19553.32143
2358.15376	19496.46429
2360.98161	19499.60714
2363.80768	19489.89286
2366.63195	19437.32143
2369.45444	19417.75
2372.27514	19380.75
2375.09405	19340.75
2377.91118	19346.75
2380.72652	19311.17857
2383.54009	19254.17857
2386.35187	19193.32143
2389.16188	19156.32143
2391.97011	19108.89286
2394.77657	19107.60714
2397.58125	19069.32143
2400.38416	19076.75
2403.18529	19043.17857
2405.98466	18982.75
2408.78226	18952.75
2411.57809	18904.89286
2414.37216	18867.75
2417.16446	18846.03571
2419.955	18847.03571
2422.74378	18787.89286
2425.5308	18764.17857
2428.31606	18768.32143
2431.09956	18791.75
2433.88131	18676.46429
2436.6613	18738.03571
2439.43954	18715.46429
2442.21603	18669.60714
2444.99077	18688.17857
2447.76377	18600.03571
2450.53501	18609.03571
2453.30451	18566.32143
2456.07226	18532.60714
2458.83827	18515.17857
2461.60254	18514.32143
2464.36507	18460.89286
2467.12586	18436.75
2469.88492	18420.32143
2472.64224	18371.32143
2475.39782	18399.60714
2478.15167	18356.17857
2480.90379	18394.32143
2483.65417	18325.03571
2486.40283	18341.75
2489.14976	18344.60714
2491.89497	18342.17857
2494.63845	18336.03571
2497.3802	18281.03571
2500.12024	18292.17857
2502.85855	18214.17857
2505.59514	18179.46429
2508.33002	18158.46429
2511.06318	18142.89286
2513.79462	18125.32143
2516.52435	18103.89286
2519.25237	18038.60714
2521.97867	17992.03571
2524.70327	17965.03571
2527.42616	17999.89286
2530.14734	17955.75
2532.86681	17949.17857
2535.58458	17901.60714
2538.30065	17871.60714
2541.01501	17878.03571
2543.72768	17806.32143
2546.43864	17780.75
2549.14791	17749.89286
2551.85548	17753.46429
2554.56136	17641.60714
2557.26554	17650.75
2559.96803	17617.46429
2562.66883	17557.32143
2565.36794	17492.32143
2568.06536	17507.17857
2570.7611	17447.46429
2573.45514	17380.89286
2576.14751	17377.03571
2578.83819	17306.89286
2581.52719	17303.75
2584.21451	17257.46429
2586.90015	17276.03571
2589.58411	17233.75
2592.2664	17182.46429
2594.94701	17153.89286
2597.62594	17110.46429
2600.30321	17065.60714
2602.9788	17053.17857
2605.65273	16951.89286
2608.32498	16954.46429
2610.99557	16994.89286
2613.66449	16969.75
2616.33175	16945.60714
2618.99734	16938.32143
2621.66128	16815.17857
2624.32355	16797.17857
2626.98416	16810.46429
2629.64311	16763.89286
2632.30041	16781.46429
2634.95605	16677.17857
2637.61004	16634.46429
2640.26238	16662.46429
2642.91306	16636.03571
2645.56209	16634.32143
2648.20948	16631.60714
2650.85521	16605.32143
2653.4993	16602.17857
2656.14175	16592.32143
2658.78255	16566.32143
2661.42171	16579.03571
2664.05923	16583.60714
2666.6951	16566.32143
2669.32934	16566.17857
2671.96194	16566.75
2674.59291	16598.32143
2677.22224	16505.75
2679.84993	16517.03571
2682.476	16498.75
2685.10043	16480.46429
2687.72324	16492.17857
2690.34441	16480.32143
2692.96396	16468.03571
2695.58188	16486.89286
2698.19818	16474.75
2700.81285	16452.60714
2703.4259	16465.75
2706.03733	16450.60714
2708.64714	16422.03571
2711.25533	16456.89286
2713.86191	16431.75
2716.46687	16446.75
2719.07021	16423.60714
2721.67194	16485.17857
2724.27206	16431.75
2726.87057	16411.89286
2729.46747	16400.03571
2732.06276	16386.03571
2734.65644	16380.32143
2737.24852	16335.46429
2739.83899	16329.89286
2742.42786	16326.75
2745.01513	16291.46429
2747.60079	16259.89286
2750.18486	16229.75
2752.76733	16208.03571
2755.3482	16195.03571
2757.92747	16202.03571
2760.50515	16174.46429
2763.08123	16106.89286
2765.65573	16083.60714
2768.22863	16064.89286
2770.79994	16055.03571
2773.36967	16033.89286
2775.9378	15988.03571
2778.50435	15988.17857
2781.06932	15947.46429
2783.6327	15940.03571
2786.1945	15876.75
2788.75471	15879.75
2791.31335	15828.75
2793.87041	15793.89286
2796.42589	15782.03571
2798.97979	15763.89286
2801.53212	15710.32143
2804.08288	15681.89286
2806.63206	15624.32143
2809.17967	15569.17857
2811.72571	15566.03571
2814.27018	15553.46429
2816.81308	15486.17857
2819.35442	15456.46429
2821.89419	15404.46429
2824.43239	15401.75
2826.96904	15347.46429
2829.50412	15367.60714
2832.03763	15309.32143
2834.56959	15370.46429
2837.1	15294.32143
2839.62884	15289.60714
2842.15613	15229.46429
2844.68186	15260.46429
2847.20604	15268.03571
2849.72867	15224.17857
2852.24974	15221.89286
2854.76927	15161.60714
2857.28724	15136.46429
2859.80367	15132.03571
2862.31855	15070.32143
2864.83189	15039.46429
2867.34368	15014.17857
2869.85393	15034.75
2872.36264	15000.32143
2874.8698	14977.89286
2877.37543	14952.75
2879.87952	14984.32143
2882.38207	14947.60714
2884.88308	14937.89286
2887.38256	14955.75
2889.88051	14930.03571
2892.37692	14954.03571
2894.8718	14920.03571
2897.36515	15011.17857
2899.85698	14962.03571
2902.34727	14994.89286
2904.83604	14966.75
2907.32328	14979.89286
2909.809	14970.17857
2912.29319	14992.17857
2914.77587	14990.17857
2917.25702	14998.03571
2919.73665	14974.46429
2922.21476	15004.89286
2924.69136	14963.46429
2927.16644	14980.89286
2929.64	14949.17857
2932.11205	14930.46429
2934.58258	14860.17857
2937.05161	14912.60714
2939.51912	14941.75
2941.98513	14880.17857
2944.44962	14852.32143
2946.91261	14830.32143
2949.37409	14870.03571
2951.83407	14833.60714
2954.29254	14800.46429
2956.74951	14804.17857
2959.20498	14805.46429
2961.65895	14810.46429
2964.11142	14759.32143
2966.56239	14737.89286
2969.01186	14717.60714
2971.45984	14713.17857
2973.90632	14631.89286
2976.35131	14632.03571
2978.7948	14581.89286
2981.23681	14585.89286
2983.67732	14563.46429
2986.11635	14511.60714
2988.55388	14507.89286
2990.98993	14446.03571
2993.4245	14456.03571
2995.85758	14436.03571
2998.28917	14408.32143
3000.71928	14403.60714
3003.14791	14322.32143
3005.57506	14344.60714
3008.00073	14334.17857
3010.42493	14261.32143
3012.84764	14238.32143
3015.26888	14237.32143
3017.68865	14225.60714
3020.10694	14188.89286
3022.52376	14160.75
3024.9391	14122.89286
3027.35298	14130.89286
3029.76539	14097.60714
3032.17632	14107.46429
3034.5858	14043.75
3036.9938	14079.60714
3039.40034	14045.46429
3041.80542	14024.89286
3044.20903	13996.17857
3046.61118	13987.17857
3049.01187	13953.89286
3051.4111	13921.32143
3053.80888	13886.32143
3056.20519	13872.75
3058.60005	13846.89286
3060.99345	13830.89286
3063.3854	13793.75
3065.7759	13743.75
3068.16494	13715.89286
3070.55254	13666.46429
3072.93868	13659.03571
3075.32338	13623.17857
3077.70662	13595.89286
3080.08842	13558.03571
3082.46878	13572.46429
3084.84769	13571.17857
3087.22515	13586.32143
3089.60118	13545.17857
3091.97576	13577.60714
3094.3489	13579.75
3096.72061	13552.03571
3099.09087	13551.75
3101.4597	13557.03571
3103.82709	13562.17857
3106.19305	13530.60714
3108.55757	13533.17857
3110.92066	13492.32143
3113.28232	13487.75
3115.64255	13441.32143
3118.00134	13370.17857
3120.35871	13385.60714
3122.71466	13390.17857
3125.06917	13380.60714
3127.42226	13311.03571
3129.77393	13349.89286
3132.12417	13327.03571
3134.47299	13303.17857
3136.82039	13275.60714
3139.16636	13291.60714
3141.51092	13318.32143
3143.85406	13286.60714
3146.19579	13291.75
3148.53609	13318.17857
3150.87499	13325.46429
3153.21246	13298.60714
3155.54853	13325.32143
3157.88318	13330.89286
3160.21642	13359.46429
3162.54826	13368.32143
3164.87868	13335.03571
3167.2077	13324.60714
3169.5353	13349.60714
3171.86151	13339.60714
3174.18631	13325.32143
3176.5097	13311.89286
3178.83169	13268.17857
3181.15228	13277.60714
3183.47147	13219.32143
3185.78926	13191.60714
3188.10565	13223.60714
3190.42065	13207.32143
3192.73424	13162.75
3195.04645	13154.32143
3197.35725	13174.17857
3199.66667	13182.60714
3201.97469	13176.46429
3204.28132	13161.17857
3206.58656	13172.89286
3208.8904	13207.32143
3211.19287	13213.17857
3213.49394	13228.32143
3215.79363	13232.89286
3218.09193	13243.17857
3220.38884	13222.46429
3222.68438	13197.89286
3224.97853	13167.75
3227.2713	13170.32143
3229.56269	13172.75
3231.8527	13159.46429
3234.14133	13116.03571
3236.42858	13089.03571
3238.71446	13061.89286
3240.99896	13022.46429
3243.28209	13023.75
3245.56384	12972.60714
3247.84423	12989.32143
3250.12324	12967.03571
3252.40088	12981.46429
3254.67715	12965.03571
3256.95205	12980.17857
3259.22558	12967.46429
3261.49775	12945.46429
3263.76855	12897.75
3266.03799	12910.17857
3268.30606	12893.17857
3270.57277	12857.46429
3272.83812	12859.32143
3275.10211	12814.89286
3277.36474	12812.89286
3279.62601	12797.17857
3281.88593	12755.17857
3284.14448	12746.46429
3286.40168	12734.03571
3288.65753	12715.46429
3290.91202	12755.03571
3293.16516	12669.32143
3295.41695	12628.32143
3297.66738	12565.75
3299.91647	12521.75
3302.16421	12453.60714
3304.4106	12400.32143
3306.65564	12320.32143
3308.89933	12249.60714
3311.14169	12179.89286
3313.38269	12075.03571
3315.62236	12011.60714
3317.86068	11899.03571
3320.09766	11817.17857
3322.3333	11723.17857
3324.5676	11660.17857
3326.80056	11528.89286
3329.03219	11455.03571
3331.26248	1.32143
3333.49143	0.03571
3335.71905	-0.67857
