Data from AgNPs_FTO_APTES_UA_10uM_CRN_50uM_R6G_10uM_NaF_0.1M_Addition_RamanShift__5__16-41-14-813.txt Node

Date: Thu Feb 17 16:41:14 GMT 2022
User: TCL
Spectrometer: QEP01345
Trigger mode: 4
Integration Time (sec): 1.000000E1
Scans to average: 7
Electric dark correction enabled: true
Nonlinearity correction enabled: false
Boxcar width: 0
XAxis mode: Raman Shifts
Number of Pixels in Spectrum: 1044
>>>>>Begin Spectral Data<<<<<
46.04893	-0.55357
50.45542	-0.55357
54.85868	0.58929
59.25871	-2.98214
63.6555	83.30357
68.04907	80.30357
72.43941	85.01786
76.82654	91.30357
81.21044	93.16071
85.59113	98.30357
89.96862	101.44643
94.34289	103.44643
98.71396	109.73214
103.08183	112.73214
107.4465	117.44643
111.80798	112.875
116.16626	117.58929
120.52136	126.58929
124.87327	127.73214
129.222	131.44643
133.56755	135.44643
137.90993	152.73214
142.24913	164.58929
146.58517	184.44643
150.91804	208.30357
155.24774	251.01786
159.57429	304.16071
163.89768	399.58929
168.21792	531.01786
172.53501	726.30357
176.84895	1016.73214
181.15975	1445.44643
185.46741	2027.30357
189.77193	2818.01786
194.07331	3781.16071
198.37157	4885.875
202.6667	6056.73214
206.9587	7219.16071
211.24758	8390.58929
215.53334	9539.44643
219.81599	10755.30357
224.09553	12134.16071
228.37195	13603.73214
232.64527	15261.44643
236.91549	16990.875
241.18261	18606.58929
245.44663	20087.01786
249.70755	21459.30357
253.96539	22518.73214
258.22014	23515.30357
262.4718	24229.30357
266.72039	24754.16071
270.96589	24937.58929
275.20832	24903.01786
279.44768	24648.875
283.68397	24262.58929
287.91719	23967.73214
292.14735	23776.875
296.37445	23845.875
300.59849	24117.30357
304.81948	24536.73214
309.03742	24825.875
313.25231	24977.01786
317.46415	24651.30357
321.67296	23987.58929
325.87872	23404.73214
330.08145	23100.875
334.28114	23072.58929
338.47781	23314.30357
342.67145	23683.44643
346.86207	24201.58929
351.04966	24819.875
355.23424	25497.30357
359.4158	25972.01786
363.59435	26281.30357
367.76989	26436.875
371.94243	26427.58929
376.11196	26400.44643
380.27849	26427.01786
384.44203	26493.875
388.60257	26562.01786
392.76012	26752.875
396.91468	27042.44643
401.06626	27502.73214
405.21485	27722.73214
409.36047	27508.58929
413.50311	26943.73214
417.64277	26441.01786
421.77947	26172.44643
425.9132	26132.58929
430.04396	26210.58929
434.17176	26326.44643
438.2966	26470.73214
442.41849	26875.16071
446.53742	27455.73214
450.6534	28015.16071
454.76644	28416.16071
458.87653	28482.73214
462.98368	28289.875
467.08789	28043.44643
471.18916	27645.58929
475.2875	27230.30357
479.38291	26735.875
483.4754	26397.73214
487.56496	26192.30357
491.6516	26106.875
495.73531	26089.875
499.81612	26142.30357
503.89401	26344.30357
507.96899	26490.44643
512.04106	26533.44643
516.11023	26639.16071
520.1765	26680.73214
524.23987	26724.01786
528.30034	26747.16071
532.35792	26692.30357
536.41261	26506.44643
540.46441	26181.73214
544.51333	26067.30357
548.55936	26121.58929
552.60252	26417.875
556.64279	26877.73214
560.6802	27126.73214
564.71473	27178.58929
568.7464	27327.01786
572.7752	27538.16071
576.80114	27610.01786
580.82422	27940.58929
584.84444	28577.44643
588.86181	29512.73214
592.87633	30424.16071
596.888	30812.16071
600.89682	30368.73214
604.9028	30935.01786
608.90594	34205.875
612.90624	38529.01786
616.90371	36909.01786
620.89834	30419.30357
624.89015	27373.58929
628.87913	26808.58929
632.86528	27088.16071
636.84862	27326.58929
640.82913	27029.58929
644.80683	26379.73214
648.78172	25954.01786
652.75379	25973.44643
656.72306	26408.01786
660.68952	26959.30357
664.65319	26874.58929
668.61405	26274.01786
672.57211	26165.16071
676.52738	26300.58929
680.47986	26279.01786
684.42955	26068.58929
688.37646	25973.44643
692.32058	26027.01786
696.26192	26276.58929
700.20048	26508.875
704.13626	26702.58929
708.06928	26651.875
711.99952	26507.44643
715.927	26484.44643
719.85171	26589.875
723.77365	26650.01786
727.69284	26362.01786
731.60928	26203.30357
735.52295	26195.01786
739.43388	26200.01786
743.34206	26254.58929
747.24749	26289.16071
751.15017	26413.44643
755.05012	26568.58929
758.94733	27182.44643
762.8418	28577.875
766.73354	30947.58929
770.62254	33319.73214
774.50882	34090.58929
778.39237	32987.01786
782.27321	30705.30357
786.15132	28589.01786
790.02671	27110.875
793.89938	26488.16071
797.76935	26217.58929
801.6366	26021.44643
805.50115	25904.58929
809.36299	25791.58929
813.22213	25694.01786
817.07857	25664.30357
820.93231	25594.01786
824.78336	25581.01786
828.63172	25688.73214
832.47738	25619.875
836.32036	25656.01786
840.16066	25650.01786
843.99827	25613.58929
847.8332	25613.58929
851.66546	25675.58929
855.49504	25638.58929
859.32195	25642.875
863.1462	25664.73214
866.96777	25642.58929
870.78668	25681.16071
874.60293	25726.875
878.41652	25820.875
882.22745	25881.875
886.03573	25963.01786
889.84136	25999.58929
893.64433	25900.875
897.44466	25770.875
901.24235	25718.30357
905.0374	25620.01786
908.8298	25544.16071
912.61957	25451.30357
916.40671	25510.44643
920.19121	25634.01786
923.97308	25820.30357
927.75233	26063.01786
931.52895	26098.30357
935.30295	25931.16071
939.07433	25498.30357
942.84309	25206.44643
946.60924	25050.16071
950.37278	24946.44643
954.13371	24870.58929
957.89203	24897.58929
961.64774	24862.16071
965.40086	24837.875
969.15137	24847.58929
972.89929	24789.01786
976.64461	24843.58929
980.38733	24847.875
984.12747	24864.01786
987.86502	25003.44643
991.59999	25142.875
995.33237	25278.44643
999.06217	25590.875
1002.78939	25982.30357
1006.51404	26350.16071
1010.23611	26746.58929
1013.95561	26906.875
1017.67255	26983.44643
1021.38692	26816.16071
1025.09872	26506.16071
1028.80796	26321.01786
1032.51465	26273.875
1036.21877	26370.875
1039.92035	26480.58929
1043.61937	26503.30357
1047.31584	26533.01786
1051.00976	26555.44643
1054.70114	26409.01786
1058.38998	26444.44643
1062.07627	26505.875
1065.76003	26637.01786
1069.44126	26887.01786
1073.11995	27309.44643
1076.79611	27755.01786
1080.46974	27980.58929
1084.14085	28210.875
1087.80943	28488.58929
1091.47549	28502.30357
1095.13903	28378.44643
1098.80005	27963.16071
1102.45857	27520.58929
1106.11456	27209.875
1109.76805	27185.44643
1113.41903	27225.73214
1117.06751	27571.44643
1120.71348	27960.44643
1124.35696	28462.30357
1127.99793	28978.73214
1131.63641	29011.875
1135.2724	28575.73214
1138.90589	28167.58929
1142.5369	27872.58929
1146.16542	27657.30357
1149.79145	27585.44643
1153.415	27501.875
1157.03607	27547.875
1160.65467	27868.58929
1164.27079	28576.30357
1167.88443	29577.73214
1171.49561	30984.01786
1175.10432	32982.58929
1178.71056	35564.01786
1182.31434	37756.30357
1185.91565	38708.30357
1189.51451	38297.16071
1193.11091	37214.44643
1196.70485	35831.16071
1200.29634	34483.875
1203.88538	33234.44643
1207.47197	32019.44643
1211.05612	30970.30357
1214.63782	30261.30357
1218.21708	29844.16071
1221.79391	29726.44643
1225.36829	29712.44643
1228.94024	29784.44643
1232.50976	29673.58929
1236.07685	29437.73214
1239.6415	29327.44643
1243.20374	29327.16071
1246.76355	29386.44643
1250.32093	29671.875
1253.8759	30057.16071
1257.42845	30589.875
1260.97859	31277.16071
1264.52631	32042.01786
1268.07163	32780.875
1271.61453	33338.16071
1275.15503	33911.875
1278.69312	34357.44643
1282.22882	34826.73214
1285.76211	35529.01786
1289.29301	36447.16071
1292.82151	37366.01786
1296.34761	38458.30357
1299.87133	39865.73214
1303.39266	41700.58929
1306.9116	44262.58929
1310.42815	47065.16071
1313.94233	48632.58929
1317.45412	47958.30357
1320.96354	45946.58929
1324.47058	43845.44643
1327.97525	41898.73214
1331.47754	40508.01786
1334.97747	39826.73214
1338.47502	39660.16071
1341.97022	39943.16071
1345.46305	40649.16071
1348.95352	41985.16071
1352.44163	43931.58929
1355.92738	46446.875
1359.41078	49850.73214
1362.89183	52725.30357
1366.37053	51753.16071
1369.84688	46648.01786
1373.32088	40894.44643
1376.79254	37129.875
1380.26186	35315.30357
1383.72883	34448.73214
1387.19347	33645.30357
1390.65578	32825.30357
1394.11575	32181.875
1397.57339	31931.16071
1401.0287	31900.16071
1404.48168	31923.875
1407.93234	31882.58929
1411.38068	31971.44643
1414.82669	31908.58929
1418.27039	31719.58929
1421.71177	31410.58929
1425.15083	30921.44643
1428.58758	30725.44643
1432.02203	30887.01786
1435.45416	31329.73214
1438.88399	31640.58929
1442.31151	31746.58929
1445.73673	31779.73214
1449.15965	31858.44643
1452.58027	31750.01786
1455.9986	31565.58929
1459.41463	31551.44643
1462.82837	31976.44643
1466.23982	32530.44643
1469.64898	33244.58929
1473.05586	33727.875
1476.46045	34154.01786
1479.86276	34462.73214
1483.26279	34782.58929
1486.66054	35252.30357
1490.05602	35994.30357
1493.44922	37137.44643
1496.84016	38557.875
1500.22882	40655.44643
1503.61521	43636.44643
1506.99934	46689.16071
1510.38121	48899.875
1513.76081	48882.16071
1517.13816	46145.58929
1520.51324	42322.73214
1523.88607	39019.01786
1527.25665	36976.30357
1530.62498	35847.30357
1533.99105	35231.30357
1537.35488	34697.44643
1540.71647	34112.44643
1544.07581	33610.30357
1547.4329	33158.58929
1550.78776	32821.875
1554.14038	32690.875
1557.49077	32596.16071
1560.83892	32830.01786
1564.18484	33281.44643
1567.52853	33847.875
1570.86999	34344.875
1574.20922	34781.58929
1577.54624	34753.44643
1580.88103	33917.30357
1584.2136	32874.58929
1587.54395	32380.73214
1590.87208	32967.73214
1594.19801	34277.58929
1597.52172	36105.44643
1600.84321	37095.58929
1604.16251	36403.01786
1607.47959	34922.30357
1610.79447	33033.73214
1614.10715	31141.58929
1617.41763	29617.875
1620.7259	28539.01786
1624.03199	27917.875
1627.33587	27841.58929
1630.63757	28269.73214
1633.93707	29338.73214
1637.23439	31045.58929
1640.52951	33904.73214
1643.82246	37730.44643
1647.11321	41560.30357
1650.40179	43181.30357
1653.68819	41170.01786
1656.97241	36670.73214
1660.25446	32119.44643
1663.53433	28945.44643
1666.81203	27059.01786
1670.08756	25975.73214
1673.36092	25320.01786
1676.63211	24823.875
1679.90115	24538.16071
1683.16801	24225.73214
1686.43272	24057.875
1689.69527	23924.73214
1692.95567	23801.01786
1696.2139	23696.875
1699.46999	23654.30357
1702.72392	23552.16071
1705.97571	23567.44643
1709.22535	23582.16071
1712.47284	23581.875
1715.71819	23565.875
1718.96139	23491.875
1722.20246	23479.44643
1725.44139	23387.16071
1728.67818	23319.01786
1731.91284	23254.58929
1735.14537	23150.58929
1738.37576	23016.44643
1741.60403	22948.30357
1744.83017	22840.30357
1748.05418	22875.16071
1751.27607	22806.30357
1754.49584	22787.58929
1757.71349	22770.01786
1760.92903	22758.01786
1764.14244	22746.01786
1767.35375	22745.30357
1770.56294	22693.16071
1773.77002	22659.30357
1776.97499	22612.30357
1780.17785	22595.01786
1783.37861	22535.875
1786.57727	22508.58929
1789.77382	22471.16071
1792.96828	22484.44643
1796.16064	22418.30357
1799.3509	22352.30357
1802.53907	22342.73214
1805.72514	22279.16071
1808.90913	22265.875
1812.09102	22199.875
1815.27083	22164.44643
1818.44856	22144.30357
1821.6242	22154.58929
1824.79776	22080.16071
1827.96924	22078.73214
1831.13864	22027.30357
1834.30597	22042.58929
1837.47122	22025.875
1840.6344	21990.73214
1843.7955	21997.30357
1846.95454	22008.30357
1850.11151	22037.01786
1853.26642	21938.73214
1856.41926	21933.58929
1859.57004	21926.01786
1862.71876	21923.16071
1865.86542	21912.58929
1869.01003	21887.16071
1872.15258	21871.16071
1875.29308	21855.16071
1878.43152	21834.16071
1881.56792	21798.16071
1884.70227	21775.58929
1887.83457	21774.58929
1890.96482	21751.875
1894.09304	21703.44643
1897.21921	21727.875
1900.34335	21698.01786
1903.46544	21639.58929
1906.58551	21659.73214
1909.70353	21610.875
1912.81953	21588.16071
1915.93349	21546.16071
1919.04543	21510.73214
1922.15534	21512.73214
1925.26322	21472.16071
1928.36908	21408.875
1931.47292	21402.44643
1934.57473	21348.44643
1937.67453	21333.30357
1940.77232	21257.73214
1943.86808	21189.01786
1946.96184	21141.16071
1950.05358	21114.30357
1953.14331	21108.73214
1956.23103	21012.58929
1959.31675	20967.16071
1962.40046	20920.01786
1965.48217	20886.73214
1968.56188	20803.58929
1971.63959	20741.73214
1974.7153	20717.875
1977.78901	20662.01786
1980.86073	20602.44643
1983.93046	20549.58929
1986.99819	20437.30357
1990.06394	20389.875
1993.1277	20366.44643
1996.18947	20298.30357
1999.24925	20256.16071
2002.30706	20180.16071
2005.36288	20099.01786
2008.41672	20070.73214
2011.46859	20019.01786
2014.51848	19972.44643
2017.56639	19914.44643
2020.61233	19853.30357
2023.6563	19825.73214
2026.6983	19735.875
2029.73833	19722.16071
2032.7764	19631.875
2035.8125	19630.58929
2038.84664	19591.875
2041.87881	19570.01786
2044.90903	19536.16071
2047.93729	19519.01786
2050.96359	19504.875
2053.98794	19473.16071
2057.01034	19480.30357
2060.03078	19476.875
2063.04927	19453.73214
2066.06582	19482.01786
2069.08042	19424.875
2072.09307	19429.30357
2075.10378	19365.44643
2078.11255	19334.01786
2081.11938	19404.875
2084.12426	19406.875
2087.12722	19357.875
2090.12824	19377.875
2093.12732	19396.875
2096.12447	19401.73214
2099.11969	19382.44643
2102.11299	19433.58929
2105.10435	19469.73214
2108.09379	19449.16071
2111.08131	19464.16071
2114.0669	19454.16071
2117.05057	19479.30357
2120.03233	19475.875
2123.01216	19496.01786
2125.99008	19529.73214
2128.96609	19591.16071
2131.94018	19601.73214
2134.91236	19591.16071
2137.88263	19615.16071
2140.851	19595.58929
2143.81746	19639.16071
2146.78201	19658.16071
2149.74466	19626.30357
2152.7054	19667.44643
2155.66425	19687.44643
2158.6212	19597.16071
2161.57625	19623.30357
2164.52941	19641.16071
2167.48067	19607.73214
2170.43004	19630.16071
2173.37752	19679.01786
2176.32311	19656.44643
2179.26681	19621.16071
2182.20863	19657.44643
2185.14856	19643.16071
2188.08661	19650.01786
2191.02278	19674.30357
2193.95707	19652.73214
2196.88948	19626.73214
2199.82001	19618.875
2202.74867	19576.01786
2205.67545	19584.73214
2208.60037	19571.16071
2211.52341	19549.875
2214.44458	19475.58929
2217.36388	19468.30357
2220.28132	19406.16071
2223.1969	19358.73214
2226.11061	19340.16071
2229.02246	19331.875
2231.93245	19311.58929
2234.84058	19303.44643
2237.74686	19299.73214
2240.65128	19294.44643
2243.55385	19291.30357
2246.45456	19197.44643
2249.35343	19213.44643
2252.25044	19158.73214
2255.14561	19188.01786
2258.03893	19160.73214
2260.93041	19132.44643
2263.82004	19096.44643
2266.70783	19007.30357
2269.59378	18988.30357
2272.4779	18943.58929
2275.36017	18906.16071
2278.24061	18928.44643
2281.11922	18873.875
2283.996	18847.44643
2286.87094	18874.58929
2289.74405	18816.30357
2292.61534	18801.44643
2295.4848	18769.01786
2298.35243	18787.73214
2301.21824	18797.16071
2304.08223	18758.58929
2306.94439	18724.16071
2309.80474	18772.58929
2312.66327	18720.73214
2315.51999	18704.58929
2318.37489	18674.44643
2321.22797	18672.58929
2324.07925	18665.01786
2326.92871	18640.73214
2329.77637	18600.58929
2332.62222	18548.30357
2335.46626	18570.01786
2338.3085	18514.30357
2341.14893	18564.16071
2343.98756	18521.875
2346.8244	18607.30357
2349.65943	18528.58929
2352.49267	18513.875
2355.32411	18548.73214
2358.15376	18512.44643
2360.98161	18531.16071
2363.80768	18485.16071
2366.63195	18499.875
2369.45444	18446.44643
2372.27514	18475.16071
2375.09405	18441.01786
2377.91118	18416.875
2380.72652	18401.73214
2383.54009	18351.16071
2386.35187	18280.73214
2389.16188	18265.44643
2391.97011	18222.30357
2394.77657	18233.58929
2397.58125	18182.875
2400.38416	18173.01786
2403.18529	18123.875
2405.98466	18123.30357
2408.78226	18099.44643
2411.57809	18075.16071
2414.37216	18093.16071
2417.16446	18083.30357
2419.955	18030.44643
2422.74378	18049.16071
2425.5308	18011.30357
2428.31606	18002.875
2431.09956	18005.73214
2433.88131	18003.58929
2436.6613	18027.58929
2439.43954	17996.73214
2442.21603	17962.30357
2444.99077	17951.01786
2447.76377	17936.73214
2450.53501	17971.16071
2453.30451	17929.44643
2456.07226	17955.16071
2458.83827	17918.875
2461.60254	17920.01786
2464.36507	17901.30357
2467.12586	17864.01786
2469.88492	17873.58929
2472.64224	17860.01786
2475.39782	17887.16071
2478.15167	17887.44643
2480.90379	17873.01786
2483.65417	17908.30357
2486.40283	17899.44643
2489.14976	17910.73214
2491.89497	17911.16071
2494.63845	17915.16071
2497.3802	17934.30357
2500.12024	17936.44643
2502.85855	17869.44643
2505.59514	17840.58929
2508.33002	17804.73214
2511.06318	17754.73214
2513.79462	17728.73214
2516.52435	17690.875
2519.25237	17688.875
2521.97867	17663.875
2524.70327	17657.16071
2527.42616	17618.16071
2530.14734	17620.16071
2532.86681	17615.01786
2535.58458	17624.16071
2538.30065	17561.30357
2541.01501	17595.44643
2543.72768	17555.875
2546.43864	17563.73214
2549.14791	17489.01786
2551.85548	17512.875
2554.56136	17505.44643
2557.26554	17501.16071
2559.96803	17484.73214
2562.66883	17415.73214
2565.36794	17409.30357
2568.06536	17372.44643
2570.7611	17337.16071
2573.45514	17340.58929
2576.14751	17307.44643
2578.83819	17275.01786
2581.52719	17261.875
2584.21451	17260.44643
2586.90015	17238.16071
2589.58411	17228.58929
2592.2664	17227.875
2594.94701	17163.16071
2597.62594	17133.73214
2600.30321	17105.44643
2602.9788	17082.44643
2605.65273	17077.16071
2608.32498	17082.875
2610.99557	17058.73214
2613.66449	17076.44643
2616.33175	17051.16071
2618.99734	17021.01786
2621.66128	16995.16071
2624.32355	16938.01786
2626.98416	16943.01786
2629.64311	16937.16071
2632.30041	16911.01786
2634.95605	16881.01786
2637.61004	16846.30357
2640.26238	16825.44643
2642.91306	16808.58929
2645.56209	16822.73214
2648.20948	16841.58929
2650.85521	16849.73214
2653.4993	16893.44643
2656.14175	16877.875
2658.78255	16885.58929
2661.42171	16870.16071
2664.05923	16882.44643
2666.6951	16883.875
2669.32934	16922.01786
2671.96194	16902.73214
2674.59291	16875.30357
2677.22224	16850.58929
2679.84993	16867.30357
2682.476	16821.73214
2685.10043	16840.16071
2687.72324	16860.30357
2690.34441	16857.44643
2692.96396	16897.01786
2695.58188	16898.16071
2698.19818	16872.30357
2700.81285	16888.73214
2703.4259	16858.44643
2706.03733	16858.44643
2708.64714	16868.30357
2711.25533	16864.01786
2713.86191	16885.16071
2716.46687	16914.30357
2719.07021	16901.73214
2721.67194	16939.16071
2724.27206	16937.44643
2726.87057	16959.73214
2729.46747	16932.58929
2732.06276	16900.58929
2734.65644	16923.73214
2737.24852	16919.73214
2739.83899	16893.01786
2742.42786	16911.16071
2745.01513	16848.58929
2747.60079	16849.44643
2750.18486	16801.73214
2752.76733	16791.01786
2755.3482	16770.44643
2757.92747	16804.16071
2760.50515	16779.58929
2763.08123	16766.44643
2765.65573	16759.73214
2768.22863	16743.875
2770.79994	16717.16071
2773.36967	16718.01786
2775.9378	16671.16071
2778.50435	16623.875
2781.06932	16623.73214
2783.6327	16635.01786
2786.1945	16609.44643
2788.75471	16568.58929
2791.31335	16536.44643
2793.87041	16524.44643
2796.42589	16523.875
2798.97979	16537.875
2801.53212	16496.58929
2804.08288	16468.01786
2806.63206	16455.73214
2809.17967	16411.30357
2811.72571	16385.30357
2814.27018	16350.875
2816.81308	16322.16071
2819.35442	16302.875
2821.89419	16264.16071
2824.43239	16246.44643
2826.96904	16296.58929
2829.50412	16277.01786
2832.03763	16219.44643
2834.56959	16209.30357
2837.1	16229.44643
2839.62884	16206.73214
2842.15613	16179.44643
2844.68186	16245.16071
2847.20604	16225.875
2849.72867	16246.16071
2852.24974	16169.73214
2854.76927	16194.01786
2857.28724	16192.01786
2859.80367	16168.73214
2862.31855	16173.30357
2864.83189	16163.16071
2867.34368	16133.875
2869.85393	16157.01786
2872.36264	16114.58929
2874.8698	16106.58929
2877.37543	16060.01786
2879.87952	16061.16071
2882.38207	16064.01786
2884.88308	16050.16071
2887.38256	16095.875
2889.88051	16084.01786
2892.37692	16078.01786
2894.8718	16076.44643
2897.36515	16087.875
2899.85698	16081.58929
2902.34727	16093.16071
2904.83604	16115.44643
2907.32328	16136.44643
2909.809	16128.875
2912.29319	16137.875
2914.77587	16122.16071
2917.25702	16159.44643
2919.73665	16120.01786
2922.21476	16122.44643
2924.69136	16099.875
2927.16644	16107.58929
2929.64	16078.01786
2932.11205	16050.73214
2934.58258	16002.16071
2937.05161	16047.73214
2939.51912	16011.01786
2941.98513	15995.16071
2944.44962	15999.30357
2946.91261	15970.01786
2949.37409	15996.16071
2951.83407	15987.44643
2954.29254	15966.16071
2956.74951	15963.01786
2959.20498	15951.875
2961.65895	15952.58929
2964.11142	15958.58929
2966.56239	15924.01786
2969.01186	15898.44643
2971.45984	15893.30357
2973.90632	15911.58929
2976.35131	15875.73214
2978.7948	15822.44643
2981.23681	15816.73214
2983.67732	15785.875
2986.11635	15739.875
2988.55388	15724.73214
2990.98993	15718.73214
2993.4245	15701.44643
2995.85758	15653.58929
2998.28917	15624.875
3000.71928	15595.44643
3003.14791	15597.875
3005.57506	15533.73214
3008.00073	15485.16071
3010.42493	15529.30357
3012.84764	15492.30357
3015.26888	15468.30357
3017.68865	15476.01786
3020.10694	15448.44643
3022.52376	15413.16071
3024.9391	15379.44643
3027.35298	15350.58929
3029.76539	15389.30357
3032.17632	15399.44643
3034.5858	15331.44643
3036.9938	15317.73214
3039.40034	15301.16071
3041.80542	15323.44643
3044.20903	15260.875
3046.61118	15272.16071
3049.01187	15262.875
3051.4111	15247.01786
3053.80888	15190.58929
3056.20519	15162.01786
3058.60005	15153.44643
3060.99345	15151.875
3063.3854	15084.30357
3065.7759	15035.875
3068.16494	14991.30357
3070.55254	14997.30357
3072.93868	14961.16071
3075.32338	14924.58929
3077.70662	14910.58929
3080.08842	14846.01786
3082.46878	14866.875
3084.84769	14868.73214
3087.22515	14849.73214
3089.60118	14878.875
3091.97576	14880.73214
3094.3489	14885.44643
3096.72061	14905.16071
3099.09087	14893.30357
3101.4597	14835.01786
3103.82709	14867.16071
3106.19305	14848.58929
3108.55757	14852.44643
3110.92066	14828.16071
3113.28232	14825.30357
3115.64255	14783.30357
3118.00134	14701.30357
3120.35871	14741.16071
3122.71466	14672.73214
3125.06917	14677.01786
3127.42226	14640.16071
3129.77393	14680.875
3132.12417	14667.44643
3134.47299	14662.73214
3136.82039	14621.16071
3139.16636	14610.30357
3141.51092	14629.875
3143.85406	14631.875
3146.19579	14624.01786
3148.53609	14640.58929
3150.87499	14655.875
3153.21246	14677.16071
3155.54853	14707.30357
3157.88318	14688.875
3160.21642	14710.73214
3162.54826	14709.875
3164.87868	14728.58929
3167.2077	14667.30357
3169.5353	14740.58929
3171.86151	14719.30357
3174.18631	14705.875
3176.5097	14674.58929
3178.83169	14678.01786
3181.15228	14682.73214
3183.47147	14627.875
3185.78926	14592.58929
3188.10565	14569.01786
3190.42065	14603.73214
3192.73424	14608.44643
3195.04645	14591.44643
3197.35725	14547.73214
3199.66667	14533.73214
3201.97469	14580.30357
3204.28132	14557.875
3206.58656	14580.44643
3208.8904	14594.30357
3211.19287	14609.875
3213.49394	14646.30357
3215.79363	14654.73214
3218.09193	14639.44643
3220.38884	14636.01786
3222.68438	14664.44643
3224.97853	14649.58929
3227.2713	14622.44643
3229.56269	14606.01786
3231.8527	14620.58929
3234.14133	14576.44643
3236.42858	14521.44643
3238.71446	14487.44643
3240.99896	14453.58929
3243.28209	14454.73214
3245.56384	14417.44643
3247.84423	14469.58929
3250.12324	14453.30357
3252.40088	14419.30357
3254.67715	14390.73214
3256.95205	14358.16071
3259.22558	14330.44643
3261.49775	14371.16071
3263.76855	14360.30357
3266.03799	14368.875
3268.30606	14329.58929
3270.57277	14340.01786
3272.83812	14301.16071
3275.10211	14260.44643
3277.36474	14255.01786
3279.62601	14278.875
3281.88593	14197.875
3284.14448	14260.44643
3286.40168	14252.73214
3288.65753	14203.01786
3290.91202	14235.73214
3293.16516	14197.01786
3295.41695	14166.44643
3297.66738	14108.875
3299.91647	14040.58929
3302.16421	13956.875
3304.4106	13874.58929
3306.65564	13790.875
3308.89933	13680.875
3311.14169	13591.30357
3313.38269	13508.01786
3315.62236	13454.30357
3317.86068	13322.16071
3320.09766	13275.73214
3322.3333	13174.44643
3324.5676	13117.73214
3326.80056	12943.30357
3329.03219	12833.875
3331.26248	1.58929
3333.49143	0.01786
3335.71905	0.58929
