Data from AgNPs_FTO_APTES_UA_20uM_CRN_100uM_R6G_10uM_NaF_0.1M_Addition_RamanShift__21__17-43-04-891.txt Node

Date: Thu Feb 17 17:43:04 GMT 2022
User: TCL
Spectrometer: QEP01345
Trigger mode: 4
Integration Time (sec): 1.000000E1
Scans to average: 7
Electric dark correction enabled: true
Nonlinearity correction enabled: false
Boxcar width: 0
XAxis mode: Raman Shifts
Number of Pixels in Spectrum: 1044
>>>>>Begin Spectral Data<<<<<
46.04893	-0.14286
50.45542	0.28571
54.85868	0.28571
59.25871	-1
63.6555	83
68.04907	83.85714
72.43941	87.57143
76.82654	94.71429
81.21044	96.28571
85.59113	100.85714
89.96862	106.71429
94.34289	107.71429
98.71396	111.14286
103.08183	110.71429
107.4465	120.14286
111.80798	143.28571
116.16626	126
120.52136	129.28571
124.87327	130.14286
129.222	134.28571
133.56755	141.57143
137.90993	157.14286
142.24913	166.28571
146.58517	193.14286
150.91804	219.42857
155.24774	258.42857
159.57429	316.71429
163.89768	406.14286
168.21792	545.71429
172.53501	742.57143
176.84895	1028.57143
181.15975	1454.42857
185.46741	2048.57143
189.77193	2847
194.07331	3841.14286
198.37157	4977.85714
202.6667	6180.28571
206.9587	7415.28571
211.24758	8653.14286
215.53334	9939
219.81599	11340.57143
224.09553	12921.28571
228.37195	14707
232.64527	16604.28571
236.91549	18538.42857
241.18261	20316.71429
245.44663	21857.85714
249.70755	23240.57143
253.96539	24331.28571
258.22014	25253.71429
262.4718	25992.85714
266.72039	26423.14286
270.96589	26506.28571
275.20832	26257.71429
279.44768	25644.85714
283.68397	25045.71429
287.91719	24568.14286
292.14735	24476.42857
296.37445	24990.14286
300.59849	25986.42857
304.81948	27260.57143
309.03742	28213.71429
313.25231	28301
317.46415	27154
321.67296	25203.71429
325.87872	23585.28571
330.08145	22837.14286
334.28114	22818.57143
338.47781	23330.71429
342.67145	23981.28571
346.86207	25037.57143
351.04966	26492.42857
355.23424	28224.42857
359.4158	29622.57143
363.59435	30268.42857
367.76989	30443.42857
371.94243	30419.57143
376.11196	30227.85714
380.27849	30068
384.44203	29802.28571
388.60257	29369.28571
392.76012	29126.14286
396.91468	29170.28571
401.06626	29784.14286
405.21485	30307.14286
409.36047	29780
413.50311	28322.42857
417.64277	26808.85714
421.77947	25937
425.9132	25564.85714
430.04396	25507.85714
434.17176	25629.85714
438.2966	26019.71429
442.41849	26666.28571
446.53742	27418.28571
450.6534	28191
454.76644	28732.28571
458.87653	28822
462.98368	28634.71429
467.08789	28109.42857
471.18916	27567.85714
475.2875	26889.85714
479.38291	26351.42857
483.4754	25889.42857
487.56496	25529.14286
491.6516	25330.14286
495.73531	25227.57143
499.81612	25194.71429
503.89401	25469.71429
507.96899	25878.57143
512.04106	26390.71429
516.11023	26978.14286
520.1765	27409.14286
524.23987	27447.28571
528.30034	27139.14286
532.35792	26772.14286
536.41261	26383
540.46441	25888.28571
544.51333	25541.28571
548.55936	25557.57143
552.60252	25913.85714
556.64279	26381.85714
560.6802	26688
564.71473	27071.14286
568.7464	28029.71429
572.7752	28520.14286
576.80114	27579
580.82422	26418.85714
584.84444	25976.28571
588.86181	26069
592.87633	26497.42857
596.888	27006
600.89682	27826
604.9028	30839.57143
608.90594	39170.71429
612.90624	50316
616.90371	48922.42857
620.89834	35187
624.89015	28431.71429
628.87913	27228.71429
632.86528	27454.42857
636.84862	27708.42857
640.82913	27338
644.80683	26093.57143
648.78172	25244
652.75379	25249.28571
656.72306	26184.42857
660.68952	27359.28571
664.65319	27119.71429
668.61405	25973.71429
672.57211	25475
676.52738	25436.42857
680.47986	25439.42857
684.42955	25275.42857
688.37646	25112.71429
692.32058	25149.85714
696.26192	25303
700.20048	25522.42857
704.13626	25690
708.06928	25530.71429
711.99952	25311
715.927	25285.14286
719.85171	25396.28571
723.77365	25512.85714
727.69284	25435.42857
731.60928	25296.85714
735.52295	25329.14286
739.43388	25319.57143
743.34206	25470.71429
747.24749	25575.71429
751.15017	25585.28571
755.05012	25922.57143
758.94733	26884.42857
762.8418	29518
766.73354	33969.14286
770.62254	38661.57143
774.50882	41335.28571
778.39237	40218.85714
782.27321	35360.85714
786.15132	30278.42857
790.02671	27328.28571
793.89938	26036.85714
797.76935	25516.85714
801.6366	25303
805.50115	25188.71429
809.36299	25098
813.22213	25031.85714
817.07857	24991.14286
820.93231	24986.28571
824.78336	25038.57143
828.63172	25219.57143
832.47738	25308.28571
836.32036	25245.57143
840.16066	25157.42857
843.99827	25124.71429
847.8332	25118
851.66546	25067.28571
855.49504	25052.85714
859.32195	25090.85714
863.1462	25023.14286
866.96777	24989
870.78668	24984.71429
874.60293	24999.57143
878.41652	25058.85714
882.22745	25211.42857
886.03573	25323
889.84136	25293.14286
893.64433	25166.85714
897.44466	25078.85714
901.24235	25069.28571
905.0374	24946.71429
908.8298	24826.57143
912.61957	24684.14286
916.40671	24669.28571
920.19121	24859.42857
923.97308	25099.85714
927.75233	25476.57143
931.52895	25906.14286
935.30295	25853.28571
939.07433	25184.14286
942.84309	24635.42857
946.60924	24322.57143
950.37278	24121
954.13371	23920.71429
957.89203	23789.42857
961.64774	23725.14286
965.40086	23610.71429
969.15137	23480.85714
972.89929	23432.57143
976.64461	23484.57143
980.38733	23499.85714
984.12747	23572.28571
987.86502	23768.28571
991.59999	24011.42857
995.33237	24434.57143
999.06217	25083.28571
1002.78939	25878.85714
1006.51404	26367.14286
1010.23611	26699.28571
1013.95561	26966.57143
1017.67255	26984.71429
1021.38692	26736.42857
1025.09872	26569.71429
1028.80796	26756.14286
1032.51465	27414.14286
1036.21877	28079
1039.92035	28203
1043.61937	27937.85714
1047.31584	27311.85714
1051.00976	26637.57143
1054.70114	26076.71429
1058.38998	25847
1062.07627	25818.42857
1065.76003	25735.85714
1069.44126	25697.42857
1073.11995	25815.14286
1076.79611	26125.85714
1080.46974	26705.28571
1084.14085	27399.14286
1087.80943	28027.57143
1091.47549	28240
1095.13903	27730
1098.80005	26962.14286
1102.45857	26375.42857
1106.11456	26316
1109.76805	26710.71429
1113.41903	27374.28571
1117.06751	28386.57143
1120.71348	29621.42857
1124.35696	30958.85714
1127.99793	31872.28571
1131.63641	31397.28571
1135.2724	29952.28571
1138.90589	28610.57143
1142.5369	27687.85714
1146.16542	27088.57143
1149.79145	26707.71429
1153.415	26597.42857
1157.03607	26631
1160.65467	27055.85714
1164.27079	27879.42857
1167.88443	29095.14286
1171.49561	31029.14286
1175.10432	34124.14286
1178.71056	38461.71429
1182.31434	42261.57143
1185.91565	43534.14286
1189.51451	42313.28571
1193.11091	39563.42857
1196.70485	36540.85714
1200.29634	34511
1203.88538	33144.14286
1207.47197	31457.57143
1211.05612	29992.28571
1214.63782	29121.42857
1218.21708	28900.28571
1221.79391	28881.71429
1225.36829	29023.85714
1228.94024	28910.14286
1232.50976	28637.71429
1236.07685	28425.85714
1239.6415	28496.28571
1243.20374	28750.28571
1246.76355	29066.28571
1250.32093	29535.14286
1253.8759	30158.57143
1257.42845	31092.42857
1260.97859	31930.85714
1264.52631	32833.57143
1268.07163	33669.28571
1271.61453	34487.14286
1275.15503	35144.28571
1278.69312	35648.14286
1282.22882	36035.85714
1285.76211	36649
1289.29301	37530.28571
1292.82151	38503.14286
1296.34761	39668.85714
1299.87133	41743.57143
1303.39266	45456.14286
1306.9116	50981.42857
1310.42815	56655.85714
1313.94233	58762.28571
1317.45412	55900.57143
1320.96354	50733.71429
1324.47058	45797
1327.97525	42021.71429
1331.47754	39766
1334.97747	39185.14286
1338.47502	39877
1341.97022	41495.71429
1345.46305	43802.71429
1348.95352	46629.28571
1352.44163	50186.85714
1355.92738	55847.71429
1359.41078	64346.42857
1362.89183	71343.71429
1366.37053	67664
1369.84688	56369.28571
1373.32088	46707.14286
1376.79254	40739.71429
1380.26186	37452.71429
1383.72883	35554
1387.19347	34256.71429
1390.65578	32996.57143
1394.11575	32114.14286
1397.57339	31737.57143
1401.0287	31786
1404.48168	32062
1407.93234	32530.85714
1411.38068	33039.14286
1414.82669	33511.85714
1418.27039	33493.57143
1421.71177	33108
1425.15083	32565.14286
1428.58758	32331
1432.02203	32643.85714
1435.45416	32956
1438.88399	33023.57143
1442.31151	32942.71429
1445.73673	33054.42857
1449.15965	33197.71429
1452.58027	33115.28571
1455.9986	32782.57143
1459.41463	32592.14286
1462.82837	32862.14286
1466.23982	33519.14286
1469.64898	34247.57143
1473.05586	34767.14286
1476.46045	35103.14286
1479.86276	35605.14286
1483.26279	36323.14286
1486.66054	37268.57143
1490.05602	38446.71429
1493.44922	40177.71429
1496.84016	42607.85714
1500.22882	46441.57143
1503.61521	52190.71429
1506.99934	59203.57143
1510.38121	64949.42857
1513.76081	65884
1517.13816	60829.57143
1520.51324	52766.85714
1523.88607	45447
1527.25665	40677.71429
1530.62498	38006.42857
1533.99105	36476.71429
1537.35488	35629.57143
1540.71647	35300.57143
1544.07581	35310.85714
1547.4329	35454.14286
1550.78776	35636
1554.14038	35842.28571
1557.49077	36103.57143
1560.83892	36581.14286
1564.18484	37468.71429
1567.52853	38373.71429
1570.86999	39186.85714
1574.20922	39488.71429
1577.54624	39139.85714
1580.88103	37343.57143
1584.2136	35200.14286
1587.54395	34118.14286
1590.87208	34686.14286
1594.19801	36761.85714
1597.52172	39430.28571
1600.84321	40654.42857
1604.16251	39592.71429
1607.47959	37357
1610.79447	34662
1614.10715	32171
1617.41763	30348.42857
1620.7259	29221.14286
1624.03199	28720.57143
1627.33587	28889.71429
1630.63757	29659.42857
1633.93707	30996.85714
1637.23439	32921.28571
1640.52951	35814.71429
1643.82246	39904.42857
1647.11321	44537.71429
1650.40179	47630.57143
1653.68819	45806.14286
1656.97241	39885.28571
1660.25446	33851.57143
1663.53433	29858.28571
1666.81203	27481.28571
1670.08756	26178.57143
1673.36092	25351.85714
1676.63211	24875
1679.90115	24391.14286
1683.16801	24135
1686.43272	23925.85714
1689.69527	23779.42857
1692.95567	23678.57143
1696.2139	23592.28571
1699.46999	23550.57143
1702.72392	23506.28571
1705.97571	23526.28571
1709.22535	23531.42857
1712.47284	23551.14286
1715.71819	23527.14286
1718.96139	23439.28571
1722.20246	23364.71429
1725.44139	23283
1728.67818	23171.42857
1731.91284	23081
1735.14537	22961.28571
1738.37576	22886.71429
1741.60403	22804.57143
1744.83017	22743
1748.05418	22714.42857
1751.27607	22668.85714
1754.49584	22631.71429
1757.71349	22622
1760.92903	22590.71429
1764.14244	22532.42857
1767.35375	22532.14286
1770.56294	22424.85714
1773.77002	22400.42857
1776.97499	22356.28571
1780.17785	22334.57143
1783.37861	22285.42857
1786.57727	22241.85714
1789.77382	22201.85714
1792.96828	22207
1796.16064	22164.28571
1799.3509	22121.85714
1802.53907	22124
1805.72514	22060.28571
1808.90913	22012.71429
1812.09102	21973.71429
1815.27083	21924.28571
1818.44856	21913.57143
1821.6242	21890
1824.79776	21852.71429
1827.96924	21780.42857
1831.13864	21767.14286
1834.30597	21731.85714
1837.47122	21765.85714
1840.6344	21707.71429
1843.7955	21702.71429
1846.95454	21698
1850.11151	21688
1853.26642	21668.85714
1856.41926	21627.71429
1859.57004	21622.57143
1862.71876	21677.71429
1865.86542	21702
1869.01003	21704.57143
1872.15258	21693.42857
1875.29308	21665.42857
1878.43152	21669
1881.56792	21704.28571
1884.70227	21617.57143
1887.83457	21610.57143
1890.96482	21605.28571
1894.09304	21614
1897.21921	21613.28571
1900.34335	21559
1903.46544	21591.85714
1906.58551	21527.57143
1909.70353	21514.71429
1912.81953	21524.71429
1915.93349	21500.42857
1919.04543	21445.14286
1922.15534	21446.42857
1925.26322	21430.71429
1928.36908	21388.71429
1931.47292	21382.57143
1934.57473	21281.71429
1937.67453	21245.42857
1940.77232	21175.28571
1943.86808	21143.42857
1946.96184	21064.85714
1950.05358	21028.28571
1953.14331	21000
1956.23103	20968.71429
1959.31675	20943.28571
1962.40046	20878.71429
1965.48217	20815.14286
1968.56188	20750.57143
1971.63959	20699
1974.7153	20661.42857
1977.78901	20621.28571
1980.86073	20517.57143
1983.93046	20460.14286
1986.99819	20372.42857
1990.06394	20363.28571
1993.1277	20290
1996.18947	20189.14286
1999.24925	20133
2002.30706	20094.42857
2005.36288	20013.71429
2008.41672	19987.57143
2011.46859	19917
2014.51848	19874.71429
2017.56639	19801.14286
2020.61233	19793.71429
2023.6563	19770.14286
2026.6983	19692.42857
2029.73833	19684.71429
2032.7764	19635.57143
2035.8125	19620.42857
2038.84664	19556.71429
2041.87881	19548.71429
2044.90903	19545.14286
2047.93729	19465.14286
2050.96359	19509.85714
2053.98794	19471.71429
2057.01034	19435.71429
2060.03078	19405.71429
2063.04927	19361.42857
2066.06582	19353.71429
2069.08042	19348.71429
2072.09307	19296.28571
2075.10378	19355
2078.11255	19331
2081.11938	19312.42857
2084.12426	19310.71429
2087.12722	19320.85714
2090.12824	19280.57143
2093.12732	19307.14286
2096.12447	19266.85714
2099.11969	19274.85714
2102.11299	19289.57143
2105.10435	19293.14286
2108.09379	19325
2111.08131	19313.57143
2114.0669	19379.85714
2117.05057	19410.28571
2120.03233	19391.14286
2123.01216	19449.71429
2125.99008	19481.57143
2128.96609	19526.71429
2131.94018	19514.14286
2134.91236	19502.71429
2137.88263	19518.28571
2140.851	19515.71429
2143.81746	19561.71429
2146.78201	19540.85714
2149.74466	19505.71429
2152.7054	19538.28571
2155.66425	19538.71429
2158.6212	19532.42857
2161.57625	19475.14286
2164.52941	19467.28571
2167.48067	19471.42857
2170.43004	19469.14286
2173.37752	19508.42857
2176.32311	19503.57143
2179.26681	19482.71429
2182.20863	19472.28571
2185.14856	19531.14286
2188.08661	19526.71429
2191.02278	19506.42857
2193.95707	19514.85714
2196.88948	19527.71429
2199.82001	19508.14286
2202.74867	19487.85714
2205.67545	19488.42857
2208.60037	19486
2211.52341	19431.85714
2214.44458	19432.57143
2217.36388	19406.14286
2220.28132	19368.42857
2223.1969	19348.42857
2226.11061	19294.57143
2229.02246	19302.28571
2231.93245	19236.71429
2234.84058	19168.57143
2237.74686	19136.85714
2240.65128	19157.57143
2243.55385	19147.28571
2246.45456	19104.14286
2249.35343	19125.28571
2252.25044	19129.42857
2255.14561	19077.14286
2258.03893	19133.14286
2260.93041	19081.71429
2263.82004	19015.85714
2266.70783	19012.71429
2269.59378	18938.71429
2272.4779	18906.85714
2275.36017	18871
2278.24061	18842.14286
2281.11922	18824.85714
2283.996	18838.71429
2286.87094	18811.42857
2289.74405	18772.85714
2292.61534	18715.14286
2295.4848	18695.28571
2298.35243	18718.57143
2301.21824	18692.28571
2304.08223	18698.42857
2306.94439	18715.42857
2309.80474	18699
2312.66327	18767.42857
2315.51999	18735.71429
2318.37489	18767.85714
2321.22797	18711.28571
2324.07925	18667.85714
2326.92871	18654.28571
2329.77637	18677.28571
2332.62222	18598.28571
2335.46626	18661.14286
2338.3085	18622.28571
2341.14893	18659.28571
2343.98756	18675.57143
2346.8244	18694.85714
2349.65943	18641.71429
2352.49267	18647
2355.32411	18689.85714
2358.15376	18686.71429
2360.98161	18700.14286
2363.80768	18640.14286
2366.63195	18658
2369.45444	18621.85714
2372.27514	18555.85714
2375.09405	18539.57143
2377.91118	18502.57143
2380.72652	18459.28571
2383.54009	18370.14286
2386.35187	18337
2389.16188	18300
2391.97011	18296.28571
2394.77657	18220.71429
2397.58125	18253.57143
2400.38416	18227.85714
2403.18529	18178.57143
2405.98466	18146.85714
2408.78226	18051.85714
2411.57809	18023.57143
2414.37216	18009.57143
2417.16446	17989
2419.955	17960.14286
2422.74378	17960.71429
2425.5308	17943.14286
2428.31606	17904.57143
2431.09956	17950.85714
2433.88131	17929.85714
2436.6613	17926.71429
2439.43954	17911
2442.21603	17907.85714
2444.99077	17923.42857
2447.76377	17951.71429
2450.53501	17914.14286
2453.30451	17902.85714
2456.07226	17901.57143
2458.83827	17862.57143
2461.60254	17891.57143
2464.36507	17813.57143
2467.12586	17805.42857
2469.88492	17787
2472.64224	17805.85714
2475.39782	17858.42857
2478.15167	17868.85714
2480.90379	17887.28571
2483.65417	17957.42857
2486.40283	17972
2489.14976	18019.85714
2491.89497	17983.42857
2494.63845	18034.28571
2497.3802	18025.42857
2500.12024	17988.14286
2502.85855	17974
2505.59514	17940.71429
2508.33002	17859.14286
2511.06318	17809.42857
2513.79462	17786
2516.52435	17755
2519.25237	17712
2521.97867	17613.14286
2524.70327	17671.14286
2527.42616	17632
2530.14734	17630.28571
2532.86681	17587.14286
2535.58458	17586.85714
2538.30065	17569.14286
2541.01501	17573.42857
2543.72768	17560.42857
2546.43864	17563.85714
2549.14791	17572.42857
2551.85548	17570
2554.56136	17511.57143
2557.26554	17496
2559.96803	17502.28571
2562.66883	17427.71429
2565.36794	17385.28571
2568.06536	17456.85714
2570.7611	17392.42857
2573.45514	17381.71429
2576.14751	17355.14286
2578.83819	17331
2581.52719	17327
2584.21451	17303
2586.90015	17260.57143
2589.58411	17261.14286
2592.2664	17253.71429
2594.94701	17212
2597.62594	17218.71429
2600.30321	17180.14286
2602.9788	17224.14286
2605.65273	17179.14286
2608.32498	17189.85714
2610.99557	17184
2613.66449	17201.57143
2616.33175	17201.42857
2618.99734	17224.42857
2621.66128	17178.28571
2624.32355	17169.85714
2626.98416	17169.71429
2629.64311	17142.85714
2632.30041	17174
2634.95605	17105.57143
2637.61004	17088.28571
2640.26238	17015.71429
2642.91306	17032
2645.56209	17008.71429
2648.20948	17054.57143
2650.85521	16979.42857
2653.4993	16948.85714
2656.14175	16958.42857
2658.78255	16970.57143
2661.42171	16956.14286
2664.05923	17031.85714
2666.6951	17036
2669.32934	17034.85714
2671.96194	17021.85714
2674.59291	17039
2677.22224	17049.42857
2679.84993	17017
2682.476	17030.85714
2685.10043	17027.42857
2687.72324	17026
2690.34441	16977.71429
2692.96396	16981
2695.58188	16981.85714
2698.19818	16966.42857
2700.81285	16964.14286
2703.4259	16935.71429
2706.03733	16988.28571
2708.64714	16947.28571
2711.25533	17000
2713.86191	17020.42857
2716.46687	17056.14286
2719.07021	17022.71429
2721.67194	17039.42857
2724.27206	17038.57143
2726.87057	17023.71429
2729.46747	17013.14286
2732.06276	16988.85714
2734.65644	16988.71429
2737.24852	16986.14286
2739.83899	16965.57143
2742.42786	16961.85714
2745.01513	16939
2747.60079	16926.42857
2750.18486	16899.85714
2752.76733	16898.14286
2755.3482	16894.14286
2757.92747	16917.14286
2760.50515	16861.14286
2763.08123	16862.57143
2765.65573	16828.85714
2768.22863	16846
2770.79994	16803.85714
2773.36967	16819.14286
2775.9378	16832.42857
2778.50435	16809.28571
2781.06932	16822.42857
2783.6327	16824
2786.1945	16768
2788.75471	16749.85714
2791.31335	16701.57143
2793.87041	16699.28571
2796.42589	16690.85714
2798.97979	16666.71429
2801.53212	16668.71429
2804.08288	16671.71429
2806.63206	16622.42857
2809.17967	16636.57143
2811.72571	16597.28571
2814.27018	16592.57143
2816.81308	16574.28571
2819.35442	16563.14286
2821.89419	16519
2824.43239	16518.57143
2826.96904	16552.85714
2829.50412	16517.42857
2832.03763	16543.85714
2834.56959	16517.57143
2837.1	16491
2839.62884	16508
2842.15613	16481
2844.68186	16508
2847.20604	16469
2849.72867	16522.42857
2852.24974	16502.71429
2854.76927	16487.28571
2857.28724	16474.85714
2859.80367	16470.85714
2862.31855	16482.57143
2864.83189	16476.71429
2867.34368	16435.85714
2869.85393	16430.57143
2872.36264	16442.28571
2874.8698	16438.28571
2877.37543	16462
2879.87952	16445.85714
2882.38207	16423.14286
2884.88308	16358.28571
2887.38256	16444.57143
2889.88051	16389.42857
2892.37692	16423.85714
2894.8718	16388.85714
2897.36515	16447.85714
2899.85698	16453
2902.34727	16467.57143
2904.83604	16458.57143
2907.32328	16478
2909.809	16464.85714
2912.29319	16491.14286
2914.77587	16449.57143
2917.25702	16476.85714
2919.73665	16460.57143
2922.21476	16483.42857
2924.69136	16453.85714
2927.16644	16435.14286
2929.64	16428
2932.11205	16372.71429
2934.58258	16310.42857
2937.05161	16345
2939.51912	16346.14286
2941.98513	16334
2944.44962	16330.57143
2946.91261	16266.71429
2949.37409	16296.42857
2951.83407	16286.28571
2954.29254	16248.42857
2956.74951	16235.85714
2959.20498	16234.14286
2961.65895	16217.57143
2964.11142	16210.42857
2966.56239	16149.57143
2969.01186	16132.85714
2971.45984	16096.28571
2973.90632	16061.85714
2976.35131	16015.42857
2978.7948	16025.85714
2981.23681	15988.57143
2983.67732	15991.71429
2986.11635	15945
2988.55388	15931.14286
2990.98993	15894.57143
2993.4245	15898.57143
2995.85758	15847.14286
2998.28917	15824.71429
3000.71928	15823.28571
3003.14791	15812.85714
3005.57506	15786.42857
3008.00073	15735.71429
3010.42493	15763.57143
3012.84764	15691.14286
3015.26888	15699.85714
3017.68865	15656.85714
3020.10694	15673.57143
3022.52376	15641.42857
3024.9391	15590.85714
3027.35298	15551.85714
3029.76539	15554.57143
3032.17632	15514.57143
3034.5858	15489.57143
3036.9938	15499.28571
3039.40034	15455.57143
3041.80542	15444.85714
3044.20903	15435.71429
3046.61118	15410.42857
3049.01187	15428.85714
3051.4111	15405.42857
3053.80888	15359.28571
3056.20519	15369
3058.60005	15309.42857
3060.99345	15262.42857
3063.3854	15224.85714
3065.7759	15151.28571
3068.16494	15139
3070.55254	15073
3072.93868	15036.14286
3075.32338	15013.28571
3077.70662	15007.28571
3080.08842	14954.85714
3082.46878	14949.57143
3084.84769	14934.14286
3087.22515	14958.71429
3089.60118	14959.57143
3091.97576	14920.71429
3094.3489	14968.71429
3096.72061	14943.85714
3099.09087	14926.42857
3101.4597	14896.71429
3103.82709	14920.42857
3106.19305	14904.14286
3108.55757	14917.57143
3110.92066	14870.57143
3113.28232	14872.71429
3115.64255	14848.71429
3118.00134	14806.71429
3120.35871	14760.42857
3122.71466	14726.85714
3125.06917	14738.14286
3127.42226	14704.71429
3129.77393	14697.14286
3132.12417	14732
3134.47299	14695
3136.82039	14689.57143
3139.16636	14696.71429
3141.51092	14688.71429
3143.85406	14749
3146.19579	14720.28571
3148.53609	14684.14286
3150.87499	14701.57143
3153.21246	14727.57143
3155.54853	14765.57143
3157.88318	14770.14286
3160.21642	14775.85714
3162.54826	14796.57143
3164.87868	14790.42857
3167.2077	14765
3169.5353	14767.28571
3171.86151	14758.85714
3174.18631	14728.57143
3176.5097	14745.71429
3178.83169	14705.57143
3181.15228	14723.14286
3183.47147	14687.57143
3185.78926	14711.14286
3188.10565	14674.42857
3190.42065	14707.42857
3192.73424	14670.71429
3195.04645	14677.14286
3197.35725	14704
3199.66667	14675.42857
3201.97469	14684.28571
3204.28132	14691.28571
3206.58656	14725
3208.8904	14730.85714
3211.19287	14746.71429
3213.49394	14807.42857
3215.79363	14761.71429
3218.09193	14774.85714
3220.38884	14763.42857
3222.68438	14811.28571
3224.97853	14825.71429
3227.2713	14842.28571
3229.56269	14801.57143
3231.8527	14801.71429
3234.14133	14724.85714
3236.42858	14696.57143
3238.71446	14723.28571
3240.99896	14694.14286
3243.28209	14639.42857
3245.56384	14654.42857
3247.84423	14654.57143
3250.12324	14659.14286
3252.40088	14652.42857
3254.67715	14636.57143
3256.95205	14620.14286
3259.22558	14650.14286
3261.49775	14638.85714
3263.76855	14632.28571
3266.03799	14602.57143
3268.30606	14598.14286
3270.57277	14587
3272.83812	14531.28571
3275.10211	14497
3277.36474	14511
3279.62601	14502.14286
3281.88593	14483.71429
3284.14448	14492.28571
3286.40168	14502.14286
3288.65753	14502.28571
3290.91202	14444.28571
3293.16516	14452.85714
3295.41695	14431.28571
3297.66738	14334.71429
3299.91647	14295
3302.16421	14194.14286
3304.4106	14141.85714
3306.65564	14062
3308.89933	14010.57143
3311.14169	13883.14286
3313.38269	13784.85714
3315.62236	13707.71429
3317.86068	13585.57143
3320.09766	13478.71429
3322.3333	13378.85714
3324.5676	13340
3326.80056	13156.42857
3329.03219	13083.57143
3331.26248	0.57143
3333.49143	-1
3335.71905	-0.28571
