Data from AgNPs_FTO_APTES_UA_10uM_CRN_50uM_R6G_10uM_NaF_0.1M_Addition_RamanShift__8__16-44-44-819.txt Node

Date: Thu Feb 17 16:44:44 GMT 2022
User: TCL
Spectrometer: QEP01345
Trigger mode: 4
Integration Time (sec): 1.000000E1
Scans to average: 7
Electric dark correction enabled: true
Nonlinearity correction enabled: false
Boxcar width: 0
XAxis mode: Raman Shifts
Number of Pixels in Spectrum: 1044
>>>>>Begin Spectral Data<<<<<
46.04893	0.57143
50.45542	0.14286
54.85868	-0.28571
59.25871	-1.28571
63.6555	82.28571
68.04907	75.14286
72.43941	81.42857
76.82654	85.71429
81.21044	92.42857
85.59113	93.57143
89.96862	100.42857
94.34289	98.85714
98.71396	106
103.08183	104.42857
107.4465	112.71429
111.80798	106.71429
116.16626	110.42857
120.52136	117.57143
124.87327	124.57143
129.222	130.28571
133.56755	131.28571
137.90993	145.42857
142.24913	153.71429
146.58517	175
150.91804	194.85714
155.24774	234.42857
159.57429	291.71429
163.89768	367.71429
168.21792	492.57143
172.53501	668.28571
176.84895	938.57143
181.15975	1340.71429
185.46741	1879.14286
189.77193	2611.71429
194.07331	3507
198.37157	4537.71429
202.6667	5631.14286
206.9587	6715.42857
211.24758	7784.14286
215.53334	8873.42857
219.81599	10033.85714
224.09553	11228.85714
228.37195	12653.14286
232.64527	14168.28571
236.91549	15734.85714
241.18261	17281.71429
245.44663	18646.14286
249.70755	19920
253.96539	20928.42857
258.22014	21818.28571
262.4718	22596.28571
266.72039	23054.71429
270.96589	23288.28571
275.20832	23252.28571
279.44768	23002.71429
283.68397	22641.57143
287.91719	22360.71429
292.14735	22306
296.37445	22327.85714
300.59849	22606
304.81948	22993.85714
309.03742	23292.28571
313.25231	23362.71429
317.46415	22998.71429
321.67296	22302
325.87872	21752.28571
330.08145	21423.28571
334.28114	21385.14286
338.47781	21609.57143
342.67145	21967.14286
346.86207	22414
351.04966	23028
355.23424	23633.42857
359.4158	24169.42857
363.59435	24441.85714
367.76989	24599
371.94243	24663.42857
376.11196	24645.14286
380.27849	24641.28571
384.44203	24704.85714
388.60257	24768.71429
392.76012	24894
396.91468	25189.14286
401.06626	25571.85714
405.21485	25830.42857
409.36047	25622.28571
413.50311	25048.57143
417.64277	24520.71429
421.77947	24255.42857
425.9132	24196
430.04396	24224.14286
434.17176	24243.42857
438.2966	24364.14286
442.41849	24668.28571
446.53742	25055.14286
450.6534	25411.28571
454.76644	25750.14286
458.87653	25823.14286
462.98368	25737.71429
467.08789	25623.71429
471.18916	25416.28571
475.2875	25115.28571
479.38291	24810
483.4754	24542.57143
487.56496	24399.71429
491.6516	24332.57143
495.73531	24354
499.81612	24353.28571
503.89401	24513.57143
507.96899	24617.85714
512.04106	24725
516.11023	24819.71429
520.1765	24925.71429
524.23987	24918.85714
528.30034	24860.71429
532.35792	24789.14286
536.41261	24588
540.46441	24404.85714
544.51333	24260.28571
548.55936	24334.14286
552.60252	24632.85714
556.64279	24921.42857
560.6802	25133.57143
564.71473	25195
568.7464	25365.28571
572.7752	25537.57143
576.80114	25540.28571
580.82422	25636.14286
584.84444	26081
588.86181	26425.42857
592.87633	26633.28571
596.888	26752.85714
600.89682	26928.71429
604.9028	27999
608.90594	31494.42857
612.90624	35796.42857
616.90371	34343.28571
620.89834	28328.28571
624.89015	25466.14286
628.87913	24912.14286
632.86528	25195.14286
636.84862	25480.85714
640.82913	25285.14286
644.80683	24693.28571
648.78172	24363.71429
652.75379	24337.85714
656.72306	24720.57143
660.68952	25219.28571
664.65319	25133.28571
668.61405	24662.14286
672.57211	24523.14286
676.52738	24633.57143
680.47986	24597.85714
684.42955	24428.42857
688.37646	24297.85714
692.32058	24340.71429
696.26192	24494.57143
700.20048	24757.57143
704.13626	24899.28571
708.06928	24895.57143
711.99952	24738.14286
715.927	24638.71429
719.85171	24720.85714
723.77365	24786.85714
727.69284	24603.85714
731.60928	24440.71429
735.52295	24442.14286
739.43388	24465.85714
743.34206	24417.71429
747.24749	24468.71429
751.15017	24544.42857
755.05012	24666.85714
758.94733	25249.42857
762.8418	26568.57143
766.73354	28804.42857
770.62254	31036.42857
774.50882	31841
778.39237	30790.71429
782.27321	28668.71429
786.15132	26669.71429
790.02671	25342.71429
793.89938	24717.42857
797.76935	24475.57143
801.6366	24254.57143
805.50115	24147.14286
809.36299	24066.85714
813.22213	24013.57143
817.07857	23969.42857
820.93231	23922.42857
824.78336	23987.14286
828.63172	24010
832.47738	23966.85714
836.32036	23990.57143
840.16066	23885.85714
843.99827	23888.28571
847.8332	23929.28571
851.66546	23876.28571
855.49504	23846.85714
859.32195	23834.85714
863.1462	23918.85714
866.96777	23899.85714
870.78668	23939.42857
874.60293	23976.28571
878.41652	24054.57143
882.22745	24138.14286
886.03573	24202
889.84136	24203
893.64433	24117.71429
897.44466	23989.71429
901.24235	24000
905.0374	23920.42857
908.8298	23835.14286
912.61957	23776
916.40671	23795
920.19121	23870.71429
923.97308	23993.42857
927.75233	24223.71429
931.52895	24240.14286
935.30295	24110
939.07433	23768.85714
942.84309	23465.85714
946.60924	23271.85714
950.37278	23196.57143
954.13371	23186.14286
957.89203	23170.42857
961.64774	23113.71429
965.40086	23107.28571
969.15137	23075
972.89929	23050.85714
976.64461	23070.14286
980.38733	23058.71429
984.12747	23050.85714
987.86502	23161.85714
991.59999	23243
995.33237	23340.28571
999.06217	23509.85714
1002.78939	23810.57143
1006.51404	24076.57143
1010.23611	24411.14286
1013.95561	24489
1017.67255	24566.85714
1021.38692	24462.57143
1025.09872	24308.71429
1028.80796	24071.28571
1032.51465	24030.57143
1036.21877	24056.42857
1039.92035	24180.57143
1043.61937	24244.14286
1047.31584	24300.85714
1051.00976	24328.28571
1054.70114	24300.42857
1058.38998	24317.57143
1062.07627	24365.85714
1065.76003	24584
1069.44126	24712.57143
1073.11995	25087.42857
1076.79611	25507.71429
1080.46974	25719.57143
1084.14085	25912.28571
1087.80943	26140
1091.47549	26255
1095.13903	26093.57143
1098.80005	25699.42857
1102.45857	25339.85714
1106.11456	25065.14286
1109.76805	25005.28571
1113.41903	25059.42857
1117.06751	25274.42857
1120.71348	25735.14286
1124.35696	26145.85714
1127.99793	26597.14286
1131.63641	26680.28571
1135.2724	26233.28571
1138.90589	25825.28571
1142.5369	25448.85714
1146.16542	25192
1149.79145	25098.57143
1153.415	24967.42857
1157.03607	25044.71429
1160.65467	25278.28571
1164.27079	25792.14286
1167.88443	26590.14286
1171.49561	27699.28571
1175.10432	29394.85714
1178.71056	31515.85714
1182.31434	33461.57143
1185.91565	34255.14286
1189.51451	34146.14286
1193.11091	33264
1196.70485	32121.14286
1200.29634	30953.28571
1203.88538	29873.57143
1207.47197	28691.42857
1211.05612	27723
1214.63782	27030.28571
1218.21708	26631.28571
1221.79391	26452.85714
1225.36829	26400.42857
1228.94024	26424.57143
1232.50976	26450.85714
1236.07685	26418.28571
1239.6415	26333.71429
1243.20374	26375.28571
1246.76355	26500
1250.32093	26676.28571
1253.8759	26888.28571
1257.42845	27299
1260.97859	27843.14286
1264.52631	28476.42857
1268.07163	29061.42857
1271.61453	29546
1275.15503	29961.85714
1278.69312	30218.85714
1282.22882	30560.85714
1285.76211	31001.57143
1289.29301	31613
1292.82151	32306.28571
1296.34761	32975.85714
1299.87133	33998
1303.39266	35455.42857
1306.9116	37576.42857
1310.42815	39838.71429
1313.94233	41078.57143
1317.45412	40378.42857
1320.96354	38767.42857
1324.47058	37121.28571
1327.97525	35612.42857
1331.47754	34597.85714
1334.97747	34225
1338.47502	34209.42857
1341.97022	34628.57143
1345.46305	35508
1348.95352	36937.71429
1352.44163	38671.85714
1355.92738	40818.14286
1359.41078	43653.14286
1362.89183	46222.42857
1366.37053	45312.85714
1369.84688	40710.57143
1373.32088	35771
1376.79254	32514.14286
1380.26186	30829.42857
1383.72883	29927.71429
1387.19347	29182
1390.65578	28369.85714
1394.11575	27799.28571
1397.57339	27411.57143
1401.0287	27195
1404.48168	27133.42857
1407.93234	27133.71429
1411.38068	27214.71429
1414.82669	27270.28571
1418.27039	27193
1421.71177	27013.42857
1425.15083	26771
1428.58758	26519.85714
1432.02203	26571
1435.45416	26820.85714
1438.88399	26994.28571
1442.31151	27039.85714
1445.73673	27055.57143
1449.15965	27142.71429
1452.58027	27146
1455.9986	27071.85714
1459.41463	27078
1462.82837	27326.85714
1466.23982	27851.28571
1469.64898	28289.71429
1473.05586	28763.71429
1476.46045	29069.42857
1479.86276	29399.42857
1483.26279	29747.57143
1486.66054	30245.57143
1490.05602	30983.28571
1493.44922	32106
1496.84016	33580.57143
1500.22882	35961.42857
1503.61521	39114.71429
1506.99934	42345.57143
1510.38121	44539.42857
1513.76081	44425.85714
1517.13816	41697
1520.51324	37916.42857
1523.88607	34637.85714
1527.25665	32544.14286
1530.62498	31422.71429
1533.99105	30712
1537.35488	30218.57143
1540.71647	29822
1544.07581	29398.28571
1547.4329	29103.42857
1550.78776	28877.28571
1554.14038	28790.85714
1557.49077	28831.85714
1560.83892	29072.14286
1564.18484	29535
1567.52853	30089.28571
1570.86999	30590.28571
1574.20922	30978.42857
1577.54624	30898.57143
1580.88103	29988.42857
1584.2136	28824.85714
1587.54395	28169.57143
1590.87208	28315.28571
1594.19801	29129.85714
1597.52172	30339.57143
1600.84321	30942.57143
1604.16251	30531.85714
1607.47959	29611.57143
1610.79447	28519.42857
1614.10715	27306
1617.41763	26170.28571
1620.7259	25308.42857
1624.03199	24738.14286
1627.33587	24558.14286
1630.63757	24876.57143
1633.93707	25578.57143
1637.23439	26742.42857
1640.52951	28752.71429
1643.82246	31563.57143
1647.11321	34546.57143
1650.40179	36262.57143
1653.68819	35128
1656.97241	31770.57143
1660.25446	28146.71429
1663.53433	25567.28571
1666.81203	24014.85714
1670.08756	23118
1673.36092	22535.85714
1676.63211	22197
1679.90115	21910.42857
1683.16801	21675.14286
1686.43272	21527.57143
1689.69527	21426.57143
1692.95567	21309.14286
1696.2139	21217
1699.46999	21152.71429
1702.72392	21135.57143
1705.97571	21129.14286
1709.22535	21085.14286
1712.47284	21086.85714
1715.71819	21072.57143
1718.96139	21057.42857
1722.20246	21035.28571
1725.44139	20931.71429
1728.67818	20863.42857
1731.91284	20728.42857
1735.14537	20705.71429
1738.37576	20620.85714
1741.60403	20570.57143
1744.83017	20502.14286
1748.05418	20473.42857
1751.27607	20383.14286
1754.49584	20401.85714
1757.71349	20373.42857
1760.92903	20369.28571
1764.14244	20327.71429
1767.35375	20333.42857
1770.56294	20272.14286
1773.77002	20257.85714
1776.97499	20195.57143
1780.17785	20170.57143
1783.37861	20167.71429
1786.57727	20125.28571
1789.77382	20066.28571
1792.96828	20054.28571
1796.16064	19980.42857
1799.3509	19952.28571
1802.53907	19915.14286
1805.72514	19901.14286
1808.90913	19865.14286
1812.09102	19817.42857
1815.27083	19762.28571
1818.44856	19714.14286
1821.6242	19737.28571
1824.79776	19681.42857
1827.96924	19665.28571
1831.13864	19630.42857
1834.30597	19608.85714
1837.47122	19615.28571
1840.6344	19558.28571
1843.7955	19574.42857
1846.95454	19591
1850.11151	19557.28571
1853.26642	19515.14286
1856.41926	19498.71429
1859.57004	19489.28571
1862.71876	19491.14286
1865.86542	19479.71429
1869.01003	19474.28571
1872.15258	19474
1875.29308	19407.14286
1878.43152	19388.14286
1881.56792	19340.57143
1884.70227	19328.57143
1887.83457	19325
1890.96482	19291.42857
1894.09304	19267.14286
1897.21921	19225.28571
1900.34335	19254
1903.46544	19150.71429
1906.58551	19204.71429
1909.70353	19142
1912.81953	19161
1915.93349	19075.85714
1919.04543	19027
1922.15534	19022.42857
1925.26322	19003.85714
1928.36908	18984.57143
1931.47292	18930.85714
1934.57473	18922.85714
1937.67453	18834.14286
1940.77232	18804
1943.86808	18742.85714
1946.96184	18741.85714
1950.05358	18685
1953.14331	18650.14286
1956.23103	18630
1959.31675	18530
1962.40046	18486.71429
1965.48217	18411.71429
1968.56188	18389.14286
1971.63959	18321.85714
1974.7153	18303
1977.78901	18216.42857
1980.86073	18197.28571
1983.93046	18113.85714
1986.99819	18080.42857
1990.06394	17978
1993.1277	17983.85714
1996.18947	17909
1999.24925	17856.71429
2002.30706	17803.42857
2005.36288	17747
2008.41672	17718.28571
2011.46859	17667.57143
2014.51848	17633.71429
2017.56639	17587.71429
2020.61233	17489.57143
2023.6563	17430.42857
2026.6983	17423.71429
2029.73833	17356
2032.7764	17341.57143
2035.8125	17242.42857
2038.84664	17248.42857
2041.87881	17234.14286
2044.90903	17186.14286
2047.93729	17170.57143
2050.96359	17162.71429
2053.98794	17149.42857
2057.01034	17105.71429
2060.03078	17133.57143
2063.04927	17110.28571
2066.06582	17091.71429
2069.08042	17086.71429
2072.09307	17095
2075.10378	17059
2078.11255	17016.85714
2081.11938	17029.57143
2084.12426	17017
2087.12722	16972
2090.12824	17008.28571
2093.12732	16967
2096.12447	17019.85714
2099.11969	17018
2102.11299	17042
2105.10435	17055.42857
2108.09379	17036.85714
2111.08131	17059.42857
2114.0669	17082.28571
2117.05057	17101.28571
2120.03233	17081.42857
2123.01216	17150.71429
2125.99008	17138
2128.96609	17156.85714
2131.94018	17206.42857
2134.91236	17161.28571
2137.88263	17153.71429
2140.851	17170.28571
2143.81746	17199.28571
2146.78201	17192.85714
2149.74466	17212.28571
2152.7054	17228.71429
2155.66425	17202.42857
2158.6212	17164.42857
2161.57625	17156.71429
2164.52941	17154.85714
2167.48067	17165.28571
2170.43004	17182.85714
2173.37752	17222.28571
2176.32311	17197
2179.26681	17174.14286
2182.20863	17142.71429
2185.14856	17175.28571
2188.08661	17135.71429
2191.02278	17162.14286
2193.95707	17156.57143
2196.88948	17145
2199.82001	17099.42857
2202.74867	17112.14286
2205.67545	17086
2208.60037	17029.42857
2211.52341	17059.85714
2214.44458	17019.28571
2217.36388	16983.71429
2220.28132	16945.28571
2223.1969	16868.85714
2226.11061	16888.71429
2229.02246	16868.85714
2231.93245	16820.42857
2234.84058	16764.71429
2237.74686	16777.28571
2240.65128	16794.28571
2243.55385	16756.57143
2246.45456	16755.14286
2249.35343	16706.85714
2252.25044	16705.57143
2255.14561	16674.28571
2258.03893	16694.71429
2260.93041	16632.14286
2263.82004	16597.57143
2266.70783	16573.71429
2269.59378	16522.57143
2272.4779	16502
2275.36017	16438.71429
2278.24061	16446.57143
2281.11922	16433.71429
2283.996	16381.14286
2286.87094	16358.85714
2289.74405	16311.14286
2292.61534	16359.57143
2295.4848	16288.85714
2298.35243	16284.14286
2301.21824	16278.28571
2304.08223	16280.85714
2306.94439	16263.42857
2309.80474	16252.57143
2312.66327	16233
2315.51999	16181.57143
2318.37489	16164.71429
2321.22797	16142
2324.07925	16153.28571
2326.92871	16158.85714
2329.77637	16103.85714
2332.62222	16091.42857
2335.46626	16063.28571
2338.3085	16031.28571
2341.14893	16014.42857
2343.98756	16056.28571
2346.8244	16044.57143
2349.65943	16040.57143
2352.49267	16038
2355.32411	16026.28571
2358.15376	15998.57143
2360.98161	16015.14286
2363.80768	16030.71429
2366.63195	15990.57143
2369.45444	15982.71429
2372.27514	15991.14286
2375.09405	15915.57143
2377.91118	15922.57143
2380.72652	15910
2383.54009	15872.42857
2386.35187	15790.57143
2389.16188	15749.57143
2391.97011	15733.85714
2394.77657	15745.14286
2397.58125	15723.42857
2400.38416	15677.57143
2403.18529	15646.57143
2405.98466	15650.14286
2408.78226	15561.14286
2411.57809	15579.85714
2414.37216	15570
2417.16446	15583.42857
2419.955	15534.85714
2422.74378	15547.14286
2425.5308	15503.57143
2428.31606	15483.57143
2431.09956	15511.28571
2433.88131	15485.14286
2436.6613	15513
2439.43954	15488.14286
2442.21603	15462.14286
2444.99077	15468.14286
2447.76377	15426.71429
2450.53501	15423.28571
2453.30451	15420.14286
2456.07226	15418
2458.83827	15390
2461.60254	15412.57143
2464.36507	15369.28571
2467.12586	15324.28571
2469.88492	15330.28571
2472.64224	15343
2475.39782	15367.57143
2478.15167	15377.71429
2480.90379	15362.42857
2483.65417	15364.42857
2486.40283	15349.14286
2489.14976	15343.14286
2491.89497	15320.85714
2494.63845	15355.57143
2497.3802	15355
2500.12024	15351.14286
2502.85855	15290.14286
2505.59514	15270.14286
2508.33002	15257.71429
2511.06318	15197.71429
2513.79462	15157.28571
2516.52435	15121.28571
2519.25237	15102.57143
2521.97867	15098.85714
2524.70327	15109.14286
2527.42616	15099.14286
2530.14734	15078
2532.86681	15057.14286
2535.58458	15040.85714
2538.30065	15030.42857
2541.01501	15011.57143
2543.72768	14991.57143
2546.43864	15006
2549.14791	14959.57143
2551.85548	14913.85714
2554.56136	14939.71429
2557.26554	14918
2559.96803	14867.14286
2562.66883	14880.28571
2565.36794	14815.85714
2568.06536	14818.57143
2570.7611	14800.42857
2573.45514	14756.85714
2576.14751	14736.71429
2578.83819	14695.85714
2581.52719	14669.71429
2584.21451	14655
2586.90015	14635.85714
2589.58411	14620.85714
2592.2664	14613.57143
2594.94701	14601.85714
2597.62594	14558.28571
2600.30321	14525.57143
2602.9788	14506.71429
2605.65273	14470.28571
2608.32498	14487.85714
2610.99557	14445.14286
2613.66449	14463.42857
2616.33175	14435.57143
2618.99734	14449.14286
2621.66128	14399.85714
2624.32355	14385.57143
2626.98416	14384.71429
2629.64311	14368.71429
2632.30041	14321
2634.95605	14279.14286
2637.61004	14243.14286
2640.26238	14251.57143
2642.91306	14230.28571
2645.56209	14250
2648.20948	14258.14286
2650.85521	14256.28571
2653.4993	14266.57143
2656.14175	14227.71429
2658.78255	14264.85714
2661.42171	14262.57143
2664.05923	14279.57143
2666.6951	14297.42857
2669.32934	14280.14286
2671.96194	14304.42857
2674.59291	14280.57143
2677.22224	14234.28571
2679.84993	14254.85714
2682.476	14226.57143
2685.10043	14253.57143
2687.72324	14252.42857
2690.34441	14238.14286
2692.96396	14256.85714
2695.58188	14292.85714
2698.19818	14240.57143
2700.81285	14254.14286
2703.4259	14227.85714
2706.03733	14198
2708.64714	14229.28571
2711.25533	14242.28571
2713.86191	14233.14286
2716.46687	14259.14286
2719.07021	14233
2721.67194	14269.14286
2724.27206	14290.28571
2726.87057	14251.71429
2729.46747	14267.71429
2732.06276	14267.14286
2734.65644	14247.85714
2737.24852	14235.57143
2739.83899	14215.57143
2742.42786	14233.28571
2745.01513	14184.85714
2747.60079	14146.85714
2750.18486	14157
2752.76733	14149.57143
2755.3482	14086
2757.92747	14122
2760.50515	14083.28571
2763.08123	14064
2765.65573	14056.57143
2768.22863	14081.85714
2770.79994	14052.42857
2773.36967	14038.42857
2775.9378	13964
2778.50435	13976.85714
2781.06932	13954.28571
2783.6327	13972.42857
2786.1945	13921.42857
2788.75471	13937.85714
2791.31335	13879.28571
2793.87041	13863.14286
2796.42589	13859.28571
2798.97979	13875.14286
2801.53212	13820
2804.08288	13796.28571
2806.63206	13780
2809.17967	13743.28571
2811.72571	13710.14286
2814.27018	13684
2816.81308	13684.42857
2819.35442	13664.57143
2821.89419	13592.14286
2824.43239	13592.28571
2826.96904	13599.71429
2829.50412	13603.14286
2832.03763	13573.14286
2834.56959	13595.28571
2837.1	13572.71429
2839.62884	13609.85714
2842.15613	13578
2844.68186	13603.42857
2847.20604	13594.85714
2849.72867	13554.42857
2852.24974	13590.71429
2854.76927	13542.71429
2857.28724	13552.14286
2859.80367	13520.14286
2862.31855	13506.57143
2864.83189	13497
2867.34368	13496.85714
2869.85393	13508.28571
2872.36264	13477.28571
2874.8698	13483.71429
2877.37543	13455.57143
2879.87952	13438.71429
2882.38207	13442.28571
2884.88308	13435.28571
2887.38256	13430.42857
2889.88051	13437.85714
2892.37692	13401.85714
2894.8718	13417.14286
2897.36515	13414.57143
2899.85698	13472
2902.34727	13455
2904.83604	13450.42857
2907.32328	13450.28571
2909.809	13464.85714
2912.29319	13465.57143
2914.77587	13451.28571
2917.25702	13486
2919.73665	13479.28571
2922.21476	13467.57143
2924.69136	13446.57143
2927.16644	13461.42857
2929.64	13435.28571
2932.11205	13424
2934.58258	13367.71429
2937.05161	13403.28571
2939.51912	13362.28571
2941.98513	13360.85714
2944.44962	13355
2946.91261	13301.42857
2949.37409	13309.57143
2951.83407	13299.71429
2954.29254	13276
2956.74951	13291.42857
2959.20498	13298.71429
2961.65895	13277.28571
2964.11142	13305.28571
2966.56239	13224.28571
2969.01186	13219.71429
2971.45984	13224
2973.90632	13184
2976.35131	13211.14286
2978.7948	13190.42857
2981.23681	13156
2983.67732	13157.85714
2986.11635	13140.57143
2988.55388	13093.28571
2990.98993	13099.28571
2993.4245	13070.14286
2995.85758	13011
2998.28917	12995.85714
3000.71928	12976.71429
3003.14791	12972.42857
3005.57506	12937.71429
3008.00073	12909.71429
3010.42493	12880.71429
3012.84764	12889.71429
3015.26888	12870.42857
3017.68865	12831.14286
3020.10694	12826.57143
3022.52376	12775.28571
3024.9391	12776.28571
3027.35298	12763.85714
3029.76539	12777.85714
3032.17632	12765.85714
3034.5858	12743.28571
3036.9938	12722.71429
3039.40034	12759.42857
3041.80542	12712.85714
3044.20903	12685
3046.61118	12693.42857
3049.01187	12658.85714
3051.4111	12619
3053.80888	12616.28571
3056.20519	12576.42857
3058.60005	12526.28571
3060.99345	12567.28571
3063.3854	12510.42857
3065.7759	12491.14286
3068.16494	12480
3070.55254	12447.71429
3072.93868	12417.14286
3075.32338	12395.57143
3077.70662	12383.57143
3080.08842	12341.85714
3082.46878	12309.42857
3084.84769	12325.42857
3087.22515	12339.42857
3089.60118	12348.14286
3091.97576	12355.28571
3094.3489	12320.57143
3096.72061	12348
3099.09087	12352.85714
3101.4597	12349.57143
3103.82709	12324.57143
3106.19305	12299
3108.55757	12317.42857
3110.92066	12314.14286
3113.28232	12307.57143
3115.64255	12237.28571
3118.00134	12200.42857
3120.35871	12230.85714
3122.71466	12228.85714
3125.06917	12185.57143
3127.42226	12145.14286
3129.77393	12188.28571
3132.12417	12134.28571
3134.47299	12152.42857
3136.82039	12149.28571
3139.16636	12146.85714
3141.51092	12143.42857
3143.85406	12163.71429
3146.19579	12137.57143
3148.53609	12129.28571
3150.87499	12187.57143
3153.21246	12196.28571
3155.54853	12220.85714
3157.88318	12191.85714
3160.21642	12215.71429
3162.54826	12218
3164.87868	12259.42857
3167.2077	12251
3169.5353	12231.57143
3171.86151	12256
3174.18631	12217.14286
3176.5097	12217.85714
3178.83169	12177
3181.15228	12202.71429
3183.47147	12144.57143
3185.78926	12160.85714
3188.10565	12149
3190.42065	12119.71429
3192.73424	12136
3195.04645	12132
3197.35725	12130.71429
3199.66667	12086.28571
3201.97469	12085.85714
3204.28132	12115.42857
3206.58656	12145.57143
3208.8904	12141
3211.19287	12154.28571
3213.49394	12144.28571
3215.79363	12165
3218.09193	12175.14286
3220.38884	12162.85714
3222.68438	12186.42857
3224.97853	12179
3227.2713	12184.14286
3229.56269	12176.85714
3231.8527	12156.14286
3234.14133	12098.85714
3236.42858	12089.85714
3238.71446	12050.71429
3240.99896	12053.57143
3243.28209	12051.71429
3245.56384	12011.14286
3247.84423	12005.42857
3250.12324	12008.85714
3252.40088	11991
3254.67715	11967
3256.95205	11944.14286
3259.22558	11953.14286
3261.49775	11951.71429
3263.76855	11984.57143
3266.03799	11938
3268.30606	11951.85714
3270.57277	11888.28571
3272.83812	11853.85714
3275.10211	11854.14286
3277.36474	11832.42857
3279.62601	11869.42857
3281.88593	11845.42857
3284.14448	11847.71429
3286.40168	11854
3288.65753	11815
3290.91202	11777.14286
3293.16516	11780.57143
3295.41695	11779.85714
3297.66738	11708
3299.91647	11677
3302.16421	11585.85714
3304.4106	11523.14286
3306.65564	11444.42857
3308.89933	11377.57143
3311.14169	11288.71429
3313.38269	11219.85714
3315.62236	11155.57143
3317.86068	11056.42857
3320.09766	11018.57143
3322.3333	10914.28571
3324.5676	10892.57143
3326.80056	10725
3329.03219	10652.14286
3331.26248	2.14286
3333.49143	-1.71429
3335.71905	-0.57143
