Data from AgNPs_FTO_APTES_UA_20uM_CRN_500uM_R6G_10uM_NaF_0.1M_Addition_RamanShift__25__19-01-14-989.txt Node

Date: Thu Feb 17 19:01:14 GMT 2022
User: TCL
Spectrometer: QEP01345
Trigger mode: 4
Integration Time (sec): 1.000000E1
Scans to average: 7
Electric dark correction enabled: true
Nonlinearity correction enabled: false
Boxcar width: 0
XAxis mode: Raman Shifts
Number of Pixels in Spectrum: 1044
>>>>>Begin Spectral Data<<<<<
46.04893	-0.01786
50.45542	-0.875
54.85868	0.26786
59.25871	-0.58929
63.6555	88.98214
68.04907	87.98214
72.43941	94.26786
76.82654	96.98214
81.21044	101.69643
85.59113	105.41071
89.96862	106.26786
94.34289	105.55357
98.71396	118.69643
103.08183	119.26786
107.4465	120.55357
111.80798	125.83929
116.16626	128.55357
120.52136	133.98214
124.87327	143.83929
129.222	142.69643
133.56755	155.83929
137.90993	167.125
142.24913	185.26786
146.58517	213.69643
150.91804	246.69643
155.24774	293.41071
159.57429	363.125
163.89768	466.41071
168.21792	630.83929
172.53501	863.41071
176.84895	1204.26786
181.15975	1704.83929
185.46741	2417.26786
189.77193	3342.69643
194.07331	4535.26786
198.37157	5896.69643
202.6667	7319.41071
206.9587	8804.26786
211.24758	10303.26786
215.53334	11872.55357
219.81599	13569.41071
224.09553	15536.125
228.37195	17716.26786
232.64527	20075.26786
236.91549	22429.41071
241.18261	24519.55357
245.44663	26326.83929
249.70755	27758.26786
253.96539	29013.83929
258.22014	30062.69643
262.4718	30799.26786
266.72039	31209.83929
270.96589	31214.55357
275.20832	30717.125
279.44768	29924.83929
283.68397	29173.69643
287.91719	28632.26786
292.14735	28606.55357
296.37445	29237.26786
300.59849	30544.125
304.81948	32264.98214
309.03742	33623.125
313.25231	33872.98214
317.46415	32399.98214
321.67296	29894.125
325.87872	27694.26786
330.08145	26687.55357
334.28114	26655.41071
338.47781	27188.26786
342.67145	28024.83929
346.86207	29296.83929
351.04966	31157.55357
355.23424	33503.83929
359.4158	35286.55357
363.59435	36113.83929
367.76989	36178.55357
371.94243	35991.83929
376.11196	35644.125
380.27849	35379.41071
384.44203	34907.83929
388.60257	34237.83929
392.76012	33846.55357
396.91468	33983.125
401.06626	34612.55357
405.21485	35158.26786
409.36047	34513.125
413.50311	32692.69643
417.64277	30758.55357
421.77947	29581.69643
425.9132	29023.98214
430.04396	28889.55357
434.17176	29053.55357
438.2966	29516.98214
442.41849	30275.41071
446.53742	31162.69643
450.6534	32021.26786
454.76644	32573.69643
458.87653	32622.41071
462.98368	32358.69643
467.08789	31755.98214
471.18916	31038.125
475.2875	30233.125
479.38291	29553.41071
483.4754	29013.83929
487.56496	28590.69643
491.6516	28366.125
495.73531	28209.69643
499.81612	28268.98214
503.89401	28606.98214
507.96899	29129.125
512.04106	29649.26786
516.11023	30269.26786
520.1765	30768.125
524.23987	30834.26786
528.30034	30483.26786
532.35792	30082.83929
536.41261	29590.41071
540.46441	29027.125
544.51333	28588.83929
548.55936	28640.98214
552.60252	29052.41071
556.64279	29714.69643
560.6802	30139.83929
564.71473	30808.98214
568.7464	32098.98214
572.7752	32712.83929
576.80114	31383.41071
580.82422	29812.98214
584.84444	29167.26786
588.86181	29267.41071
592.87633	29809.83929
596.888	30437.55357
600.89682	31417.125
604.9028	35063.26786
608.90594	45476.55357
612.90624	59497.98214
616.90371	58045.125
620.89834	40696.98214
624.89015	31917.98214
628.87913	30226.125
632.86528	30597.83929
636.84862	31174.55357
640.82913	30584.125
644.80683	29025.98214
648.78172	27908.125
652.75379	27918.83929
656.72306	29026.26786
660.68952	30502.55357
664.65319	30231.41071
668.61405	28707.41071
672.57211	28008.69643
676.52738	28098.83929
680.47986	28123.69643
684.42955	27793.55357
688.37646	27527.41071
692.32058	27509.55357
696.26192	27699.41071
700.20048	28092.41071
704.13626	28300.26786
708.06928	28094.69643
711.99952	27769.55357
715.927	27656.98214
719.85171	27835.98214
723.77365	27929.83929
727.69284	27846.41071
731.60928	27650.41071
735.52295	27645.55357
739.43388	27637.26786
743.34206	27777.41071
747.24749	27869.83929
751.15017	27867.55357
755.05012	28251.125
758.94733	29615.83929
762.8418	33071.55357
766.73354	38860.41071
770.62254	44575.55357
774.50882	47643.26786
778.39237	46190.69643
782.27321	40213.69643
786.15132	33857.55357
790.02671	29993.55357
793.89938	28331.26786
797.76935	27636.69643
801.6366	27310.83929
805.50115	27215.98214
809.36299	27138.55357
813.22213	27003.55357
817.07857	26900.55357
820.93231	26874.26786
824.78336	26958.41071
828.63172	27086.69643
832.47738	27180.41071
836.32036	27108.69643
840.16066	26955.83929
843.99827	26878.125
847.8332	26811.83929
851.66546	26814.69643
855.49504	26801.26786
859.32195	26826.69643
863.1462	26788.69643
866.96777	26765.98214
870.78668	26688.83929
874.60293	26745.83929
878.41652	26769.26786
882.22745	26951.83929
886.03573	27059.26786
889.84136	27033.125
893.64433	26918.69643
897.44466	26828.69643
901.24235	26823.98214
905.0374	26697.83929
908.8298	26442.125
912.61957	26293.83929
916.40671	26242.125
920.19121	26419.69643
923.97308	26739.41071
927.75233	27148.26786
931.52895	27712.98214
935.30295	27570.55357
939.07433	26831.26786
942.84309	26032.69643
946.60924	25658.41071
950.37278	25392.98214
954.13371	25237.55357
957.89203	25103.98214
961.64774	25019.26786
965.40086	24916.98214
969.15137	24822.125
972.89929	24737.41071
976.64461	24721.83929
980.38733	24784.83929
984.12747	24840.125
987.86502	24973.41071
991.59999	25168.26786
995.33237	25548.69643
999.06217	26199.98214
1002.78939	26960.41071
1006.51404	27549.55357
1010.23611	27984.83929
1013.95561	28229.125
1017.67255	28263.41071
1021.38692	27972.55357
1025.09872	27708.26786
1028.80796	27710.98214
1032.51465	28161.41071
1036.21877	28684.125
1039.92035	28797.125
1043.61937	28589.41071
1047.31584	28256.55357
1051.00976	27703.69643
1054.70114	27270.83929
1058.38998	27069.55357
1062.07627	26973.69643
1065.76003	26987.98214
1069.44126	27009.98214
1073.11995	27151.83929
1076.79611	27535.83929
1080.46974	28156.55357
1084.14085	29159.98214
1087.80943	29928.98214
1091.47549	30138.69643
1095.13903	29531.55357
1098.80005	28586.83929
1102.45857	27914.125
1106.11456	27824.55357
1109.76805	28209.69643
1113.41903	29070.83929
1117.06751	30329.69643
1120.71348	32015.55357
1124.35696	33743.98214
1127.99793	34970.55357
1131.63641	34290.83929
1135.2724	32386.98214
1138.90589	30574.55357
1142.5369	29554.125
1146.16542	28813.55357
1149.79145	28376.41071
1153.415	28199.98214
1157.03607	28342.41071
1160.65467	28832.41071
1164.27079	29735.55357
1167.88443	31240.83929
1171.49561	33445.69643
1175.10432	37118.98214
1178.71056	42272.83929
1182.31434	46967.98214
1185.91565	48336.41071
1189.51451	46618.69643
1193.11091	43265.98214
1196.70485	39941.41071
1200.29634	37686.55357
1203.88538	36073.41071
1207.47197	34089.55357
1211.05612	32259.69643
1214.63782	31172.69643
1218.21708	30750.83929
1221.79391	30690.125
1225.36829	30666.26786
1228.94024	30507.98214
1232.50976	30233.55357
1236.07685	30038.41071
1239.6415	30068.125
1243.20374	30228.98214
1246.76355	30644.69643
1250.32093	31074.69643
1253.8759	31803.98214
1257.42845	32761.41071
1260.97859	33784.55357
1264.52631	34733.26786
1268.07163	35810.41071
1271.61453	36686.69643
1275.15503	37314.69643
1278.69312	37761.26786
1282.22882	38206.98214
1285.76211	39034.41071
1289.29301	40152.26786
1292.82151	41470.98214
1296.34761	42989.55357
1299.87133	45591.26786
1303.39266	50016.55357
1306.9116	56794.26786
1310.42815	63754.26786
1313.94233	66030.69643
1317.45412	62160.69643
1320.96354	55908.55357
1324.47058	50111.83929
1327.97525	45722.83929
1331.47754	43227.83929
1334.97747	42475.69643
1338.47502	43234.98214
1341.97022	45175.125
1345.46305	48029.55357
1348.95352	51577.41071
1352.44163	55976.55357
1355.92738	62646.26786
1359.41078	73002.83929
1362.89183	81739.41071
1366.37053	77403.26786
1369.84688	63565.125
1373.32088	51660.98214
1376.79254	44663.125
1380.26186	40827.26786
1383.72883	38443.83929
1387.19347	36742.55357
1390.65578	35289.83929
1394.11575	34340.125
1397.57339	33905.41071
1401.0287	34046.125
1404.48168	34385.55357
1407.93234	34925.125
1411.38068	35487.98214
1414.82669	35873.41071
1418.27039	35876.41071
1421.71177	35363.69643
1425.15083	34738.26786
1428.58758	34474.55357
1432.02203	34746.125
1435.45416	35077.55357
1438.88399	35099.125
1442.31151	34969.83929
1445.73673	35096.41071
1449.15965	35342.125
1452.58027	35260.69643
1455.9986	34864.26786
1459.41463	34781.26786
1462.82837	35046.26786
1466.23982	35834.69643
1469.64898	36769.83929
1473.05586	37228.125
1476.46045	37552.98214
1479.86276	38000.26786
1483.26279	38691.83929
1486.66054	39696.69643
1490.05602	41063.55357
1493.44922	43112.55357
1496.84016	46145.41071
1500.22882	51051.41071
1503.61521	58506.41071
1506.99934	67706.98214
1510.38121	74986.125
1513.76081	76015.83929
1517.13816	69437.69643
1520.51324	59040.41071
1523.88607	50037.26786
1527.25665	44153.69643
1530.62498	40979.41071
1533.99105	39112.41071
1537.35488	38139.55357
1540.71647	37649.98214
1544.07581	37543.55357
1547.4329	37751.55357
1550.78776	38021.125
1554.14038	38229.125
1557.49077	38606.26786
1560.83892	39238.55357
1564.18484	40448.125
1567.52853	41802.125
1570.86999	42803.55357
1574.20922	43240.83929
1577.54624	42660.98214
1580.88103	40356.98214
1584.2136	37467.41071
1587.54395	36004.69643
1590.87208	36431.26786
1594.19801	38470.69643
1597.52172	41353.41071
1600.84321	42685.41071
1604.16251	41543.26786
1607.47959	39125.98214
1610.79447	36330.98214
1614.10715	33683.41071
1617.41763	31606.98214
1620.7259	30358.55357
1624.03199	29790.125
1627.33587	29835.55357
1630.63757	30577.41071
1633.93707	32105.69643
1637.23439	34577.55357
1640.52951	38204.125
1643.82246	43526.41071
1647.11321	49784.69643
1650.40179	53704.26786
1653.68819	51368.98214
1656.97241	44026.125
1660.25446	36611.26786
1663.53433	31654.69643
1666.81203	28701.83929
1670.08756	27056.69643
1673.36092	26029.55357
1676.63211	25330.41071
1679.90115	24865.98214
1683.16801	24470.26786
1686.43272	24188.55357
1689.69527	24002.125
1692.95567	23861.98214
1696.2139	23742.55357
1699.46999	23722.98214
1702.72392	23675.26786
1705.97571	23636.83929
1709.22535	23650.69643
1712.47284	23639.83929
1715.71819	23553.98214
1718.96139	23524.98214
1722.20246	23382.26786
1725.44139	23266.26786
1728.67818	23158.98214
1731.91284	23011.41071
1735.14537	22918.41071
1738.37576	22877.125
1741.60403	22697.41071
1744.83017	22628.98214
1748.05418	22625.83929
1751.27607	22515.41071
1754.49584	22464.26786
1757.71349	22424.55357
1760.92903	22390.55357
1764.14244	22310.83929
1767.35375	22279.125
1770.56294	22153.41071
1773.77002	22136.98214
1776.97499	22091.69643
1780.17785	22013.125
1783.37861	21937.125
1786.57727	21902.125
1789.77382	21824.98214
1792.96828	21826.83929
1796.16064	21736.98214
1799.3509	21723.83929
1802.53907	21705.69643
1805.72514	21623.26786
1808.90913	21550.26786
1812.09102	21530.26786
1815.27083	21422.98214
1818.44856	21443.41071
1821.6242	21394.69643
1824.79776	21358.69643
1827.96924	21390.41071
1831.13864	21264.83929
1834.30597	21294.98214
1837.47122	21223.69643
1840.6344	21210.26786
1843.7955	21192.26786
1846.95454	21211.69643
1850.11151	21111.55357
1853.26642	21132.83929
1856.41926	21121.83929
1859.57004	21138.26786
1862.71876	21102.69643
1865.86542	21146.41071
1869.01003	21128.41071
1872.15258	21107.83929
1875.29308	21117.83929
1878.43152	21131.69643
1881.56792	21104.125
1884.70227	21097.83929
1887.83457	21088.55357
1890.96482	21007.41071
1894.09304	21019.41071
1897.21921	20984.125
1900.34335	20966.55357
1903.46544	20975.26786
1906.58551	20964.69643
1909.70353	20950.26786
1912.81953	20894.55357
1915.93349	20847.26786
1919.04543	20863.69643
1922.15534	20835.98214
1925.26322	20741.83929
1928.36908	20764.69643
1931.47292	20703.55357
1934.57473	20685.83929
1937.67453	20608.125
1940.77232	20541.98214
1943.86808	20452.41071
1946.96184	20366.26786
1950.05358	20291.83929
1953.14331	20280.125
1956.23103	20256.41071
1959.31675	20202.55357
1962.40046	20175.69643
1965.48217	20117.69643
1968.56188	20048.69643
1971.63959	20045.26786
1974.7153	19932.69643
1977.78901	19912.125
1980.86073	19846.55357
1983.93046	19770.69643
1986.99819	19694.125
1990.06394	19652.55357
1993.1277	19557.83929
1996.18947	19459.55357
1999.24925	19409.26786
2002.30706	19336.41071
2005.36288	19279.98214
2008.41672	19226.69643
2011.46859	19192.83929
2014.51848	19120.26786
2017.56639	19094.83929
2020.61233	19008.125
2023.6563	18959.69643
2026.6983	18885.98214
2029.73833	18910.83929
2032.7764	18853.69643
2035.8125	18821.69643
2038.84664	18775.125
2041.87881	18758.125
2044.90903	18729.41071
2047.93729	18705.69643
2050.96359	18720.83929
2053.98794	18673.98214
2057.01034	18617.41071
2060.03078	18611.98214
2063.04927	18540.83929
2066.06582	18579.83929
2069.08042	18527.41071
2072.09307	18500.69643
2075.10378	18487.26786
2078.11255	18484.69643
2081.11938	18490.125
2084.12426	18487.26786
2087.12722	18459.55357
2090.12824	18446.125
2093.12732	18499.83929
2096.12447	18497.69643
2099.11969	18422.125
2102.11299	18446.125
2105.10435	18458.26786
2108.09379	18424.83929
2111.08131	18491.83929
2114.0669	18522.69643
2117.05057	18535.83929
2120.03233	18558.41071
2123.01216	18569.98214
2125.99008	18610.55357
2128.96609	18612.69643
2131.94018	18631.55357
2134.91236	18647.83929
2137.88263	18610.98214
2140.851	18623.41071
2143.81746	18638.98214
2146.78201	18603.125
2149.74466	18631.83929
2152.7054	18607.55357
2155.66425	18577.55357
2158.6212	18592.41071
2161.57625	18549.69643
2164.52941	18528.26786
2167.48067	18482.69643
2170.43004	18517.125
2173.37752	18537.26786
2176.32311	18553.26786
2179.26681	18524.98214
2182.20863	18564.26786
2185.14856	18549.125
2188.08661	18523.55357
2191.02278	18548.26786
2193.95707	18502.55357
2196.88948	18496.41071
2199.82001	18511.41071
2202.74867	18477.55357
2205.67545	18453.125
2208.60037	18457.55357
2211.52341	18428.26786
2214.44458	18427.41071
2217.36388	18402.69643
2220.28132	18333.125
2223.1969	18309.41071
2226.11061	18282.83929
2229.02246	18209.125
2231.93245	18162.69643
2234.84058	18142.98214
2237.74686	18112.26786
2240.65128	18117.55357
2243.55385	18144.69643
2246.45456	18103.125
2249.35343	18059.55357
2252.25044	18053.26786
2255.14561	18132.98214
2258.03893	18109.98214
2260.93041	18053.55357
2263.82004	18057.83929
2266.70783	17970.69643
2269.59378	17929.26786
2272.4779	17895.98214
2275.36017	17844.83929
2278.24061	17831.98214
2281.11922	17749.26786
2283.996	17739.41071
2286.87094	17751.26786
2289.74405	17704.26786
2292.61534	17645.83929
2295.4848	17620.55357
2298.35243	17650.125
2301.21824	17622.41071
2304.08223	17615.55357
2306.94439	17631.125
2309.80474	17606.55357
2312.66327	17595.83929
2315.51999	17632.83929
2318.37489	17596.69643
2321.22797	17581.41071
2324.07925	17552.55357
2326.92871	17530.55357
2329.77637	17519.98214
2332.62222	17495.41071
2335.46626	17518.69643
2338.3085	17505.55357
2341.14893	17493.125
2343.98756	17522.125
2346.8244	17557.55357
2349.65943	17509.41071
2352.49267	17518.26786
2355.32411	17536.83929
2358.15376	17547.26786
2360.98161	17554.98214
2363.80768	17550.98214
2366.63195	17529.83929
2369.45444	17512.41071
2372.27514	17445.69643
2375.09405	17416.55357
2377.91118	17428.55357
2380.72652	17387.98214
2383.54009	17277.69643
2386.35187	17259.41071
2389.16188	17171.83929
2391.97011	17153.125
2394.77657	17111.41071
2397.58125	17071.69643
2400.38416	17021.125
2403.18529	17018.98214
2405.98466	16974.125
2408.78226	16942.83929
2411.57809	16896.55357
2414.37216	16869.26786
2417.16446	16843.41071
2419.955	16831.41071
2422.74378	16836.41071
2425.5308	16842.125
2428.31606	16828.69643
2431.09956	16826.26786
2433.88131	16797.55357
2436.6613	16824.55357
2439.43954	16804.83929
2442.21603	16794.125
2444.99077	16779.55357
2447.76377	16822.55357
2450.53501	16790.41071
2453.30451	16781.55357
2456.07226	16787.69643
2458.83827	16757.83929
2461.60254	16725.55357
2464.36507	16742.125
2467.12586	16697.83929
2469.88492	16674.26786
2472.64224	16709.125
2475.39782	16736.55357
2478.15167	16763.55357
2480.90379	16816.83929
2483.65417	16801.69643
2486.40283	16842.41071
2489.14976	16855.69643
2491.89497	16881.69643
2494.63845	16881.26786
2497.3802	16872.125
2500.12024	16865.26786
2502.85855	16772.83929
2505.59514	16730.69643
2508.33002	16685.125
2511.06318	16630.125
2513.79462	16568.26786
2516.52435	16559.41071
2519.25237	16501.55357
2521.97867	16460.26786
2524.70327	16452.55357
2527.42616	16433.98214
2530.14734	16393.55357
2532.86681	16393.26786
2535.58458	16388.125
2538.30065	16377.125
2541.01501	16404.26786
2543.72768	16353.98214
2546.43864	16369.125
2549.14791	16366.125
2551.85548	16341.98214
2554.56136	16329.125
2557.26554	16304.98214
2559.96803	16294.26786
2562.66883	16242.41071
2565.36794	16186.83929
2568.06536	16207.69643
2570.7611	16163.26786
2573.45514	16151.98214
2576.14751	16131.125
2578.83819	16108.83929
2581.52719	16068.69643
2584.21451	16065.98214
2586.90015	16071.98214
2589.58411	16043.26786
2592.2664	16015.41071
2594.94701	15991.69643
2597.62594	15987.125
2600.30321	15938.83929
2602.9788	15981.26786
2605.65273	15924.69643
2608.32498	15963.26786
2610.99557	15948.55357
2613.66449	15969.83929
2616.33175	15960.98214
2618.99734	15984.98214
2621.66128	15929.26786
2624.32355	15929.41071
2626.98416	15899.98214
2629.64311	15923.98214
2632.30041	15904.83929
2634.95605	15833.41071
2637.61004	15791.98214
2640.26238	15789.55357
2642.91306	15801.26786
2645.56209	15789.98214
2648.20948	15778.41071
2650.85521	15737.55357
2653.4993	15760.69643
2656.14175	15729.98214
2658.78255	15744.98214
2661.42171	15782.69643
2664.05923	15815.41071
2666.6951	15846.55357
2669.32934	15840.98214
2671.96194	15846.69643
2674.59291	15825.55357
2677.22224	15811.69643
2679.84993	15829.55357
2682.476	15817.125
2685.10043	15811.55357
2687.72324	15789.83929
2690.34441	15742.98214
2692.96396	15766.55357
2695.58188	15814.125
2698.19818	15778.41071
2700.81285	15731.125
2703.4259	15778.125
2706.03733	15801.69643
2708.64714	15786.69643
2711.25533	15809.41071
2713.86191	15785.55357
2716.46687	15821.26786
2719.07021	15825.55357
2721.67194	15851.69643
2724.27206	15783.55357
2726.87057	15792.125
2729.46747	15791.26786
2732.06276	15744.83929
2734.65644	15746.55357
2737.24852	15770.41071
2739.83899	15771.26786
2742.42786	15757.41071
2745.01513	15677.55357
2747.60079	15697.41071
2750.18486	15681.125
2752.76733	15665.69643
2755.3482	15651.26786
2757.92747	15672.69643
2760.50515	15628.26786
2763.08123	15623.125
2765.65573	15571.83929
2768.22863	15557.125
2770.79994	15547.41071
2773.36967	15573.55357
2775.9378	15585.83929
2778.50435	15562.83929
2781.06932	15548.41071
2783.6327	15558.26786
2786.1945	15518.55357
2788.75471	15516.83929
2791.31335	15457.98214
2793.87041	15464.125
2796.42589	15493.98214
2798.97979	15491.83929
2801.53212	15431.55357
2804.08288	15451.41071
2806.63206	15430.83929
2809.17967	15399.69643
2811.72571	15447.69643
2814.27018	15403.125
2816.81308	15380.41071
2819.35442	15376.98214
2821.89419	15374.55357
2824.43239	15378.41071
2826.96904	15391.26786
2829.50412	15395.125
2832.03763	15355.98214
2834.56959	15361.41071
2837.1	15355.55357
2839.62884	15357.26786
2842.15613	15316.83929
2844.68186	15319.55357
2847.20604	15301.83929
2849.72867	15301.41071
2852.24974	15317.69643
2854.76927	15290.98214
2857.28724	15319.55357
2859.80367	15296.26786
2862.31855	15256.125
2864.83189	15282.83929
2867.34368	15297.125
2869.85393	15298.55357
2872.36264	15315.98214
2874.8698	15302.125
2877.37543	15321.69643
2879.87952	15306.125
2882.38207	15274.125
2884.88308	15288.69643
2887.38256	15272.69643
2889.88051	15291.55357
2892.37692	15280.125
2894.8718	15268.26786
2897.36515	15312.41071
2899.85698	15305.83929
2902.34727	15339.98214
2904.83604	15324.98214
2907.32328	15337.125
2909.809	15342.125
2912.29319	15383.98214
2914.77587	15325.69643
2917.25702	15332.83929
2919.73665	15338.41071
2922.21476	15331.125
2924.69136	15279.125
2927.16644	15251.83929
2929.64	15261.26786
2932.11205	15198.41071
2934.58258	15143.55357
2937.05161	15209.26786
2939.51912	15155.125
2941.98513	15159.83929
2944.44962	15146.26786
2946.91261	15077.83929
2949.37409	15118.125
2951.83407	15080.41071
2954.29254	15063.55357
2956.74951	15027.69643
2959.20498	15015.41071
2961.65895	14992.26786
2964.11142	15009.83929
2966.56239	14942.125
2969.01186	14953.69643
2971.45984	14878.125
2973.90632	14871.98214
2976.35131	14829.41071
2978.7948	14809.41071
2981.23681	14740.55357
2983.67732	14743.98214
2986.11635	14727.69643
2988.55388	14676.98214
2990.98993	14653.98214
2993.4245	14622.55357
2995.85758	14617.125
2998.28917	14600.69643
3000.71928	14603.55357
3003.14791	14598.26786
3005.57506	14553.98214
3008.00073	14514.26786
3010.42493	14528.98214
3012.84764	14478.69643
3015.26888	14468.83929
3017.68865	14438.125
3020.10694	14407.55357
3022.52376	14399.41071
3024.9391	14339.55357
3027.35298	14327.41071
3029.76539	14312.98214
3032.17632	14300.55357
3034.5858	14252.41071
3036.9938	14242.98214
3039.40034	14227.98214
3041.80542	14195.41071
3044.20903	14157.55357
3046.61118	14144.98214
3049.01187	14137.98214
3051.4111	14117.69643
3053.80888	14084.83929
3056.20519	14031.98214
3058.60005	14001.83929
3060.99345	13990.83929
3063.3854	13954.69643
3065.7759	13921.26786
3068.16494	13851.98214
3070.55254	13848.41071
3072.93868	13768.98214
3075.32338	13772.41071
3077.70662	13726.83929
3080.08842	13660.83929
3082.46878	13660.41071
3084.84769	13649.41071
3087.22515	13673.125
3089.60118	13656.69643
3091.97576	13647.69643
3094.3489	13683.83929
3096.72061	13640.69643
3099.09087	13644.55357
3101.4597	13620.41071
3103.82709	13618.26786
3106.19305	13627.83929
3108.55757	13612.26786
3110.92066	13566.98214
3113.28232	13548.41071
3115.64255	13541.41071
3118.00134	13511.125
3120.35871	13483.41071
3122.71466	13476.41071
3125.06917	13460.55357
3127.42226	13408.98214
3129.77393	13459.26786
3132.12417	13419.69643
3134.47299	13469.41071
3136.82039	13385.98214
3139.16636	13415.26786
3141.51092	13409.69643
3143.85406	13414.41071
3146.19579	13401.98214
3148.53609	13442.98214
3150.87499	13428.125
3153.21246	13438.125
3155.54853	13461.55357
3157.88318	13429.83929
3160.21642	13470.98214
3162.54826	13466.26786
3164.87868	13471.125
3167.2077	13436.83929
3169.5353	13423.26786
3171.86151	13439.125
3174.18631	13442.125
3176.5097	13443.125
3178.83169	13400.98214
3181.15228	13402.98214
3183.47147	13402.83929
3185.78926	13367.125
3188.10565	13332.26786
3190.42065	13373.55357
3192.73424	13361.26786
3195.04645	13371.125
3197.35725	13403.69643
3199.66667	13378.83929
3201.97469	13398.83929
3204.28132	13370.125
3206.58656	13380.55357
3208.8904	13428.125
3211.19287	13497.83929
3213.49394	13508.98214
3215.79363	13484.98214
3218.09193	13486.69643
3220.38884	13493.69643
3222.68438	13508.98214
3224.97853	13507.55357
3227.2713	13482.55357
3229.56269	13471.55357
3231.8527	13455.26786
3234.14133	13455.83929
3236.42858	13424.98214
3238.71446	13356.83929
3240.99896	13400.26786
3243.28209	13347.26786
3245.56384	13296.55357
3247.84423	13291.55357
3250.12324	13368.41071
3252.40088	13329.26786
3254.67715	13319.83929
3256.95205	13305.98214
3259.22558	13296.125
3261.49775	13302.98214
3263.76855	13270.55357
3266.03799	13281.98214
3268.30606	13265.69643
3270.57277	13244.26786
3272.83812	13192.69643
3275.10211	13187.55357
3277.36474	13169.98214
3279.62601	13156.26786
3281.88593	13143.41071
3284.14448	13180.83929
3286.40168	13136.125
3288.65753	13152.41071
3290.91202	13126.83929
3293.16516	13093.41071
3295.41695	13094.98214
3297.66738	13040.55357
3299.91647	12979.98214
3302.16421	12920.125
3304.4106	12785.83929
3306.65564	12754.55357
3308.89933	12672.55357
3311.14169	12570.83929
3313.38269	12468.41071
3315.62236	12366.69643
3317.86068	12306.69643
3320.09766	12184.125
3322.3333	12122.125
3324.5676	12055.55357
3326.80056	11888.41071
3329.03219	11832.69643
3331.26248	2.55357
3333.49143	-1.16071
3335.71905	-0.73214
