Data from AgNPs_FTO_APTES_UA_20uM_CRN_2uM_R6G_10uM_NaF_0.1M_Addition_RamanShift__18__13-01-32-089.txt Node

Date: Thu Feb 17 13:01:32 GMT 2022
User: TCL
Spectrometer: QEP01345
Trigger mode: 4
Integration Time (sec): 7.000000E0
Scans to average: 10
Electric dark correction enabled: true
Nonlinearity correction enabled: false
Boxcar width: 0
XAxis mode: Raman Shifts
Number of Pixels in Spectrum: 1044
>>>>>Begin Spectral Data<<<<<
46.04893	0.9625
50.45542	-2.1375
54.85868	-3.5375
59.25871	0.0625
63.6555	120.6625
68.04907	123.8625
72.43941	131.4625
76.82654	130.5625
81.21044	135.2625
85.59113	138.9625
89.96862	146.8625
94.34289	147.6625
98.71396	151.5625
103.08183	159.1625
107.4465	163.9625
111.80798	168.2625
116.16626	170.6625
120.52136	178.1625
124.87327	189.6625
129.222	203.9625
133.56755	217.5625
137.90993	237.1625
142.24913	258.2625
146.58517	297.3625
150.91804	354.7625
155.24774	424.3625
159.57429	531.7625
163.89768	699.8625
168.21792	930.1625
172.53501	1287.6625
176.84895	1807.6625
181.15975	2559.9625
185.46741	3610.7625
189.77193	4979.4625
194.07331	6670.3625
198.37157	8593.8625
202.6667	10637.0625
206.9587	12671.4625
211.24758	14652.3625
215.53334	16603.5625
219.81599	18725.4625
224.09553	21080.2625
228.37195	23599.4625
232.64527	26488.8625
236.91549	29487.0625
241.18261	32538.1625
245.44663	35407.1625
249.70755	37996.7625
253.96539	40239.7625
258.22014	42159.2625
262.4718	43755.0625
266.72039	44988.5625
270.96589	45670.4625
275.20832	45760.7625
279.44768	45599.1625
283.68397	45196.9625
287.91719	44913.5625
292.14735	44685.1625
296.37445	44585.6625
300.59849	44667.4625
304.81948	44720.2625
309.03742	44665.3625
313.25231	44325.8625
317.46415	43637.9625
321.67296	42704.1625
325.87872	41995.3625
330.08145	41660.6625
334.28114	41716.8625
338.47781	42064.1625
342.67145	42512.0625
346.86207	43259.6625
351.04966	44073.7625
355.23424	44893.0625
359.4158	45573.9625
363.59435	46105.7625
367.76989	46512.9625
371.94243	46798.8625
376.11196	47111.5625
380.27849	47454.0625
384.44203	47741.7625
388.60257	48039.2625
392.76012	48416.8625
396.91468	48958.7625
401.06626	49529.8625
405.21485	49948.4625
409.36047	49902.6625
413.50311	49443.1625
417.64277	48979.3625
421.77947	48924.6625
425.9132	49177.7625
430.04396	49458.7625
434.17176	49813.1625
438.2966	50346.4625
442.41849	51212.3625
446.53742	52457.5625
450.6534	53882.2625
454.76644	54932.1625
458.87653	55395.0625
462.98368	55201.0625
467.08789	54615.9625
471.18916	53883.1625
475.2875	53341.3625
479.38291	53069.0625
483.4754	52760.9625
487.56496	52224.5625
491.6516	51581.4625
495.73531	50874.8625
499.81612	50521.0625
503.89401	50707.2625
507.96899	50917.3625
512.04106	50816.0625
516.11023	50505.9625
520.1765	50145.9625
524.23987	49894.6625
528.30034	49632.1625
532.35792	49307.6625
536.41261	48927.6625
540.46441	48602.6625
544.51333	48622.1625
548.55936	49161.7625
552.60252	50087.5625
556.64279	51208.5625
560.6802	52007.5625
564.71473	52546.3625
568.7464	53342.0625
572.7752	54511.2625
576.80114	55513.9625
580.82422	56316.2625
584.84444	57071.4625
588.86181	57956.9625
592.87633	58833.1625
596.888	58797.9625
600.89682	58197.3625
604.9028	59097.4625
608.90594	62888.2625
612.90624	66573.0625
616.90371	62897.3625
620.89834	54771.0625
624.89015	51246.8625
628.87913	50800.5625
632.86528	50876.2625
636.84862	50797.5625
640.82913	50247.3625
644.80683	49261.0625
648.78172	48485.6625
652.75379	48372.3625
656.72306	48955.8625
660.68952	49659.5625
664.65319	49481.1625
668.61405	48839.1625
672.57211	48721.8625
676.52738	48835.4625
680.47986	48757.0625
684.42955	48600.3625
688.37646	48490.3625
692.32058	48817.6625
696.26192	49296.4625
700.20048	49861.0625
704.13626	50241.8625
708.06928	50150.7625
711.99952	49892.8625
715.927	49825.2625
719.85171	49940.1625
723.77365	49857.7625
727.69284	49564.4625
731.60928	49095.8625
735.52295	48952.8625
739.43388	49040.5625
743.34206	49157.1625
747.24749	49390.2625
751.15017	49736.3625
755.05012	50371.1625
758.94733	51513.3625
762.8418	53695.0625
766.73354	57035.7625
770.62254	59942.9625
774.50882	60388.1625
778.39237	57950.9625
782.27321	54590.0625
786.15132	51828.7625
790.02671	50117.4625
793.89938	49319.4625
797.76935	48998.1625
801.6366	48848.2625
805.50115	48790.8625
809.36299	48666.1625
813.22213	48342.9625
817.07857	48215.0625
820.93231	48150.3625
824.78336	47987.7625
828.63172	47890.4625
832.47738	47820.9625
836.32036	47901.8625
840.16066	48011.5625
843.99827	48158.1625
847.8332	48163.5625
851.66546	48019.3625
855.49504	48003.6625
859.32195	48012.6625
863.1462	47986.3625
866.96777	48009.4625
870.78668	47927.9625
874.60293	47866.7625
878.41652	47936.4625
882.22745	48034.2625
886.03573	48119.4625
889.84136	48133.9625
893.64433	47985.1625
897.44466	47788.1625
901.24235	47602.8625
905.0374	47523.4625
908.8298	47430.7625
912.61957	47469.8625
916.40671	47782.3625
920.19121	48376.4625
923.97308	48809.4625
927.75233	48761.3625
931.52895	48459.5625
935.30295	47985.1625
939.07433	47320.1625
942.84309	46881.7625
946.60924	46787.9625
950.37278	46735.3625
954.13371	46765.0625
957.89203	46638.6625
961.64774	46540.1625
965.40086	46433.6625
969.15137	46363.3625
972.89929	46212.5625
976.64461	46064.6625
980.38733	46139.4625
984.12747	46215.8625
987.86502	46612.0625
991.59999	47154.7625
995.33237	47855.0625
999.06217	48910.5625
1002.78939	50094.8625
1006.51404	51026.1625
1010.23611	51652.4625
1013.95561	52082.8625
1017.67255	52121.7625
1021.38692	51624.9625
1025.09872	51024.4625
1028.80796	50779.8625
1032.51465	51298.0625
1036.21877	51956.4625
1039.92035	52101.2625
1043.61937	51709.3625
1047.31584	51042.3625
1051.00976	50373.4625
1054.70114	50094.9625
1058.38998	50230.1625
1062.07627	50471.3625
1065.76003	50871.8625
1069.44126	51385.7625
1073.11995	51956.3625
1076.79611	52460.8625
1080.46974	52948.8625
1084.14085	53349.5625
1087.80943	53913.8625
1091.47549	54360.9625
1095.13903	54258.8625
1098.80005	53723.8625
1102.45857	52990.7625
1106.11456	52350.7625
1109.76805	52143.6625
1113.41903	52297.0625
1117.06751	52608.3625
1120.71348	53036.0625
1124.35696	53375.5625
1127.99793	53710.6625
1131.63641	53841.6625
1135.2724	53658.0625
1138.90589	53391.9625
1142.5369	53410.6625
1146.16542	53478.8625
1149.79145	53725.2625
1153.415	54173.7625
1157.03607	54909.4625
1160.65467	56167.3625
1164.27079	58078.3625
1167.88443	60622.2625
1171.49561	63850.3625
1175.10432	67912.0625
1178.71056	72858.7625
1182.31434	77365.6625
1185.91565	79571.2625
1189.51451	79266.1625
1193.11091	77299.8625
1196.70485	74579.6625
1200.29634	72037.6625
1203.88538	70079.2625
1207.47197	68731.2625
1211.05612	67625.3625
1214.63782	66505.6625
1218.21708	65681.0625
1221.79391	65170.4625
1225.36829	64796.3625
1228.94024	64098.7625
1232.50976	62809.1625
1236.07685	61704.7625
1239.6415	61171.2625
1243.20374	61122.3625
1246.76355	61531.5625
1250.32093	62303.2625
1253.8759	63374.6625
1257.42845	64772.8625
1260.97859	66332.7625
1264.52631	67862.3625
1268.07163	69576.8625
1271.61453	71335.5625
1275.15503	73094.5625
1278.69312	74905.0625
1282.22882	76493.9625
1285.76211	78207.8625
1289.29301	80257.1625
1292.82151	82854.3625
1296.34761	86318.6625
1299.87133	90559.9625
1303.39266	95444.4625
1306.9116	100633.6625
1310.42815	105510.6625
1313.94233	108879.3625
1317.45412	109410.6625
1320.96354	108278.7625
1324.47058	106780.9625
1327.97525	105289.1625
1331.47754	104025.2625
1334.97747	103229.3625
1338.47502	103014.1625
1341.97022	102787.3625
1345.46305	101924.6625
1348.95352	100348.9625
1352.44163	98841.1625
1355.92738	99137.4625
1359.41078	101540.5625
1362.89183	103813.9625
1366.37053	101849.4625
1369.84688	94705.2625
1373.32088	86315.7625
1376.79254	80651.7625
1380.26186	78469.1625
1383.72883	78323.5625
1387.19347	78634.0625
1390.65578	78379.8625
1394.11575	78465.6625
1397.57339	79359.1625
1401.0287	80883.9625
1404.48168	82315.9625
1407.93234	82696.1625
1411.38068	81741.9625
1414.82669	79618.5625
1418.27039	76712.4625
1421.71177	73708.8625
1425.15083	71163.2625
1428.58758	69892.1625
1432.02203	70230.7625
1435.45416	71781.6625
1438.88399	73715.3625
1442.31151	75481.6625
1445.73673	76637.2625
1449.15965	77603.9625
1452.58027	78184.8625
1455.9986	78422.5625
1459.41463	79045.6625
1462.82837	80064.3625
1466.23982	81378.5625
1469.64898	82614.5625
1473.05586	83248.7625
1476.46045	83187.7625
1479.86276	82395.5625
1483.26279	81261.0625
1486.66054	80430.6625
1490.05602	80314.8625
1493.44922	80419.5625
1496.84016	80642.2625
1500.22882	81563.6625
1503.61521	83275.9625
1506.99934	85542.0625
1510.38121	87271.8625
1513.76081	87567.3625
1517.13816	85640.8625
1520.51324	82991.0625
1523.88607	80779.9625
1527.25665	79929.1625
1530.62498	79976.2625
1533.99105	80286.2625
1537.35488	80056.7625
1540.71647	79479.0625
1544.07581	78298.5625
1547.4329	76900.1625
1550.78776	75480.7625
1554.14038	74394.9625
1557.49077	73711.5625
1560.83892	73333.6625
1564.18484	73181.2625
1567.52853	73123.7625
1570.86999	73500.9625
1574.20922	74300.2625
1577.54624	74951.0625
1580.88103	75019.2625
1584.2136	75453.1625
1587.54395	77382.8625
1590.87208	80850.3625
1594.19801	85780.6625
1597.52172	90550.2625
1600.84321	92165.6625
1604.16251	89028.9625
1607.47959	83141.5625
1610.79447	76814.1625
1614.10715	70875.5625
1617.41763	65888.1625
1620.7259	62228.9625
1624.03199	60446.5625
1627.33587	60212.3625
1630.63757	61624.8625
1633.93707	65145.4625
1637.23439	70851.0625
1640.52951	79018.8625
1643.82246	87992.4625
1647.11321	94304.3625
1650.40179	94477.7625
1653.68819	87802.5625
1656.97241	77289.4625
1660.25446	67233.5625
1663.53433	59922.4625
1666.81203	55198.2625
1670.08756	52245.9625
1673.36092	50355.6625
1676.63211	49058.8625
1679.90115	48101.4625
1683.16801	47379.8625
1686.43272	46966.7625
1689.69527	46577.8625
1692.95567	46236.5625
1696.2139	46060.3625
1699.46999	46018.7625
1702.72392	45796.0625
1705.97571	45730.2625
1709.22535	45620.9625
1712.47284	45556.3625
1715.71819	45516.4625
1718.96139	45437.9625
1722.20246	45301.4625
1725.44139	45064.7625
1728.67818	44844.1625
1731.91284	44616.6625
1735.14537	44424.9625
1738.37576	44239.5625
1741.60403	44155.6625
1744.83017	43984.5625
1748.05418	43815.3625
1751.27607	43766.1625
1754.49584	43686.8625
1757.71349	43690.2625
1760.92903	43666.4625
1764.14244	43567.4625
1767.35375	43589.1625
1770.56294	43507.5625
1773.77002	43492.7625
1776.97499	43464.2625
1780.17785	43385.6625
1783.37861	43331.6625
1786.57727	43230.1625
1789.77382	43110.8625
1792.96828	43111.8625
1796.16064	43042.9625
1799.3509	42948.0625
1802.53907	42872.5625
1805.72514	42781.7625
1808.90913	42657.1625
1812.09102	42580.8625
1815.27083	42513.3625
1818.44856	42417.2625
1821.6242	42398.6625
1824.79776	42317.1625
1827.96924	42340.4625
1831.13864	42297.9625
1834.30597	42338.2625
1837.47122	42322.0625
1840.6344	42253.0625
1843.7955	42270.3625
1846.95454	42272.2625
1850.11151	42279.3625
1853.26642	42218.3625
1856.41926	42188.1625
1859.57004	42190.3625
1862.71876	42149.6625
1865.86542	42095.3625
1869.01003	42032.3625
1872.15258	42022.6625
1875.29308	41964.7625
1878.43152	41887.6625
1881.56792	41906.8625
1884.70227	41944.7625
1887.83457	41931.2625
1890.96482	41960.7625
1894.09304	41881.5625
1897.21921	41797.3625
1900.34335	41744.6625
1903.46544	41662.3625
1906.58551	41687.4625
1909.70353	41625.6625
1912.81953	41565.6625
1915.93349	41527.6625
1919.04543	41416.4625
1922.15534	41320.0625
1925.26322	41329.8625
1928.36908	41217.1625
1931.47292	41125.4625
1934.57473	41066.6625
1937.67453	40973.7625
1940.77232	40859.4625
1943.86808	40768.7625
1946.96184	40648.9625
1950.05358	40481.8625
1953.14331	40413.6625
1956.23103	40272.7625
1959.31675	40165.0625
1962.40046	40076.1625
1965.48217	39913.8625
1968.56188	39807.5625
1971.63959	39700.7625
1974.7153	39673.1625
1977.78901	39495.9625
1980.86073	39373.5625
1983.93046	39300.9625
1986.99819	39208.3625
1990.06394	39111.3625
1993.1277	39035.6625
1996.18947	38933.7625
1999.24925	38811.7625
2002.30706	38667.9625
2005.36288	38597.2625
2008.41672	38496.9625
2011.46859	38321.8625
2014.51848	38265.4625
2017.56639	38162.9625
2020.61233	38057.2625
2023.6563	37967.6625
2026.6983	37895.2625
2029.73833	37795.1625
2032.7764	37738.3625
2035.8125	37708.6625
2038.84664	37585.3625
2041.87881	37565.3625
2044.90903	37483.0625
2047.93729	37447.2625
2050.96359	37415.3625
2053.98794	37383.6625
2057.01034	37378.3625
2060.03078	37426.6625
2063.04927	37335.1625
2066.06582	37308.4625
2069.08042	37276.0625
2072.09307	37254.5625
2075.10378	37239.1625
2078.11255	37174.7625
2081.11938	37226.1625
2084.12426	37194.9625
2087.12722	37095.7625
2090.12824	37102.6625
2093.12732	37129.2625
2096.12447	37084.8625
2099.11969	37096.9625
2102.11299	37111.8625
2105.10435	37109.4625
2108.09379	37107.5625
2111.08131	37151.7625
2114.0669	37137.5625
2117.05057	37124.4625
2120.03233	37161.3625
2123.01216	37260.4625
2125.99008	37262.5625
2128.96609	37306.1625
2131.94018	37340.2625
2134.91236	37402.5625
2137.88263	37434.9625
2140.851	37481.6625
2143.81746	37501.3625
2146.78201	37484.9625
2149.74466	37536.6625
2152.7054	37537.2625
2155.66425	37550.5625
2158.6212	37564.5625
2161.57625	37473.5625
2164.52941	37482.2625
2167.48067	37443.4625
2170.43004	37433.8625
2173.37752	37445.6625
2176.32311	37441.3625
2179.26681	37492.1625
2182.20863	37485.7625
2185.14856	37520.2625
2188.08661	37508.8625
2191.02278	37483.4625
2193.95707	37422.1625
2196.88948	37385.8625
2199.82001	37423.0625
2202.74867	37379.3625
2205.67545	37361.6625
2208.60037	37301.7625
2211.52341	37254.7625
2214.44458	37236.1625
2217.36388	37178.2625
2220.28132	37185.0625
2223.1969	37068.9625
2226.11061	37032.7625
2229.02246	36834.3625
2231.93245	36796.4625
2234.84058	36723.8625
2237.74686	36750.0625
2240.65128	36705.0625
2243.55385	36661.0625
2246.45456	36608.9625
2249.35343	36541.3625
2252.25044	36499.1625
2255.14561	36409.4625
2258.03893	36432.2625
2260.93041	36389.1625
2263.82004	36247.8625
2266.70783	36196.8625
2269.59378	36060.3625
2272.4779	36018.9625
2275.36017	35917.4625
2278.24061	35908.1625
2281.11922	35850.5625
2283.996	35798.9625
2286.87094	35759.4625
2289.74405	35738.7625
2292.61534	35690.5625
2295.4848	35645.2625
2298.35243	35716.6625
2301.21824	35599.4625
2304.08223	35644.3625
2306.94439	35641.2625
2309.80474	35667.9625
2312.66327	35632.8625
2315.51999	35635.6625
2318.37489	35577.3625
2321.22797	35522.9625
2324.07925	35526.1625
2326.92871	35437.8625
2329.77637	35362.0625
2332.62222	35355.8625
2335.46626	35395.7625
2338.3085	35361.3625
2341.14893	35333.5625
2343.98756	35376.0625
2346.8244	35345.6625
2349.65943	35367.3625
2352.49267	35388.7625
2355.32411	35401.8625
2358.15376	35314.2625
2360.98161	35327.0625
2363.80768	35283.0625
2366.63195	35215.5625
2369.45444	35177.6625
2372.27514	35162.6625
2375.09405	35130.5625
2377.91118	35066.7625
2380.72652	34964.7625
2383.54009	34899.8625
2386.35187	34812.4625
2389.16188	34684.9625
2391.97011	34654.8625
2394.77657	34604.2625
2397.58125	34587.9625
2400.38416	34578.8625
2403.18529	34482.7625
2405.98466	34456.0625
2408.78226	34352.9625
2411.57809	34281.9625
2414.37216	34280.3625
2417.16446	34234.8625
2419.955	34259.3625
2422.74378	34221.9625
2425.5308	34178.5625
2428.31606	34189.0625
2431.09956	34173.5625
2433.88131	34181.5625
2436.6613	34196.4625
2439.43954	34134.8625
2442.21603	34115.8625
2444.99077	34064.0625
2447.76377	34081.0625
2450.53501	34035.2625
2453.30451	34074.1625
2456.07226	34034.6625
2458.83827	34012.8625
2461.60254	33989.3625
2464.36507	33960.1625
2467.12586	34004.2625
2469.88492	33976.2625
2472.64224	33994.6625
2475.39782	34024.5625
2478.15167	34051.3625
2480.90379	34021.7625
2483.65417	34068.0625
2486.40283	34042.4625
2489.14976	34059.2625
2491.89497	34021.8625
2494.63845	34109.0625
2497.3802	34048.1625
2500.12024	34079.6625
2502.85855	34035.8625
2505.59514	33998.5625
2508.33002	33912.5625
2511.06318	33923.7625
2513.79462	33869.8625
2516.52435	33900.1625
2519.25237	33883.3625
2521.97867	33846.2625
2524.70327	33833.2625
2527.42616	33838.9625
2530.14734	33768.9625
2532.86681	33736.6625
2535.58458	33706.8625
2538.30065	33751.5625
2541.01501	33764.6625
2543.72768	33751.4625
2546.43864	33671.5625
2549.14791	33665.3625
2551.85548	33582.3625
2554.56136	33527.0625
2557.26554	33456.8625
2559.96803	33418.0625
2562.66883	33394.5625
2565.36794	33395.9625
2568.06536	33372.9625
2570.7611	33271.1625
2573.45514	33260.2625
2576.14751	33217.5625
2578.83819	33202.7625
2581.52719	33238.4625
2584.21451	33177.9625
2586.90015	33147.8625
2589.58411	33108.9625
2592.2664	33147.4625
2594.94701	33083.4625
2597.62594	33086.9625
2600.30321	33089.2625
2602.9788	33081.1625
2605.65273	33094.0625
2608.32498	33065.7625
2610.99557	33078.9625
2613.66449	33089.5625
2616.33175	33042.6625
2618.99734	33042.9625
2621.66128	32972.3625
2624.32355	32948.8625
2626.98416	32988.1625
2629.64311	32907.9625
2632.30041	32936.3625
2634.95605	32899.8625
2637.61004	32919.7625
2640.26238	32889.2625
2642.91306	32835.5625
2645.56209	32826.9625
2648.20948	32809.5625
2650.85521	32821.1625
2653.4993	32828.2625
2656.14175	32811.5625
2658.78255	32864.3625
2661.42171	32862.8625
2664.05923	32906.1625
2666.6951	32904.7625
2669.32934	32929.9625
2671.96194	32874.5625
2674.59291	32934.0625
2677.22224	32967.9625
2679.84993	32968.0625
2682.476	32881.4625
2685.10043	32830.2625
2687.72324	32787.5625
2690.34441	32786.8625
2692.96396	32785.9625
2695.58188	32823.6625
2698.19818	32785.3625
2700.81285	32797.5625
2703.4259	32779.5625
2706.03733	32799.4625
2708.64714	32817.5625
2711.25533	32859.5625
2713.86191	32836.2625
2716.46687	32889.5625
2719.07021	32866.7625
2721.67194	32906.3625
2724.27206	32847.8625
2726.87057	32950.9625
2729.46747	32942.3625
2732.06276	32975.5625
2734.65644	32975.5625
2737.24852	32962.2625
2739.83899	32944.0625
2742.42786	32953.9625
2745.01513	32918.8625
2747.60079	32881.7625
2750.18486	32889.0625
2752.76733	32855.9625
2755.3482	32895.0625
2757.92747	32817.1625
2760.50515	32785.0625
2763.08123	32775.3625
2765.65573	32742.6625
2768.22863	32753.7625
2770.79994	32715.5625
2773.36967	32746.5625
2775.9378	32739.5625
2778.50435	32763.0625
2781.06932	32744.1625
2783.6327	32727.6625
2786.1945	32675.7625
2788.75471	32667.3625
2791.31335	32620.2625
2793.87041	32538.9625
2796.42589	32495.0625
2798.97979	32444.3625
2801.53212	32350.2625
2804.08288	32335.7625
2806.63206	32243.4625
2809.17967	32213.5625
2811.72571	32084.8625
2814.27018	32014.3625
2816.81308	31893.9625
2819.35442	31867.6625
2821.89419	31829.8625
2824.43239	31778.9625
2826.96904	31761.9625
2829.50412	31798.1625
2832.03763	31702.3625
2834.56959	31683.0625
2837.1	31637.9625
2839.62884	31622.2625
2842.15613	31533.3625
2844.68186	31560.3625
2847.20604	31556.2625
2849.72867	31510.3625
2852.24974	31458.9625
2854.76927	31408.4625
2857.28724	31356.2625
2859.80367	31385.1625
2862.31855	31390.7625
2864.83189	31340.9625
2867.34368	31216.0625
2869.85393	31291.6625
2872.36264	31218.6625
2874.8698	31164.1625
2877.37543	31168.1625
2879.87952	31154.3625
2882.38207	31167.4625
2884.88308	31189.3625
2887.38256	31150.7625
2889.88051	31209.8625
2892.37692	31166.9625
2894.8718	31213.1625
2897.36515	31250.3625
2899.85698	31222.2625
2902.34727	31334.3625
2904.83604	31302.7625
2907.32328	31332.7625
2909.809	31375.8625
2912.29319	31383.6625
2914.77587	31420.7625
2917.25702	31392.5625
2919.73665	31362.1625
2922.21476	31358.3625
2924.69136	31323.7625
2927.16644	31303.1625
2929.64	31317.9625
2932.11205	31241.0625
2934.58258	31172.2625
2937.05161	31193.8625
2939.51912	31170.4625
2941.98513	31153.9625
2944.44962	31090.6625
2946.91261	31009.9625
2949.37409	31109.6625
2951.83407	31039.5625
2954.29254	31027.6625
2956.74951	31032.1625
2959.20498	31020.9625
2961.65895	30977.1625
2964.11142	30998.6625
2966.56239	30973.3625
2969.01186	30935.7625
2971.45984	30813.4625
2973.90632	30751.6625
2976.35131	30765.2625
2978.7948	30726.5625
2981.23681	30649.0625
2983.67732	30546.6625
2986.11635	30531.7625
2988.55388	30438.5625
2990.98993	30424.9625
2993.4245	30376.2625
2995.85758	30286.2625
2998.28917	30138.4625
3000.71928	30140.2625
3003.14791	30030.5625
3005.57506	30025.5625
3008.00073	29918.2625
3010.42493	29965.9625
3012.84764	29855.8625
3015.26888	29780.8625
3017.68865	29806.5625
3020.10694	29710.8625
3022.52376	29617.5625
3024.9391	29611.5625
3027.35298	29583.0625
3029.76539	29578.8625
3032.17632	29562.3625
3034.5858	29546.0625
3036.9938	29503.2625
3039.40034	29471.1625
3041.80542	29434.4625
3044.20903	29407.1625
3046.61118	29342.8625
3049.01187	29327.1625
3051.4111	29240.8625
3053.80888	29179.4625
3056.20519	29104.3625
3058.60005	29097.8625
3060.99345	29039.5625
3063.3854	28944.3625
3065.7759	28865.9625
3068.16494	28784.1625
3070.55254	28668.4625
3072.93868	28577.8625
3075.32338	28481.5625
3077.70662	28472.6625
3080.08842	28415.0625
3082.46878	28333.2625
3084.84769	28346.4625
3087.22515	28256.5625
3089.60118	28239.3625
3091.97576	28177.3625
3094.3489	28208.2625
3096.72061	28244.5625
3099.09087	28163.2625
3101.4597	28161.7625
3103.82709	28222.0625
3106.19305	28115.3625
3108.55757	28136.0625
3110.92066	28055.8625
3113.28232	28044.3625
3115.64255	27967.2625
3118.00134	27818.1625
3120.35871	27780.3625
3122.71466	27671.6625
3125.06917	27646.5625
3127.42226	27617.9625
3129.77393	27607.5625
3132.12417	27564.5625
3134.47299	27493.1625
3136.82039	27463.7625
3139.16636	27493.5625
3141.51092	27422.6625
3143.85406	27444.0625
3146.19579	27426.7625
3148.53609	27395.0625
3150.87499	27410.0625
3153.21246	27420.0625
3155.54853	27418.4625
3157.88318	27401.4625
3160.21642	27394.5625
3162.54826	27381.8625
3164.87868	27369.2625
3167.2077	27287.7625
3169.5353	27251.8625
3171.86151	27293.0625
3174.18631	27280.6625
3176.5097	27263.9625
3178.83169	27214.8625
3181.15228	27185.2625
3183.47147	27132.4625
3185.78926	27116.5625
3188.10565	27078.4625
3190.42065	27077.2625
3192.73424	27023.0625
3195.04645	26952.7625
3197.35725	26956.0625
3199.66667	26947.1625
3201.97469	26941.5625
3204.28132	26921.4625
3206.58656	26884.1625
3208.8904	26908.8625
3211.19287	26886.0625
3213.49394	26896.6625
3215.79363	26897.9625
3218.09193	26936.9625
3220.38884	26937.4625
3222.68438	26964.2625
3224.97853	26853.8625
3227.2713	26836.8625
3229.56269	26819.1625
3231.8527	26857.7625
3234.14133	26772.2625
3236.42858	26721.3625
3238.71446	26631.2625
3240.99896	26566.6625
3243.28209	26643.0625
3245.56384	26499.6625
3247.84423	26534.3625
3250.12324	26489.6625
3252.40088	26491.5625
3254.67715	26464.6625
3256.95205	26416.5625
3259.22558	26418.5625
3261.49775	26360.7625
3263.76855	26335.0625
3266.03799	26219.1625
3268.30606	26234.9625
3270.57277	26194.4625
3272.83812	26148.0625
3275.10211	26059.0625
3277.36474	26030.0625
3279.62601	26006.0625
3281.88593	25997.6625
3284.14448	26022.4625
3286.40168	26012.7625
3288.65753	25958.2625
3290.91202	25948.0625
3293.16516	25924.0625
3295.41695	25853.5625
3297.66738	25665.8625
3299.91647	25570.1625
3302.16421	25414.2625
3304.4106	25290.4625
3306.65564	25100.2625
3308.89933	25026.8625
3311.14169	24824.4625
3313.38269	24590.5625
3315.62236	24441.1625
3317.86068	24232.6625
3320.09766	23990.6625
3322.3333	23848.1625
3324.5676	23750.1625
3326.80056	23390.5625
3329.03219	23251.6625
3331.26248	6.1625
3333.49143	0.3625
3335.71905	-0.7375
