Data from AgNPs_FTO_APTES_UA_20uM_CRN_0uM_R6G_10uM_NaF_0.1M_Addition_RamanShift__47__11-44-31-989.txt Node

Date: Thu Feb 17 11:44:31 GMT 2022
User: TCL
Spectrometer: QEP01345
Trigger mode: 4
Integration Time (sec): 7.000000E0
Scans to average: 10
Electric dark correction enabled: true
Nonlinearity correction enabled: false
Boxcar width: 0
XAxis mode: Raman Shifts
Number of Pixels in Spectrum: 1044
>>>>>Begin Spectral Data<<<<<
46.04893	-1.0375
50.45542	-0.7375
54.85868	-2.5375
59.25871	-0.9375
63.6555	99.7625
68.04907	97.2625
72.43941	103.8625
76.82654	105.8625
81.21044	107.1625
85.59113	108.3625
89.96862	116.2625
94.34289	117.5625
98.71396	125.4625
103.08183	127.8625
107.4465	130.6625
111.80798	134.6625
116.16626	139.2625
120.52136	147.0625
124.87327	146.1625
129.222	158.8625
133.56755	166.0625
137.90993	182.8625
142.24913	204.9625
146.58517	234.1625
150.91804	270.3625
155.24774	320.1625
159.57429	402.6625
163.89768	522.7625
168.21792	705.3625
172.53501	964.7625
176.84895	1348.1625
181.15975	1910.2625
185.46741	2694.2625
189.77193	3708.4625
194.07331	4953.2625
198.37157	6382.7625
202.6667	7887.2625
206.9587	9378.8625
211.24758	10873.9625
215.53334	12359.1625
219.81599	13955.3625
224.09553	15692.4625
228.37195	17632.8625
232.64527	19785.4625
236.91549	22046.9625
241.18261	24262.8625
245.44663	26351.0625
249.70755	28197.0625
253.96539	29790.0625
258.22014	31195.4625
262.4718	32342.0625
266.72039	33145.5625
270.96589	33571.2625
275.20832	33597.4625
279.44768	33377.0625
283.68397	33090.8625
287.91719	32815.2625
292.14735	32702.9625
296.37445	32648.7625
300.59849	32770.1625
304.81948	32915.4625
309.03742	32980.3625
313.25231	32855.4625
317.46415	32349.0625
321.67296	31618.6625
325.87872	30944.2625
330.08145	30641.2625
334.28114	30634.5625
338.47781	30886.2625
342.67145	31333.9625
346.86207	31877.1625
351.04966	32564.1625
355.23424	33301.5625
359.4158	33903.8625
363.59435	34294.8625
367.76989	34609.0625
371.94243	34819.2625
376.11196	35025.6625
380.27849	35218.7625
384.44203	35381.3625
388.60257	35625.1625
392.76012	35831.1625
396.91468	36256.0625
401.06626	36765.7625
405.21485	37149.0625
409.36047	37088.4625
413.50311	36687.4625
417.64277	36405.8625
421.77947	36449.5625
425.9132	36624.3625
430.04396	36835.9625
434.17176	37061.8625
438.2966	37335.8625
442.41849	38002.9625
446.53742	39052.3625
450.6534	40182.1625
454.76644	41008.3625
458.87653	41315.7625
462.98368	40916.5625
467.08789	40357.4625
471.18916	39570.4625
475.2875	38910.9625
479.38291	38451.6625
483.4754	38213.8625
487.56496	37898.7625
491.6516	37526.9625
495.73531	37240.3625
499.81612	37126.0625
503.89401	37393.2625
507.96899	37545.8625
512.04106	37489.2625
516.11023	37308.4625
520.1765	37015.7625
524.23987	36797.8625
528.30034	36615.3625
532.35792	36292.5625
536.41261	35856.2625
540.46441	35473.3625
544.51333	35409.2625
548.55936	35721.0625
552.60252	36417.7625
556.64279	37311.4625
560.6802	37970.4625
564.71473	38396.3625
568.7464	39062.6625
572.7752	40121.4625
576.80114	40923.0625
580.82422	41762.3625
584.84444	42644.6625
588.86181	43599.3625
592.87633	44468.4625
596.888	44381.5625
600.89682	43306.5625
604.9028	43749.3625
608.90594	47176.8625
612.90624	50942.9625
616.90371	48256.3625
620.89834	41099.3625
624.89015	37905.5625
628.87913	37410.5625
632.86528	37417.4625
636.84862	37190.6625
640.82913	36617.2625
644.80683	35805.0625
648.78172	35212.0625
652.75379	35207.7625
656.72306	35725.5625
660.68952	36382.1625
664.65319	36255.8625
668.61405	35735.2625
672.57211	35522.8625
676.52738	35655.3625
680.47986	35630.7625
684.42955	35435.6625
688.37646	35405.7625
692.32058	35624.1625
696.26192	36054.8625
700.20048	36539.0625
704.13626	36800.5625
708.06928	36694.8625
711.99952	36424.5625
715.927	36414.4625
719.85171	36582.2625
723.77365	36547.7625
727.69284	36140.6625
731.60928	35772.6625
735.52295	35678.5625
739.43388	35728.6625
743.34206	35861.5625
747.24749	36008.6625
751.15017	36295.1625
755.05012	36875.7625
758.94733	37779.3625
762.8418	39557.2625
766.73354	42157.5625
770.62254	44731.9625
774.50882	45210.9625
778.39237	43440.7625
782.27321	40730.7625
786.15132	38397.2625
790.02671	36946.9625
793.89938	36233.1625
797.76935	35968.5625
801.6366	35969.0625
805.50115	35892.9625
809.36299	35714.4625
813.22213	35451.2625
817.07857	35235.7625
820.93231	35095.3625
824.78336	34985.4625
828.63172	34910.0625
832.47738	34933.8625
836.32036	35036.7625
840.16066	35191.8625
843.99827	35253.1625
847.8332	35278.1625
851.66546	35168.7625
855.49504	35152.8625
859.32195	35135.7625
863.1462	35100.7625
866.96777	35013.2625
870.78668	34951.8625
874.60293	34978.1625
878.41652	35037.3625
882.22745	35211.3625
886.03573	35303.2625
889.84136	35282.6625
893.64433	35114.9625
897.44466	34898.2625
901.24235	34811.3625
905.0374	34690.7625
908.8298	34609.1625
912.61957	34594.9625
916.40671	34877.7625
920.19121	35277.4625
923.97308	35769.0625
927.75233	35933.3625
931.52895	35729.7625
935.30295	35353.7625
939.07433	34733.4625
942.84309	34409.9625
946.60924	34275.8625
950.37278	34196.8625
954.13371	34176.7625
957.89203	34063.9625
961.64774	33906.4625
965.40086	33893.5625
969.15137	33831.0625
972.89929	33696.2625
976.64461	33620.1625
980.38733	33637.3625
984.12747	33811.7625
987.86502	34144.7625
991.59999	34549.6625
995.33237	35255.9625
999.06217	36287.9625
1002.78939	37463.2625
1006.51404	38279.6625
1010.23611	38786.6625
1013.95561	39130.9625
1017.67255	39068.6625
1021.38692	38541.6625
1025.09872	38024.1625
1028.80796	38046.5625
1032.51465	38817.6625
1036.21877	39591.4625
1039.92035	39690.4625
1043.61937	39260.7625
1047.31584	38456.8625
1051.00976	37568.9625
1054.70114	37138.5625
1058.38998	37050.3625
1062.07627	37179.5625
1065.76003	37428.0625
1069.44126	37779.1625
1073.11995	38270.1625
1076.79611	38801.8625
1080.46974	39142.6625
1084.14085	39611.3625
1087.80943	40121.7625
1091.47549	40433.0625
1095.13903	40329.6625
1098.80005	39711.7625
1102.45857	39023.5625
1106.11456	38503.8625
1109.76805	38339.9625
1113.41903	38481.2625
1117.06751	38740.6625
1120.71348	39054.3625
1124.35696	39415.2625
1127.99793	39767.0625
1131.63641	39881.8625
1135.2724	39603.3625
1138.90589	39327.4625
1142.5369	39244.1625
1146.16542	39254.5625
1149.79145	39338.1625
1153.415	39583.8625
1157.03607	39996.9625
1160.65467	40961.8625
1164.27079	42527.9625
1167.88443	44605.9625
1171.49561	47173.2625
1175.10432	50479.2625
1178.71056	54727.7625
1182.31434	58654.2625
1185.91565	60550.6625
1189.51451	60116.7625
1193.11091	58274.3625
1196.70485	55742.6625
1200.29634	53503.5625
1203.88538	51827.7625
1207.47197	50759.9625
1211.05612	49847.0625
1214.63782	49041.5625
1218.21708	48560.0625
1221.79391	48323.5625
1225.36829	48275.3625
1228.94024	47624.4625
1232.50976	46375.7625
1236.07685	45229.3625
1239.6415	44766.5625
1243.20374	44563.7625
1246.76355	44946.1625
1250.32093	45586.5625
1253.8759	46628.9625
1257.42845	47885.3625
1260.97859	49199.9625
1264.52631	50597.6625
1268.07163	52194.2625
1271.61453	53820.6625
1275.15503	55401.0625
1278.69312	56928.4625
1282.22882	58176.6625
1285.76211	59333.2625
1289.29301	60848.9625
1292.82151	62613.0625
1296.34761	65188.5625
1299.87133	68685.8625
1303.39266	72923.3625
1306.9116	77766.3625
1310.42815	82572.3625
1313.94233	85709.3625
1317.45412	85825.8625
1320.96354	83959.9625
1324.47058	81857.7625
1327.97525	79932.0625
1331.47754	78489.2625
1334.97747	77669.7625
1338.47502	77286.8625
1341.97022	76734.2625
1345.46305	75647.5625
1348.95352	74411.5625
1352.44163	73791.6625
1355.92738	74942.9625
1359.41078	78268.4625
1362.89183	81327.4625
1366.37053	80050.3625
1369.84688	73668.4625
1373.32088	65958.2625
1376.79254	60653.6625
1380.26186	58386.5625
1383.72883	57978.0625
1387.19347	57831.6625
1390.65578	57273.3625
1394.11575	57221.8625
1397.57339	57963.3625
1401.0287	59219.3625
1404.48168	60463.0625
1407.93234	61112.5625
1411.38068	60657.6625
1414.82669	59184.2625
1418.27039	57015.4625
1421.71177	54847.8625
1425.15083	53015.8625
1428.58758	52224.9625
1432.02203	52610.3625
1435.45416	53916.0625
1438.88399	55325.0625
1442.31151	56592.4625
1445.73673	57314.0625
1449.15965	57830.7625
1452.58027	58072.6625
1455.9986	58011.1625
1459.41463	58361.1625
1462.82837	59341.9625
1466.23982	60704.9625
1469.64898	61972.0625
1473.05586	62658.3625
1476.46045	62709.2625
1479.86276	62172.2625
1483.26279	61321.4625
1486.66054	60772.0625
1490.05602	60707.5625
1493.44922	60944.0625
1496.84016	61058.8625
1500.22882	61726.1625
1503.61521	63207.3625
1506.99934	65204.6625
1510.38121	66746.8625
1513.76081	67073.6625
1517.13816	65359.4625
1520.51324	62636.3625
1523.88607	60302.4625
1527.25665	59210.4625
1530.62498	58951.9625
1533.99105	58939.3625
1537.35488	58776.9625
1540.71647	58353.2625
1544.07581	57540.0625
1547.4329	56643.5625
1550.78776	55563.0625
1554.14038	54671.8625
1557.49077	54039.4625
1560.83892	53783.3625
1564.18484	53719.6625
1567.52853	53761.6625
1570.86999	54108.4625
1574.20922	54595.0625
1577.54624	54990.1625
1580.88103	54918.1625
1584.2136	55025.8625
1587.54395	56541.2625
1590.87208	59885.6625
1594.19801	64522.9625
1597.52172	69275.7625
1600.84321	71193.2625
1604.16251	68450.3625
1607.47959	62964.0625
1610.79447	57082.4625
1614.10715	51904.9625
1617.41763	47851.6625
1620.7259	45088.7625
1624.03199	43824.0625
1627.33587	43711.1625
1630.63757	44959.0625
1633.93707	47800.1625
1637.23439	52428.2625
1640.52951	59003.4625
1643.82246	66410.8625
1647.11321	71820.1625
1650.40179	72182.4625
1653.68819	66605.6625
1656.97241	57821.4625
1660.25446	49580.0625
1663.53433	43693.8625
1666.81203	40065.7625
1670.08756	37887.2625
1673.36092	36441.6625
1676.63211	35470.9625
1679.90115	34839.4625
1683.16801	34260.1625
1686.43272	33885.0625
1689.69527	33677.3625
1692.95567	33430.3625
1696.2139	33316.9625
1699.46999	33231.7625
1702.72392	33124.4625
1705.97571	33077.4625
1709.22535	32980.0625
1712.47284	32988.7625
1715.71819	32953.2625
1718.96139	32893.6625
1722.20246	32767.3625
1725.44139	32643.1625
1728.67818	32474.8625
1731.91284	32267.9625
1735.14537	32099.7625
1738.37576	31992.5625
1741.60403	31926.1625
1744.83017	31801.9625
1748.05418	31680.8625
1751.27607	31655.4625
1754.49584	31583.2625
1757.71349	31611.5625
1760.92903	31534.8625
1764.14244	31533.7625
1767.35375	31462.0625
1770.56294	31449.6625
1773.77002	31428.5625
1776.97499	31436.3625
1780.17785	31384.6625
1783.37861	31289.7625
1786.57727	31249.2625
1789.77382	31156.9625
1792.96828	31157.7625
1796.16064	31127.7625
1799.3509	31098.4625
1802.53907	31009.4625
1805.72514	30947.5625
1808.90913	30891.0625
1812.09102	30793.5625
1815.27083	30813.7625
1818.44856	30739.5625
1821.6242	30654.4625
1824.79776	30645.2625
1827.96924	30669.6625
1831.13864	30642.9625
1834.30597	30644.8625
1837.47122	30618.7625
1840.6344	30616.6625
1843.7955	30640.5625
1846.95454	30619.9625
1850.11151	30636.1625
1853.26642	30643.0625
1856.41926	30615.0625
1859.57004	30621.5625
1862.71876	30563.5625
1865.86542	30546.3625
1869.01003	30486.3625
1872.15258	30476.8625
1875.29308	30462.9625
1878.43152	30500.0625
1881.56792	30428.4625
1884.70227	30484.8625
1887.83457	30431.2625
1890.96482	30408.4625
1894.09304	30347.2625
1897.21921	30326.1625
1900.34335	30268.1625
1903.46544	30241.4625
1906.58551	30241.9625
1909.70353	30235.3625
1912.81953	30189.7625
1915.93349	30128.8625
1919.04543	30057.2625
1922.15534	29983.9625
1925.26322	29932.6625
1928.36908	29881.7625
1931.47292	29845.0625
1934.57473	29740.1625
1937.67453	29705.2625
1940.77232	29622.4625
1943.86808	29507.2625
1946.96184	29446.8625
1950.05358	29366.7625
1953.14331	29283.8625
1956.23103	29195.8625
1959.31675	29122.2625
1962.40046	29012.7625
1965.48217	28941.5625
1968.56188	28876.8625
1971.63959	28815.6625
1974.7153	28785.1625
1977.78901	28648.7625
1980.86073	28573.8625
1983.93046	28493.8625
1986.99819	28391.9625
1990.06394	28330.6625
1993.1277	28282.6625
1996.18947	28208.5625
1999.24925	28095.0625
2002.30706	28047.0625
2005.36288	27946.9625
2008.41672	27872.7625
2011.46859	27824.0625
2014.51848	27791.6625
2017.56639	27714.7625
2020.61233	27623.7625
2023.6563	27577.2625
2026.6983	27481.0625
2029.73833	27431.6625
2032.7764	27394.4625
2035.8125	27349.1625
2038.84664	27337.4625
2041.87881	27317.4625
2044.90903	27240.1625
2047.93729	27217.5625
2050.96359	27215.9625
2053.98794	27215.4625
2057.01034	27152.1625
2060.03078	27212.0625
2063.04927	27186.4625
2066.06582	27174.0625
2069.08042	27136.7625
2072.09307	27086.2625
2075.10378	27066.2625
2078.11255	26976.2625
2081.11938	27030.1625
2084.12426	26965.0625
2087.12722	26931.0625
2090.12824	26963.6625
2093.12732	26936.4625
2096.12447	26988.3625
2099.11969	26944.8625
2102.11299	26929.5625
2105.10435	26966.6625
2108.09379	27036.8625
2111.08131	27009.7625
2114.0669	27016.5625
2117.05057	27016.0625
2120.03233	27012.2625
2123.01216	27029.9625
2125.99008	27063.5625
2128.96609	27112.0625
2131.94018	27145.2625
2134.91236	27185.0625
2137.88263	27242.9625
2140.851	27236.1625
2143.81746	27245.4625
2146.78201	27245.3625
2149.74466	27302.7625
2152.7054	27288.8625
2155.66425	27305.3625
2158.6212	27284.7625
2161.57625	27305.5625
2164.52941	27294.8625
2167.48067	27268.2625
2170.43004	27223.6625
2173.37752	27322.7625
2176.32311	27280.8625
2179.26681	27298.2625
2182.20863	27346.5625
2185.14856	27362.0625
2188.08661	27310.6625
2191.02278	27297.1625
2193.95707	27265.8625
2196.88948	27230.0625
2199.82001	27270.1625
2202.74867	27229.8625
2205.67545	27205.8625
2208.60037	27199.4625
2211.52341	27203.4625
2214.44458	27166.7625
2217.36388	27198.6625
2220.28132	27131.6625
2223.1969	27072.9625
2226.11061	27056.7625
2229.02246	26983.6625
2231.93245	26893.7625
2234.84058	26891.1625
2237.74686	26871.6625
2240.65128	26844.5625
2243.55385	26781.8625
2246.45456	26728.6625
2249.35343	26699.8625
2252.25044	26634.3625
2255.14561	26646.0625
2258.03893	26621.3625
2260.93041	26538.2625
2263.82004	26501.0625
2266.70783	26464.1625
2269.59378	26368.4625
2272.4779	26324.9625
2275.36017	26249.1625
2278.24061	26234.8625
2281.11922	26192.9625
2283.996	26142.0625
2286.87094	26111.5625
2289.74405	26080.7625
2292.61534	26087.4625
2295.4848	26106.5625
2298.35243	26100.6625
2301.21824	26120.6625
2304.08223	26082.7625
2306.94439	26085.5625
2309.80474	26153.3625
2312.66327	26177.0625
2315.51999	26121.7625
2318.37489	26109.0625
2321.22797	26094.2625
2324.07925	26118.2625
2326.92871	26067.0625
2329.77637	26002.7625
2332.62222	26001.0625
2335.46626	25998.8625
2338.3085	26022.6625
2341.14893	26025.5625
2343.98756	26023.9625
2346.8244	26025.2625
2349.65943	26017.6625
2352.49267	26049.8625
2355.32411	26046.8625
2358.15376	26027.5625
2360.98161	26024.4625
2363.80768	25977.6625
2366.63195	25955.5625
2369.45444	25924.2625
2372.27514	25844.1625
2375.09405	25827.8625
2377.91118	25770.9625
2380.72652	25676.3625
2383.54009	25629.5625
2386.35187	25565.0625
2389.16188	25486.5625
2391.97011	25454.3625
2394.77657	25457.9625
2397.58125	25436.6625
2400.38416	25414.6625
2403.18529	25359.5625
2405.98466	25331.1625
2408.78226	25237.5625
2411.57809	25234.2625
2414.37216	25184.9625
2417.16446	25200.2625
2419.955	25162.7625
2422.74378	25153.6625
2425.5308	25157.6625
2428.31606	25103.4625
2431.09956	25149.6625
2433.88131	25092.9625
2436.6613	25190.7625
2439.43954	25114.9625
2442.21603	25098.7625
2444.99077	25057.4625
2447.76377	25110.3625
2450.53501	25062.9625
2453.30451	25096.1625
2456.07226	25054.8625
2458.83827	25017.1625
2461.60254	25075.0625
2464.36507	25017.5625
2467.12586	25050.5625
2469.88492	25041.6625
2472.64224	25086.1625
2475.39782	25085.9625
2478.15167	25084.3625
2480.90379	25084.6625
2483.65417	25156.2625
2486.40283	25142.1625
2489.14976	25152.6625
2491.89497	25174.1625
2494.63845	25167.5625
2497.3802	25148.8625
2500.12024	25168.0625
2502.85855	25137.5625
2505.59514	25135.4625
2508.33002	25068.6625
2511.06318	25041.5625
2513.79462	25045.3625
2516.52435	25020.9625
2519.25237	25000.9625
2521.97867	24979.3625
2524.70327	25017.4625
2527.42616	24942.2625
2530.14734	24949.6625
2532.86681	24949.0625
2535.58458	24913.4625
2538.30065	24909.8625
2541.01501	24934.5625
2543.72768	24942.0625
2546.43864	24917.6625
2549.14791	24839.5625
2551.85548	24831.5625
2554.56136	24754.3625
2557.26554	24741.3625
2559.96803	24709.0625
2562.66883	24717.1625
2565.36794	24707.7625
2568.06536	24687.0625
2570.7611	24673.4625
2573.45514	24651.7625
2576.14751	24643.9625
2578.83819	24596.4625
2581.52719	24631.7625
2584.21451	24627.8625
2586.90015	24611.2625
2589.58411	24549.6625
2592.2664	24587.4625
2594.94701	24578.3625
2597.62594	24571.7625
2600.30321	24575.1625
2602.9788	24574.5625
2605.65273	24578.2625
2608.32498	24550.4625
2610.99557	24544.4625
2613.66449	24530.3625
2616.33175	24552.5625
2618.99734	24535.7625
2621.66128	24501.8625
2624.32355	24525.5625
2626.98416	24511.6625
2629.64311	24543.5625
2632.30041	24529.5625
2634.95605	24477.4625
2637.61004	24466.0625
2640.26238	24439.2625
2642.91306	24451.5625
2645.56209	24393.5625
2648.20948	24387.7625
2650.85521	24407.8625
2653.4993	24400.0625
2656.14175	24419.2625
2658.78255	24409.7625
2661.42171	24440.0625
2664.05923	24489.7625
2666.6951	24466.8625
2669.32934	24470.9625
2671.96194	24467.5625
2674.59291	24523.2625
2677.22224	24499.7625
2679.84993	24504.7625
2682.476	24435.0625
2685.10043	24440.3625
2687.72324	24374.2625
2690.34441	24400.0625
2692.96396	24381.4625
2695.58188	24402.5625
2698.19818	24345.9625
2700.81285	24366.8625
2703.4259	24335.4625
2706.03733	24383.2625
2708.64714	24402.6625
2711.25533	24366.4625
2713.86191	24423.7625
2716.46687	24491.0625
2719.07021	24477.8625
2721.67194	24491.0625
2724.27206	24468.6625
2726.87057	24494.3625
2729.46747	24496.0625
2732.06276	24508.4625
2734.65644	24519.3625
2737.24852	24508.7625
2739.83899	24507.5625
2742.42786	24501.8625
2745.01513	24516.3625
2747.60079	24439.6625
2750.18486	24463.7625
2752.76733	24486.9625
2755.3482	24438.2625
2757.92747	24420.5625
2760.50515	24400.0625
2763.08123	24356.9625
2765.65573	24327.4625
2768.22863	24372.4625
2770.79994	24297.2625
2773.36967	24360.2625
2775.9378	24356.0625
2778.50435	24388.0625
2781.06932	24375.8625
2783.6327	24369.7625
2786.1945	24371.6625
2788.75471	24314.1625
2791.31335	24224.8625
2793.87041	24211.0625
2796.42589	24158.3625
2798.97979	24166.1625
2801.53212	24113.0625
2804.08288	24105.0625
2806.63206	24045.5625
2809.17967	23985.6625
2811.72571	23940.6625
2814.27018	23863.9625
2816.81308	23830.0625
2819.35442	23857.9625
2821.89419	23738.8625
2824.43239	23751.7625
2826.96904	23757.5625
2829.50412	23773.8625
2832.03763	23694.2625
2834.56959	23693.0625
2837.1	23647.3625
2839.62884	23603.0625
2842.15613	23586.6625
2844.68186	23640.5625
2847.20604	23637.6625
2849.72867	23629.5625
2852.24974	23583.6625
2854.76927	23549.0625
2857.28724	23523.3625
2859.80367	23508.7625
2862.31855	23517.4625
2864.83189	23504.5625
2867.34368	23446.3625
2869.85393	23477.7625
2872.36264	23413.7625
2874.8698	23351.4625
2877.37543	23377.3625
2879.87952	23370.1625
2882.38207	23406.2625
2884.88308	23373.4625
2887.38256	23411.0625
2889.88051	23418.0625
2892.37692	23451.8625
2894.8718	23426.9625
2897.36515	23493.1625
2899.85698	23501.0625
2902.34727	23517.1625
2904.83604	23538.6625
2907.32328	23582.5625
2909.809	23592.9625
2912.29319	23619.9625
2914.77587	23599.3625
2917.25702	23608.8625
2919.73665	23570.1625
2922.21476	23583.7625
2924.69136	23538.2625
2927.16644	23550.7625
2929.64	23481.5625
2932.11205	23498.3625
2934.58258	23437.3625
2937.05161	23455.2625
2939.51912	23432.6625
2941.98513	23386.9625
2944.44962	23384.9625
2946.91261	23303.2625
2949.37409	23359.5625
2951.83407	23332.8625
2954.29254	23319.1625
2956.74951	23314.0625
2959.20498	23306.0625
2961.65895	23323.3625
2964.11142	23287.6625
2966.56239	23250.2625
2969.01186	23225.3625
2971.45984	23121.0625
2973.90632	23078.1625
2976.35131	23056.9625
2978.7948	23035.1625
2981.23681	22988.9625
2983.67732	22949.8625
2986.11635	22919.3625
2988.55388	22846.5625
2990.98993	22795.9625
2993.4245	22791.4625
2995.85758	22713.6625
2998.28917	22615.7625
3000.71928	22592.3625
3003.14791	22521.9625
3005.57506	22554.8625
3008.00073	22462.6625
3010.42493	22461.3625
3012.84764	22442.8625
3015.26888	22418.9625
3017.68865	22385.8625
3020.10694	22348.7625
3022.52376	22281.7625
3024.9391	22296.4625
3027.35298	22251.0625
3029.76539	22226.6625
3032.17632	22198.7625
3034.5858	22203.0625
3036.9938	22181.0625
3039.40034	22132.2625
3041.80542	22148.3625
3044.20903	22119.0625
3046.61118	22115.8625
3049.01187	22062.1625
3051.4111	22012.7625
3053.80888	21997.4625
3056.20519	21948.6625
3058.60005	21896.3625
3060.99345	21865.3625
3063.3854	21820.6625
3065.7759	21744.0625
3068.16494	21710.9625
3070.55254	21601.5625
3072.93868	21554.0625
3075.32338	21536.8625
3077.70662	21488.1625
3080.08842	21412.6625
3082.46878	21371.6625
3084.84769	21311.1625
3087.22515	21346.6625
3089.60118	21323.1625
3091.97576	21312.9625
3094.3489	21309.4625
3096.72061	21312.5625
3099.09087	21331.1625
3101.4597	21264.5625
3103.82709	21306.3625
3106.19305	21255.7625
3108.55757	21288.6625
3110.92066	21236.0625
3113.28232	21181.9625
3115.64255	21146.5625
3118.00134	21073.0625
3120.35871	21014.5625
3122.71466	20966.1625
3125.06917	20949.6625
3127.42226	20915.4625
3129.77393	20923.6625
3132.12417	20867.1625
3134.47299	20868.9625
3136.82039	20822.9625
3139.16636	20804.4625
3141.51092	20807.3625
3143.85406	20773.1625
3146.19579	20814.1625
3148.53609	20786.9625
3150.87499	20808.8625
3153.21246	20786.9625
3155.54853	20848.4625
3157.88318	20803.7625
3160.21642	20860.4625
3162.54826	20791.2625
3164.87868	20751.5625
3167.2077	20726.9625
3169.5353	20769.8625
3171.86151	20777.8625
3174.18631	20725.7625
3176.5097	20790.1625
3178.83169	20721.5625
3181.15228	20721.9625
3183.47147	20601.7625
3185.78926	20664.0625
3188.10565	20607.3625
3190.42065	20593.8625
3192.73424	20539.9625
3195.04645	20529.3625
3197.35725	20551.7625
3199.66667	20529.3625
3201.97469	20570.9625
3204.28132	20515.0625
3206.58656	20531.6625
3208.8904	20509.1625
3211.19287	20535.6625
3213.49394	20538.7625
3215.79363	20513.9625
3218.09193	20572.8625
3220.38884	20563.6625
3222.68438	20600.7625
3224.97853	20527.6625
3227.2713	20505.5625
3229.56269	20490.2625
3231.8527	20463.3625
3234.14133	20477.9625
3236.42858	20447.8625
3238.71446	20383.0625
3240.99896	20334.3625
3243.28209	20382.9625
3245.56384	20335.4625
3247.84423	20326.3625
3250.12324	20229.2625
3252.40088	20275.4625
3254.67715	20246.4625
3256.95205	20229.3625
3259.22558	20247.0625
3261.49775	20196.7625
3263.76855	20155.8625
3266.03799	20118.6625
3268.30606	20097.2625
3270.57277	20046.2625
3272.83812	20062.0625
3275.10211	20022.9625
3277.36474	19960.7625
3279.62601	19990.5625
3281.88593	19940.5625
3284.14448	19981.7625
3286.40168	19954.7625
3288.65753	19906.9625
3290.91202	19920.7625
3293.16516	19893.7625
3295.41695	19874.1625
3297.66738	19760.3625
3299.91647	19644.5625
3302.16421	19546.0625
3304.4106	19450.0625
3306.65564	19302.1625
3308.89933	19196.0625
3311.14169	19065.0625
3313.38269	18951.9625
3315.62236	18822.2625
3317.86068	18639.4625
3320.09766	18488.4625
3322.3333	18359.2625
3324.5676	18295.9625
3326.80056	17995.7625
3329.03219	17891.4625
3331.26248	5.8625
3333.49143	0.7625
3335.71905	-0.7375
