Data from AgNPs_FTO_APTES_UA_20uM_CRN_500uM_R6G_10uM_NaF_0.1M_Addition_RamanShift__5__18-37-54-960.txt Node

Date: Thu Feb 17 18:37:54 GMT 2022
User: TCL
Spectrometer: QEP01345
Trigger mode: 4
Integration Time (sec): 1.000000E1
Scans to average: 7
Electric dark correction enabled: true
Nonlinearity correction enabled: false
Boxcar width: 0
XAxis mode: Raman Shifts
Number of Pixels in Spectrum: 1044
>>>>>Begin Spectral Data<<<<<
46.04893	1.30357
50.45542	-2.125
54.85868	0.01786
59.25871	-1.98214
63.6555	89.30357
68.04907	90.73214
72.43941	103.16071
76.82654	101.30357
81.21044	107.30357
85.59113	108.875
89.96862	116.58929
94.34289	122.01786
98.71396	125.30357
103.08183	124.30357
107.4465	126.44643
111.80798	134.44643
116.16626	130.58929
120.52136	142.73214
124.87327	143.16071
129.222	150.875
133.56755	155.30357
137.90993	174.01786
142.24913	185.01786
146.58517	205.73214
150.91804	237.73214
155.24774	288.16071
159.57429	356.16071
163.89768	454.30357
168.21792	598.58929
172.53501	827.875
176.84895	1164.58929
181.15975	1634.73214
185.46741	2309.44643
189.77193	3207.16071
194.07331	4303.73214
198.37157	5580.73214
202.6667	6896.73214
206.9587	8223.44643
211.24758	9544.16071
215.53334	10856.73214
219.81599	12243.16071
224.09553	13757.73214
228.37195	15415.875
232.64527	17301.44643
236.91549	19284.30357
241.18261	21209.73214
245.44663	22949.01786
249.70755	24503.30357
253.96539	25862.30357
258.22014	26947.30357
262.4718	27856.30357
266.72039	28435.875
270.96589	28746.44643
275.20832	28676.01786
279.44768	28398.01786
283.68397	28042.01786
287.91719	27675.44643
292.14735	27443.58929
296.37445	27424.16071
300.59849	27652.01786
304.81948	27944.01786
309.03742	28233.73214
313.25231	28364.875
317.46415	28141.58929
321.67296	27638.30357
325.87872	27143.875
330.08145	26867.58929
334.28114	26903.16071
338.47781	27060.875
342.67145	27397.58929
346.86207	27928.875
351.04966	28518.01786
355.23424	29224.16071
359.4158	29714.01786
363.59435	30030.44643
367.76989	30151.73214
371.94243	30266.16071
376.11196	30319.16071
380.27849	30430.30357
384.44203	30651.58929
388.60257	30764.875
392.76012	30933.16071
396.91468	31185.73214
401.06626	31592.30357
405.21485	31810.73214
409.36047	31654.16071
413.50311	31157.30357
417.64277	30694.01786
421.77947	30570.58929
425.9132	30592.16071
430.04396	30736.16071
434.17176	30912.16071
438.2966	31327.73214
442.41849	31997.73214
446.53742	32930.875
450.6534	33896.73214
454.76644	34447.44643
458.87653	34420.16071
462.98368	34092.30357
467.08789	33555.73214
471.18916	32948.30357
475.2875	32278.875
479.38291	31682.01786
483.4754	31269.73214
487.56496	30918.44643
491.6516	30795.58929
495.73531	30677.44643
499.81612	30654.16071
503.89401	30895.73214
507.96899	31028.73214
512.04106	31096.44643
516.11023	31071.73214
520.1765	31135.73214
524.23987	31260.16071
528.30034	31234.01786
532.35792	31247.58929
536.41261	30982.30357
540.46441	30711.73214
544.51333	30495.73214
548.55936	30648.30357
552.60252	31066.16071
556.64279	31691.875
560.6802	32203.875
564.71473	32192.01786
568.7464	32339.01786
572.7752	32671.30357
576.80114	32920.16071
580.82422	33285.875
584.84444	34047.30357
588.86181	35461.44643
592.87633	37306.44643
596.888	38273.58929
600.89682	37576.16071
604.9028	37284.44643
608.90594	39819.16071
612.90624	43589.58929
616.90371	41979.16071
620.89834	35395.01786
624.89015	32131.16071
628.87913	31628.44643
632.86528	31803.01786
636.84862	31854.875
640.82913	31574.44643
644.80683	30962.875
648.78172	30471.44643
652.75379	30452.73214
656.72306	30907.875
660.68952	31402.01786
664.65319	31197.16071
668.61405	30596.73214
672.57211	30437.30357
676.52738	30674.875
680.47986	30673.875
684.42955	30519.58929
688.37646	30303.30357
692.32058	30322.73214
696.26192	30609.30357
700.20048	30960.73214
704.13626	31183.875
708.06928	31100.16071
711.99952	30910.01786
715.927	30860.73214
719.85171	30956.73214
723.77365	30981.44643
727.69284	30760.875
731.60928	30531.01786
735.52295	30556.73214
739.43388	30581.44643
743.34206	30694.01786
747.24749	30740.44643
751.15017	30913.30357
755.05012	31158.875
758.94733	31859.44643
762.8418	33286.875
766.73354	35773.01786
770.62254	38210.16071
774.50882	39120.73214
778.39237	37844.73214
782.27321	35288.875
786.15132	33069.73214
790.02671	31609.58929
793.89938	30865.73214
797.76935	30564.875
801.6366	30383.73214
805.50115	30265.875
809.36299	30177.875
813.22213	30033.73214
817.07857	29913.01786
820.93231	29742.875
824.78336	29783.44643
828.63172	29792.16071
832.47738	29794.30357
836.32036	29878.73214
840.16066	29831.875
843.99827	29906.30357
847.8332	29922.44643
851.66546	29904.01786
855.49504	29902.58929
859.32195	29947.16071
863.1462	29929.30357
866.96777	29839.73214
870.78668	29868.30357
874.60293	29941.30357
878.41652	29975.44643
882.22745	30052.73214
886.03573	30128.73214
889.84136	30129.875
893.64433	30024.58929
897.44466	29912.73214
901.24235	29833.58929
905.0374	29736.01786
908.8298	29637.16071
912.61957	29541.01786
916.40671	29674.58929
920.19121	29915.01786
923.97308	30109.16071
927.75233	30322.30357
931.52895	30266.875
935.30295	30020.73214
939.07433	29548.30357
942.84309	29312.30357
946.60924	29084.875
950.37278	28995.73214
954.13371	28889.01786
957.89203	28801.30357
961.64774	28765.58929
965.40086	28732.44643
969.15137	28719.16071
972.89929	28664.58929
976.64461	28671.30357
980.38733	28677.58929
984.12747	28807.01786
987.86502	28959.16071
991.59999	29174.16071
995.33237	29533.73214
999.06217	30066.73214
1002.78939	30610.58929
1006.51404	31163.875
1010.23611	31547.58929
1013.95561	31814.58929
1017.67255	31960.73214
1021.38692	31773.30357
1025.09872	31352.16071
1028.80796	31165.875
1032.51465	31310.16071
1036.21877	31658.16071
1039.92035	31783.44643
1043.61937	31712.30357
1047.31584	31399.01786
1051.00976	31059.01786
1054.70114	30788.30357
1058.38998	30700.73214
1062.07627	30732.44643
1065.76003	30852.875
1069.44126	31055.58929
1073.11995	31305.16071
1076.79611	31645.30357
1080.46974	31938.16071
1084.14085	32278.16071
1087.80943	32602.30357
1091.47549	32744.875
1095.13903	32552.73214
1098.80005	32106.01786
1102.45857	31728.16071
1106.11456	31472.73214
1109.76805	31502.58929
1113.41903	31665.44643
1117.06751	32021.73214
1120.71348	32457.16071
1124.35696	32922.73214
1127.99793	33372.44643
1131.63641	33467.58929
1135.2724	33086.73214
1138.90589	32723.73214
1142.5369	32497.875
1146.16542	32338.44643
1149.79145	32337.16071
1153.415	32360.01786
1157.03607	32537.16071
1160.65467	33078.01786
1164.27079	34007.44643
1167.88443	35398.16071
1171.49561	37243.16071
1175.10432	39704.16071
1178.71056	42940.73214
1182.31434	45931.44643
1185.91565	47218.73214
1189.51451	46681.44643
1193.11091	45077.44643
1196.70485	43237.44643
1200.29634	41504.58929
1203.88538	40058.73214
1207.47197	38693.58929
1211.05612	37599.16071
1214.63782	36805.58929
1218.21708	36463.01786
1221.79391	36504.16071
1225.36829	36623.01786
1228.94024	36654.44643
1232.50976	36246.875
1236.07685	35583.44643
1239.6415	35137.30357
1243.20374	34989.875
1246.76355	35101.58929
1250.32093	35382.73214
1253.8759	35859.44643
1257.42845	36626.16071
1260.97859	37419.16071
1264.52631	38305.58929
1268.07163	39234.01786
1271.61453	40070.58929
1275.15503	40921.01786
1278.69312	41590.16071
1282.22882	42330.875
1285.76211	43224.875
1289.29301	44408.73214
1292.82151	45903.16071
1296.34761	47700.58929
1299.87133	50057.30357
1303.39266	52940.16071
1306.9116	56331.875
1310.42815	59813.30357
1313.94233	61878.16071
1317.45412	61126.30357
1320.96354	58667.73214
1324.47058	55803.16071
1327.97525	53135.58929
1331.47754	51348.73214
1334.97747	50250.73214
1338.47502	49828.01786
1341.97022	49974.01786
1345.46305	50511.16071
1348.95352	51584.875
1352.44163	53568.875
1355.92738	56324.73214
1359.41078	60269.16071
1362.89183	63623.73214
1366.37053	62643.875
1369.84688	56660.16071
1373.32088	49692.58929
1376.79254	45137.30357
1380.26186	43258.44643
1383.72883	42531.58929
1387.19347	42023.01786
1390.65578	41207.58929
1394.11575	40745.58929
1397.57339	40851.44643
1401.0287	41108.58929
1404.48168	41321.30357
1407.93234	41241.875
1411.38068	40945.30357
1414.82669	40571.58929
1418.27039	40014.30357
1421.71177	39217.30357
1425.15083	38441.44643
1428.58758	38003.875
1432.02203	38263.73214
1435.45416	38858.44643
1438.88399	39539.44643
1442.31151	39899.16071
1445.73673	40016.30357
1449.15965	39999.16071
1452.58027	39815.01786
1455.9986	39489.875
1459.41463	39484.01786
1462.82837	39799.30357
1466.23982	40566.16071
1469.64898	41390.875
1473.05586	41987.30357
1476.46045	42412.875
1479.86276	42620.58929
1483.26279	42630.875
1486.66054	42849.01786
1490.05602	43382.58929
1493.44922	44245.30357
1496.84016	45264.44643
1500.22882	46851.16071
1503.61521	48989.875
1506.99934	51522.875
1510.38121	53386.30357
1513.76081	53475.30357
1517.13816	51316.16071
1520.51324	48112.30357
1523.88607	45464.44643
1527.25665	44022.30357
1530.62498	43295.58929
1533.99105	43080.01786
1537.35488	42706.01786
1540.71647	42139.01786
1544.07581	41470.16071
1547.4329	40759.875
1550.78776	40047.16071
1554.14038	39490.875
1557.49077	39275.16071
1560.83892	39224.30357
1564.18484	39446.875
1567.52853	39937.875
1570.86999	40419.30357
1574.20922	40924.01786
1577.54624	41087.58929
1580.88103	40472.01786
1584.2136	39811.16071
1587.54395	39906.58929
1590.87208	41092.01786
1594.19801	43300.73214
1597.52172	45990.58929
1600.84321	47335.73214
1604.16251	46506.16071
1607.47959	44012.01786
1610.79447	40877.16071
1614.10715	37996.01786
1617.41763	35763.73214
1620.7259	34237.16071
1624.03199	33382.73214
1627.33587	33308.30357
1630.63757	33981.01786
1633.93707	35451.44643
1637.23439	38137.16071
1640.52951	42119.73214
1643.82246	47317.58929
1647.11321	51691.58929
1650.40179	52821.01786
1653.68819	49546.16071
1656.97241	43523.30357
1660.25446	37892.01786
1663.53433	34062.875
1666.81203	31755.44643
1670.08756	30332.73214
1673.36092	29425.30357
1676.63211	28878.58929
1679.90115	28399.875
1683.16801	28086.44643
1686.43272	27783.73214
1689.69527	27672.01786
1692.95567	27447.01786
1696.2139	27350.16071
1699.46999	27267.16071
1702.72392	27226.01786
1705.97571	27179.58929
1709.22535	27190.44643
1712.47284	27145.73214
1715.71819	27123.16071
1718.96139	27025.01786
1722.20246	26909.58929
1725.44139	26852.01786
1728.67818	26776.875
1731.91284	26636.44643
1735.14537	26541.16071
1738.37576	26496.58929
1741.60403	26335.30357
1744.83017	26243.58929
1748.05418	26210.44643
1751.27607	26190.30357
1754.49584	26130.58929
1757.71349	26101.73214
1760.92903	26113.58929
1764.14244	26038.875
1767.35375	26045.01786
1770.56294	25971.44643
1773.77002	25947.58929
1776.97499	25888.875
1780.17785	25836.73214
1783.37861	25819.58929
1786.57727	25742.01786
1789.77382	25669.58929
1792.96828	25705.58929
1796.16064	25583.73214
1799.3509	25530.875
1802.53907	25471.01786
1805.72514	25428.58929
1808.90913	25410.875
1812.09102	25346.875
1815.27083	25214.875
1818.44856	25238.44643
1821.6242	25237.16071
1824.79776	25244.58929
1827.96924	25236.875
1831.13864	25178.875
1834.30597	25161.01786
1837.47122	25113.44643
1840.6344	25104.01786
1843.7955	25138.01786
1846.95454	25059.44643
1850.11151	25024.73214
1853.26642	25004.30357
1856.41926	25009.30357
1859.57004	25003.30357
1862.71876	24959.01786
1865.86542	24957.30357
1869.01003	24953.875
1872.15258	24910.73214
1875.29308	24902.44643
1878.43152	24885.16071
1881.56792	24852.44643
1884.70227	24868.44643
1887.83457	24815.58929
1890.96482	24811.01786
1894.09304	24789.73214
1897.21921	24733.58929
1900.34335	24728.875
1903.46544	24678.73214
1906.58551	24649.73214
1909.70353	24636.875
1912.81953	24585.875
1915.93349	24609.44643
1919.04543	24571.30357
1922.15534	24514.875
1925.26322	24442.16071
1928.36908	24394.16071
1931.47292	24346.30357
1934.57473	24363.73214
1937.67453	24280.44643
1940.77232	24223.44643
1943.86808	24146.44643
1946.96184	24029.58929
1950.05358	23983.875
1953.14331	23964.73214
1956.23103	23899.01786
1959.31675	23891.01786
1962.40046	23802.01786
1965.48217	23724.73214
1968.56188	23693.16071
1971.63959	23627.58929
1974.7153	23543.30357
1977.78901	23487.44643
1980.86073	23421.16071
1983.93046	23352.44643
1986.99819	23239.16071
1990.06394	23199.01786
1993.1277	23159.73214
1996.18947	23074.58929
1999.24925	22984.73214
2002.30706	22895.58929
2005.36288	22836.875
2008.41672	22752.44643
2011.46859	22726.30357
2014.51848	22650.16071
2017.56639	22582.875
2020.61233	22510.01786
2023.6563	22457.73214
2026.6983	22403.30357
2029.73833	22414.30357
2032.7764	22329.44643
2035.8125	22289.58929
2038.84664	22230.01786
2041.87881	22234.58929
2044.90903	22167.875
2047.93729	22148.01786
2050.96359	22172.58929
2053.98794	22134.44643
2057.01034	22098.44643
2060.03078	22072.73214
2063.04927	22051.73214
2066.06582	22066.58929
2069.08042	22042.30357
2072.09307	21979.30357
2075.10378	21985.16071
2078.11255	22047.30357
2081.11938	22009.73214
2084.12426	22002.875
2087.12722	21951.01786
2090.12824	22002.01786
2093.12732	21978.30357
2096.12447	21982.44643
2099.11969	21983.44643
2102.11299	21979.875
2105.10435	21984.16071
2108.09379	21966.01786
2111.08131	22039.73214
2114.0669	22030.58929
2117.05057	22054.73214
2120.03233	22075.30357
2123.01216	22069.875
2125.99008	22130.30357
2128.96609	22144.30357
2131.94018	22170.58929
2134.91236	22153.30357
2137.88263	22174.44643
2140.851	22247.875
2143.81746	22182.16071
2146.78201	22185.16071
2149.74466	22240.30357
2152.7054	22219.44643
2155.66425	22187.58929
2158.6212	22169.30357
2161.57625	22189.875
2164.52941	22171.73214
2167.48067	22140.44643
2170.43004	22114.875
2173.37752	22153.58929
2176.32311	22190.44643
2179.26681	22194.44643
2182.20863	22173.73214
2185.14856	22185.73214
2188.08661	22137.30357
2191.02278	22139.01786
2193.95707	22174.73214
2196.88948	22164.16071
2199.82001	22102.30357
2202.74867	22111.16071
2205.67545	22081.16071
2208.60037	22072.44643
2211.52341	22046.58929
2214.44458	21984.30357
2217.36388	21949.30357
2220.28132	21964.58929
2223.1969	21861.875
2226.11061	21876.58929
2229.02246	21832.73214
2231.93245	21751.58929
2234.84058	21684.16071
2237.74686	21722.30357
2240.65128	21704.44643
2243.55385	21730.44643
2246.45456	21718.875
2249.35343	21661.30357
2252.25044	21646.44643
2255.14561	21606.875
2258.03893	21587.58929
2260.93041	21499.875
2263.82004	21499.58929
2266.70783	21448.16071
2269.59378	21342.875
2272.4779	21322.44643
2275.36017	21296.73214
2278.24061	21238.73214
2281.11922	21186.16071
2283.996	21157.58929
2286.87094	21161.875
2289.74405	21119.16071
2292.61534	21093.30357
2295.4848	21116.44643
2298.35243	21116.16071
2301.21824	21089.875
2304.08223	21094.875
2306.94439	21078.58929
2309.80474	21046.44643
2312.66327	21037.875
2315.51999	21053.73214
2318.37489	21026.73214
2321.22797	20974.16071
2324.07925	20944.73214
2326.92871	20917.875
2329.77637	20895.58929
2332.62222	20870.01786
2335.46626	20863.44643
2338.3085	20847.58929
2341.14893	20878.44643
2343.98756	20811.73214
2346.8244	20837.875
2349.65943	20792.44643
2352.49267	20794.44643
2355.32411	20798.875
2358.15376	20742.16071
2360.98161	20759.44643
2363.80768	20813.16071
2366.63195	20774.16071
2369.45444	20689.44643
2372.27514	20682.01786
2375.09405	20608.58929
2377.91118	20619.58929
2380.72652	20609.58929
2383.54009	20544.16071
2386.35187	20477.73214
2389.16188	20410.58929
2391.97011	20388.30357
2394.77657	20377.58929
2397.58125	20361.875
2400.38416	20372.875
2403.18529	20274.30357
2405.98466	20294.73214
2408.78226	20241.30357
2411.57809	20225.16071
2414.37216	20162.875
2417.16446	20171.73214
2419.955	20154.44643
2422.74378	20127.44643
2425.5308	20108.16071
2428.31606	20140.30357
2431.09956	20131.73214
2433.88131	20063.73214
2436.6613	20075.16071
2439.43954	20064.44643
2442.21603	20043.58929
2444.99077	20059.58929
2447.76377	20038.30357
2450.53501	20009.16071
2453.30451	19993.01786
2456.07226	19978.01786
2458.83827	19985.44643
2461.60254	19983.16071
2464.36507	19958.58929
2467.12586	19936.01786
2469.88492	19907.58929
2472.64224	19899.875
2475.39782	19886.16071
2478.15167	19905.58929
2480.90379	19906.30357
2483.65417	19940.16071
2486.40283	19963.01786
2489.14976	19982.30357
2491.89497	19973.30357
2494.63845	19940.875
2497.3802	19953.58929
2500.12024	19922.01786
2502.85855	19874.44643
2505.59514	19851.58929
2508.33002	19828.73214
2511.06318	19778.01786
2513.79462	19786.16071
2516.52435	19782.16071
2519.25237	19696.16071
2521.97867	19681.875
2524.70327	19731.16071
2527.42616	19667.58929
2530.14734	19694.30357
2532.86681	19648.44643
2535.58458	19641.58929
2538.30065	19593.58929
2541.01501	19616.44643
2543.72768	19590.73214
2546.43864	19567.16071
2549.14791	19543.73214
2551.85548	19508.875
2554.56136	19520.30357
2557.26554	19459.01786
2559.96803	19443.16071
2562.66883	19400.875
2565.36794	19360.16071
2568.06536	19362.30357
2570.7611	19339.44643
2573.45514	19299.44643
2576.14751	19261.30357
2578.83819	19258.73214
2581.52719	19251.16071
2584.21451	19250.44643
2586.90015	19220.01786
2589.58411	19201.44643
2592.2664	19160.30357
2594.94701	19100.44643
2597.62594	19122.30357
2600.30321	19085.44643
2602.9788	19067.73214
2605.65273	19011.58929
2608.32498	19023.73214
2610.99557	19025.44643
2613.66449	19034.58929
2616.33175	19038.44643
2618.99734	19023.30357
2621.66128	18978.44643
2624.32355	18974.73214
2626.98416	18934.01786
2629.64311	18914.73214
2632.30041	18905.01786
2634.95605	18895.30357
2637.61004	18833.16071
2640.26238	18805.44643
2642.91306	18830.44643
2645.56209	18799.73214
2648.20948	18803.875
2650.85521	18792.875
2653.4993	18798.44643
2656.14175	18809.01786
2658.78255	18829.30357
2661.42171	18861.58929
2664.05923	18865.73214
2666.6951	18836.875
2669.32934	18828.01786
2671.96194	18853.44643
2674.59291	18856.01786
2677.22224	18823.875
2679.84993	18825.30357
2682.476	18801.16071
2685.10043	18804.01786
2687.72324	18775.01786
2690.34441	18737.01786
2692.96396	18791.16071
2695.58188	18773.58929
2698.19818	18781.16071
2700.81285	18774.44643
2703.4259	18759.73214
2706.03733	18752.73214
2708.64714	18802.58929
2711.25533	18820.73214
2713.86191	18809.58929
2716.46687	18871.73214
2719.07021	18823.30357
2721.67194	18826.44643
2724.27206	18788.01786
2726.87057	18844.16071
2729.46747	18823.73214
2732.06276	18772.58929
2734.65644	18822.58929
2737.24852	18811.73214
2739.83899	18791.44643
2742.42786	18778.16071
2745.01513	18749.01786
2747.60079	18700.73214
2750.18486	18723.01786
2752.76733	18695.58929
2755.3482	18692.30357
2757.92747	18689.01786
2760.50515	18694.30357
2763.08123	18643.44643
2765.65573	18622.73214
2768.22863	18608.16071
2770.79994	18593.16071
2773.36967	18561.875
2775.9378	18603.44643
2778.50435	18540.16071
2781.06932	18541.58929
2783.6327	18555.16071
2786.1945	18510.30357
2788.75471	18490.01786
2791.31335	18437.44643
2793.87041	18448.58929
2796.42589	18448.16071
2798.97979	18397.44643
2801.53212	18399.44643
2804.08288	18336.30357
2806.63206	18271.73214
2809.17967	18273.16071
2811.72571	18207.01786
2814.27018	18223.30357
2816.81308	18142.30357
2819.35442	18130.16071
2821.89419	18112.44643
2824.43239	18116.16071
2826.96904	18093.30357
2829.50412	18068.16071
2832.03763	18055.01786
2834.56959	18092.16071
2837.1	18071.44643
2839.62884	18056.16071
2842.15613	17963.73214
2844.68186	18030.30357
2847.20604	18004.58929
2849.72867	17992.16071
2852.24974	17988.16071
2854.76927	17969.73214
2857.28724	17943.73214
2859.80367	17923.01786
2862.31855	17881.30357
2864.83189	17850.58929
2867.34368	17833.44643
2869.85393	17874.01786
2872.36264	17843.58929
2874.8698	17784.44643
2877.37543	17784.875
2879.87952	17778.44643
2882.38207	17793.16071
2884.88308	17767.30357
2887.38256	17779.30357
2889.88051	17810.30357
2892.37692	17841.01786
2894.8718	17863.73214
2897.36515	17794.875
2899.85698	17857.73214
2902.34727	17902.16071
2904.83604	17869.30357
2907.32328	17902.16071
2909.809	17910.16071
2912.29319	17937.875
2914.77587	17942.44643
2917.25702	17937.73214
2919.73665	17930.16071
2922.21476	17928.44643
2924.69136	17897.16071
2927.16644	17925.30357
2929.64	17881.875
2932.11205	17870.875
2934.58258	17780.01786
2937.05161	17834.30357
2939.51912	17859.58929
2941.98513	17817.16071
2944.44962	17779.30357
2946.91261	17766.01786
2949.37409	17777.875
2951.83407	17731.44643
2954.29254	17750.875
2956.74951	17709.16071
2959.20498	17694.30357
2961.65895	17725.58929
2964.11142	17702.875
2966.56239	17682.875
2969.01186	17664.30357
2971.45984	17623.01786
2973.90632	17603.58929
2976.35131	17515.44643
2978.7948	17543.44643
2981.23681	17480.875
2983.67732	17468.73214
2986.11635	17447.73214
2988.55388	17406.44643
2990.98993	17371.58929
2993.4245	17325.58929
2995.85758	17325.44643
2998.28917	17376.44643
3000.71928	17288.16071
3003.14791	17270.58929
3005.57506	17233.875
3008.00073	17227.73214
3010.42493	17221.44643
3012.84764	17151.875
3015.26888	17134.875
3017.68865	17068.16071
3020.10694	17090.16071
3022.52376	17026.01786
3024.9391	16987.30357
3027.35298	17000.73214
3029.76539	16957.44643
3032.17632	16984.73214
3034.5858	16955.16071
3036.9938	16999.73214
3039.40034	16913.875
3041.80542	16936.875
3044.20903	16910.875
3046.61118	16887.73214
3049.01187	16852.16071
3051.4111	16848.16071
3053.80888	16777.58929
3056.20519	16768.30357
3058.60005	16724.30357
3060.99345	16738.875
3063.3854	16653.73214
3065.7759	16625.01786
3068.16494	16620.16071
3070.55254	16559.01786
3072.93868	16540.58929
3075.32338	16503.01786
3077.70662	16457.01786
3080.08842	16410.58929
3082.46878	16413.30357
3084.84769	16391.44643
3087.22515	16414.875
3089.60118	16411.44643
3091.97576	16422.875
3094.3489	16440.16071
3096.72061	16420.16071
3099.09087	16415.73214
3101.4597	16416.16071
3103.82709	16413.16071
3106.19305	16371.58929
3108.55757	16361.01786
3110.92066	16317.16071
3113.28232	16316.875
3115.64255	16268.44643
3118.00134	16266.16071
3120.35871	16225.44643
3122.71466	16187.44643
3125.06917	16183.875
3127.42226	16163.01786
3129.77393	16167.30357
3132.12417	16137.58929
3134.47299	16120.44643
3136.82039	16124.30357
3139.16636	16110.01786
3141.51092	16149.01786
3143.85406	16112.44643
3146.19579	16123.58929
3148.53609	16101.30357
3150.87499	16148.875
3153.21246	16123.16071
3155.54853	16159.01786
3157.88318	16158.30357
3160.21642	16189.58929
3162.54826	16186.73214
3164.87868	16207.16071
3167.2077	16163.44643
3169.5353	16170.73214
3171.86151	16176.58929
3174.18631	16198.01786
3176.5097	16149.58929
3178.83169	16163.30357
3181.15228	16111.58929
3183.47147	16068.58929
3185.78926	16028.44643
3188.10565	16038.58929
3190.42065	16039.01786
3192.73424	16040.01786
3195.04645	15995.44643
3197.35725	15989.58929
3199.66667	16007.01786
3201.97469	16017.875
3204.28132	16015.73214
3206.58656	16019.01786
3208.8904	16025.30357
3211.19287	16094.73214
3213.49394	16043.73214
3215.79363	16098.44643
3218.09193	16081.875
3220.38884	16087.16071
3222.68438	16081.01786
3224.97853	16081.01786
3227.2713	16073.16071
3229.56269	16038.44643
3231.8527	16076.58929
3234.14133	16011.01786
3236.42858	15951.30357
3238.71446	15944.30357
3240.99896	15934.44643
3243.28209	15868.875
3245.56384	15869.01786
3247.84423	15873.73214
3250.12324	15851.73214
3252.40088	15863.44643
3254.67715	15813.01786
3256.95205	15819.01786
3259.22558	15812.30357
3261.49775	15787.01786
3263.76855	15782.01786
3266.03799	15760.73214
3268.30606	15768.01786
3270.57277	15734.44643
3272.83812	15674.875
3275.10211	15641.16071
3277.36474	15614.01786
3279.62601	15659.01786
3281.88593	15622.58929
3284.14448	15629.875
3286.40168	15649.875
3288.65753	15623.16071
3290.91202	15584.875
3293.16516	15571.73214
3295.41695	15540.01786
3297.66738	15479.44643
3299.91647	15429.58929
3302.16421	15319.01786
3304.4106	15279.16071
3306.65564	15156.875
3308.89933	15065.01786
3311.14169	14934.58929
3313.38269	14820.73214
3315.62236	14720.01786
3317.86068	14659.01786
3320.09766	14520.16071
3322.3333	14438.58929
3324.5676	14416.875
3326.80056	14166.73214
3329.03219	14087.875
3331.26248	1.01786
3333.49143	-0.83929
3335.71905	0.875
