Data from AgNPs_FTO_APTES_UA_20uM_CRN_100uM_R6G_10uM_NaF_0.1M_Addition_RamanShift__0__17-18-34-860.txt Node

Date: Thu Feb 17 17:18:34 GMT 2022
User: TCL
Spectrometer: QEP01345
Trigger mode: 4
Integration Time (sec): 1.000000E1
Scans to average: 7
Electric dark correction enabled: true
Nonlinearity correction enabled: false
Boxcar width: 0
XAxis mode: Raman Shifts
Number of Pixels in Spectrum: 1044
>>>>>Begin Spectral Data<<<<<
46.04893	-0.85714
50.45542	-0.14286
54.85868	0.71429
59.25871	-2.28571
63.6555	88
68.04907	87
72.43941	92.57143
76.82654	95.57143
81.21044	99.42857
85.59113	99.28571
89.96862	100.71429
94.34289	105
98.71396	116.14286
103.08183	111.42857
107.4465	122.42857
111.80798	121.28571
116.16626	121.28571
120.52136	127.71429
124.87327	133.57143
129.222	141.85714
133.56755	145.14286
137.90993	157.14286
142.24913	168
146.58517	187.57143
150.91804	209.71429
155.24774	257.14286
159.57429	318.14286
163.89768	406.28571
168.21792	528.85714
172.53501	731.14286
176.84895	1014.42857
181.15975	1447.28571
185.46741	2027.28571
189.77193	2802.42857
194.07331	3780.42857
198.37157	4873.14286
202.6667	6050.28571
206.9587	7224.14286
211.24758	8326
215.53334	9442
219.81599	10640.71429
224.09553	11981
228.37195	13377.85714
232.64527	14999.71429
236.91549	16676.71429
241.18261	18372.28571
245.44663	19976.14286
249.70755	21395.71429
253.96539	22603.57143
258.22014	23633.28571
262.4718	24437.28571
266.72039	25072.57143
270.96589	25360.57143
275.20832	25360.14286
279.44768	25096.14286
283.68397	24732.85714
287.91719	24394.28571
292.14735	24116.42857
296.37445	24081.28571
300.59849	24200.14286
304.81948	24422.57143
309.03742	24556.28571
313.25231	24651.42857
317.46415	24440.57143
321.67296	24017.71429
325.87872	23659.71429
330.08145	23501.28571
334.28114	23535
338.47781	23769.42857
342.67145	24085.71429
346.86207	24506.28571
351.04966	25006.71429
355.23424	25588
359.4158	26048.71429
363.59435	26331.14286
367.76989	26492.85714
371.94243	26668.85714
376.11196	26821.42857
380.27849	26901.14286
384.44203	27035.71429
388.60257	27148.71429
392.76012	27377.85714
396.91468	27561.71429
401.06626	27884
405.21485	28164.14286
409.36047	28077.71429
413.50311	27719.42857
417.64277	27349.14286
421.77947	27234.14286
425.9132	27270.28571
430.04396	27400
434.17176	27554.42857
438.2966	27893
442.41849	28288.14286
446.53742	29060.28571
450.6534	29791.71429
454.76644	30130.57143
458.87653	30193.71429
462.98368	29969.71429
467.08789	29633.14286
471.18916	29204.42857
475.2875	28734
479.38291	28356.71429
483.4754	27988.71429
487.56496	27770.28571
491.6516	27761.42857
495.73531	27732.71429
499.81612	27739
503.89401	27893.57143
507.96899	28038.42857
512.04106	28136.42857
516.11023	28194.14286
520.1765	28199.57143
524.23987	28337.14286
528.30034	28355.85714
532.35792	28337.57143
536.41261	28177.57143
540.46441	27855.57143
544.51333	27697.28571
548.55936	27860.28571
552.60252	28172
556.64279	28587.28571
560.6802	28837.42857
564.71473	28831.85714
568.7464	28851.28571
572.7752	29064.14286
576.80114	29153.14286
580.82422	29367.71429
584.84444	29948.14286
588.86181	30884.85714
592.87633	32158.14286
596.888	32774
600.89682	32334.42857
604.9028	32471
608.90594	34825.28571
612.90624	37968
616.90371	36623.71429
620.89834	31716.14286
624.89015	29433
628.87913	29102
632.86528	29171.42857
636.84862	29211.42857
640.82913	28907.14286
644.80683	28446.85714
648.78172	28083.28571
652.75379	28056.57143
656.72306	28468
660.68952	28913.85714
664.65319	28834.57143
668.61405	28387.28571
672.57211	28351.71429
676.52738	28539.85714
680.47986	28484.85714
684.42955	28322.28571
688.37646	28287.71429
692.32058	28383.28571
696.26192	28653.14286
700.20048	28892.71429
704.13626	29018
708.06928	28880.57143
711.99952	28683.28571
715.927	28701.14286
719.85171	28781.85714
723.77365	28790.14286
727.69284	28646.71429
731.60928	28456
735.52295	28467.42857
739.43388	28427.14286
743.34206	28571.71429
747.24749	28621.71429
751.15017	28725.28571
755.05012	28932
758.94733	29339.57143
762.8418	30399.28571
766.73354	32209.71429
770.62254	33977
774.50882	34710
778.39237	33959.57143
782.27321	32111.42857
786.15132	30436.14286
790.02671	29400.71429
793.89938	28859
797.76935	28655.14286
801.6366	28600.42857
805.50115	28523.85714
809.36299	28386.28571
813.22213	28302.71429
817.07857	28179
820.93231	28207.42857
824.78336	28234.14286
828.63172	28228.14286
832.47738	28280.71429
836.32036	28373.14286
840.16066	28431
843.99827	28536.85714
847.8332	28515.42857
851.66546	28453.71429
855.49504	28481
859.32195	28518
863.1462	28480.42857
866.96777	28460.57143
870.78668	28495.28571
874.60293	28480.28571
878.41652	28566.71429
882.22745	28656.85714
886.03573	28728.71429
889.84136	28723.28571
893.64433	28634.71429
897.44466	28531.71429
901.24235	28428.85714
905.0374	28347.14286
908.8298	28265.42857
912.61957	28219.28571
916.40671	28322.85714
920.19121	28509.14286
923.97308	28737.28571
927.75233	28915.28571
931.52895	28936.14286
935.30295	28785.71429
939.07433	28478
942.84309	28256.85714
946.60924	28107.85714
950.37278	28029
954.13371	27926.42857
957.89203	27827.28571
961.64774	27764.42857
965.40086	27761.85714
969.15137	27729.57143
972.89929	27682.57143
976.64461	27787.57143
980.38733	27824.28571
984.12747	27950.57143
987.86502	28152.71429
991.59999	28451.85714
995.33237	28803.14286
999.06217	29346.14286
1002.78939	29959
1006.51404	30324
1010.23611	30553
1013.95561	30744
1017.67255	30824.85714
1021.38692	30706
1025.09872	30443.14286
1028.80796	30521.42857
1032.51465	31063.28571
1036.21877	31677
1039.92035	31803.42857
1043.61937	31580.28571
1047.31584	31081.42857
1051.00976	30511
1054.70114	30140.14286
1058.38998	29951.14286
1062.07627	29941
1065.76003	30028.57143
1069.44126	30093.28571
1073.11995	30353.28571
1076.79611	30712.42857
1080.46974	31004.85714
1084.14085	31249.71429
1087.80943	31425.71429
1091.47549	31524.14286
1095.13903	31341.42857
1098.80005	30978.28571
1102.45857	30688
1106.11456	30433.57143
1109.76805	30536
1113.41903	30625.85714
1117.06751	30849.28571
1120.71348	31168.71429
1124.35696	31446.57143
1127.99793	31772.28571
1131.63641	31823.14286
1135.2724	31517.57143
1138.90589	31296.85714
1142.5369	31039.85714
1146.16542	30822.42857
1149.79145	30833.57143
1153.415	30742.42857
1157.03607	30773.14286
1160.65467	31144.42857
1164.27079	31907.42857
1167.88443	32881.85714
1171.49561	34223
1175.10432	36036.85714
1178.71056	38464.57143
1182.31434	40755
1185.91565	41913.28571
1189.51451	41584.85714
1193.11091	40372
1196.70485	38921.57143
1200.29634	37698.28571
1203.88538	36526.42857
1207.47197	35562.85714
1211.05612	34706
1214.63782	34127.57143
1218.21708	33873.57143
1221.79391	33870.14286
1225.36829	34012.14286
1228.94024	34037.14286
1232.50976	33620.14286
1236.07685	33202.85714
1239.6415	32904.57143
1243.20374	32901.14286
1246.76355	33090.85714
1250.32093	33466.85714
1253.8759	33947.57143
1257.42845	34537
1260.97859	35237.71429
1264.52631	35909.14286
1268.07163	36637.85714
1271.61453	37445.42857
1275.15503	38203.71429
1278.69312	38812.14286
1282.22882	39260.57143
1285.76211	39741.71429
1289.29301	40434.71429
1292.82151	41343.57143
1296.34761	42467.14286
1299.87133	44259.57143
1303.39266	46530.85714
1306.9116	49307.71429
1310.42815	52051.85714
1313.94233	53384.14286
1317.45412	52580.28571
1320.96354	50480.85714
1324.47058	48072.85714
1327.97525	45937.71429
1331.47754	44541.85714
1334.97747	43762.42857
1338.47502	43494.14286
1341.97022	43597
1345.46305	43965.14286
1348.95352	44882.42857
1352.44163	46414
1355.92738	48795.85714
1359.41078	51865
1362.89183	54336.14286
1366.37053	53344.85714
1369.84688	48754.85714
1373.32088	43734.42857
1376.79254	40396.14286
1380.26186	38865.71429
1383.72883	38247.85714
1387.19347	37746.28571
1390.65578	37020.14286
1394.11575	36539.14286
1397.57339	36506.85714
1401.0287	36567
1404.48168	36598.57143
1407.93234	36556
1411.38068	36457.42857
1414.82669	36389.28571
1418.27039	36170.42857
1421.71177	35774.28571
1425.15083	35294
1428.58758	35065.57143
1432.02203	35312.42857
1435.45416	35815.57143
1438.88399	36253.57143
1442.31151	36379.14286
1445.73673	36403.28571
1449.15965	36385.28571
1452.58027	36173.42857
1455.9986	35894.42857
1459.41463	35973.57143
1462.82837	36259
1466.23982	36832.42857
1469.64898	37467.14286
1473.05586	37960.28571
1476.46045	38353
1479.86276	38593.42857
1483.26279	38732.57143
1486.66054	39006
1490.05602	39451.85714
1493.44922	40095.28571
1496.84016	40875
1500.22882	41956.71429
1503.61521	43693.85714
1506.99934	45545.28571
1510.38121	47042.42857
1513.76081	46950.85714
1517.13816	45245.42857
1520.51324	42723
1523.88607	40583.71429
1527.25665	39352.71429
1530.62498	38886.71429
1533.99105	38555.85714
1537.35488	38330.71429
1540.71647	38025.85714
1544.07581	37608.28571
1547.4329	37306.28571
1550.78776	36987.71429
1554.14038	36696.71429
1557.49077	36595.42857
1560.83892	36612.28571
1564.18484	36747.42857
1567.52853	37013.42857
1570.86999	37351.71429
1574.20922	37660.85714
1577.54624	37721.71429
1580.88103	37257.57143
1584.2136	36875.85714
1587.54395	36988.85714
1590.87208	37957.57143
1594.19801	39725
1597.52172	41806.71429
1600.84321	42852.85714
1604.16251	42077.85714
1607.47959	40216.42857
1610.79447	37811.14286
1614.10715	35609.14286
1617.41763	33865.28571
1620.7259	32784.42857
1624.03199	32225.28571
1627.33587	32280.71429
1630.63757	32804.57143
1633.93707	33886
1637.23439	35678.28571
1640.52951	38457
1643.82246	41909.71429
1647.11321	44918.85714
1650.40179	45594.71429
1653.68819	43191.85714
1656.97241	38960
1660.25446	34986
1663.53433	32366.57143
1666.81203	30817
1670.08756	29813.14286
1673.36092	29175.57143
1676.63211	28811.85714
1679.90115	28526
1683.16801	28228.85714
1686.43272	28076.85714
1689.69527	27940.42857
1692.95567	27834.57143
1696.2139	27792.71429
1699.46999	27766.28571
1702.72392	27697.28571
1705.97571	27623
1709.22535	27680.42857
1712.47284	27675.71429
1715.71819	27667.42857
1718.96139	27609
1722.20246	27562.14286
1725.44139	27466.71429
1728.67818	27431
1731.91284	27322.42857
1735.14537	27247.85714
1738.37576	27161.71429
1741.60403	27091.28571
1744.83017	27045.85714
1748.05418	27019.28571
1751.27607	26986
1754.49584	26937
1757.71349	26967.71429
1760.92903	26985
1764.14244	26948.85714
1767.35375	26902.57143
1770.56294	26846.42857
1773.77002	26832.57143
1776.97499	26825.28571
1780.17785	26857.14286
1783.37861	26761.42857
1786.57727	26763.85714
1789.77382	26704.28571
1792.96828	26680.71429
1796.16064	26662.71429
1799.3509	26627.57143
1802.53907	26559.14286
1805.72514	26527.14286
1808.90913	26459.85714
1812.09102	26468.57143
1815.27083	26386.71429
1818.44856	26401.85714
1821.6242	26382.42857
1824.79776	26341.42857
1827.96924	26295.42857
1831.13864	26271.42857
1834.30597	26343.42857
1837.47122	26335
1840.6344	26315
1843.7955	26252.42857
1846.95454	26282
1850.11151	26261.28571
1853.26642	26254.28571
1856.41926	26169.85714
1859.57004	26213.57143
1862.71876	26236.42857
1865.86542	26208
1869.01003	26177.71429
1872.15258	26167.28571
1875.29308	26167
1878.43152	26126.71429
1881.56792	26150.42857
1884.70227	26126
1887.83457	26108.71429
1890.96482	26060.85714
1894.09304	26062.57143
1897.21921	26027.14286
1900.34335	26050.28571
1903.46544	25977.71429
1906.58551	25984.28571
1909.70353	25990.14286
1912.81953	25942.85714
1915.93349	25888.71429
1919.04543	25868.14286
1922.15534	25861.71429
1925.26322	25831.14286
1928.36908	25786
1931.47292	25744.71429
1934.57473	25679.71429
1937.67453	25665.57143
1940.77232	25576.71429
1943.86808	25549.71429
1946.96184	25489
1950.05358	25440.71429
1953.14331	25348.85714
1956.23103	25355.28571
1959.31675	25302.85714
1962.40046	25201.57143
1965.48217	25154.57143
1968.56188	25093.28571
1971.63959	25054.57143
1974.7153	24939.42857
1977.78901	24956.71429
1980.86073	24849.14286
1983.93046	24801.28571
1986.99819	24723.57143
1990.06394	24609
1993.1277	24612.57143
1996.18947	24481.28571
1999.24925	24438.57143
2002.30706	24437.71429
2005.36288	24318.85714
2008.41672	24275.42857
2011.46859	24234.85714
2014.51848	24172
2017.56639	24140.42857
2020.61233	24103.71429
2023.6563	24039.42857
2026.6983	23954
2029.73833	23957.85714
2032.7764	23879
2035.8125	23865.14286
2038.84664	23869.14286
2041.87881	23807.42857
2044.90903	23815.71429
2047.93729	23708.28571
2050.96359	23764.14286
2053.98794	23698.85714
2057.01034	23653.42857
2060.03078	23663.28571
2063.04927	23663
2066.06582	23646
2069.08042	23656.28571
2072.09307	23632.28571
2075.10378	23649.14286
2078.11255	23575.85714
2081.11938	23661.42857
2084.12426	23624.71429
2087.12722	23666.57143
2090.12824	23599.14286
2093.12732	23658.71429
2096.12447	23630.57143
2099.11969	23669
2102.11299	23666
2105.10435	23673.71429
2108.09379	23695.85714
2111.08131	23746.28571
2114.0669	23730.57143
2117.05057	23783.85714
2120.03233	23836.42857
2123.01216	23827.42857
2125.99008	23884
2128.96609	23943.57143
2131.94018	23971.71429
2134.91236	23978.28571
2137.88263	24022.14286
2140.851	24039.42857
2143.81746	24017.28571
2146.78201	24049.14286
2149.74466	24052.71429
2152.7054	24087
2155.66425	24056
2158.6212	24105.57143
2161.57625	24032.85714
2164.52941	23978.85714
2167.48067	24039.14286
2170.43004	24071.85714
2173.37752	24059.14286
2176.32311	24054.85714
2179.26681	24028.71429
2182.20863	24066.28571
2185.14856	24123.14286
2188.08661	24143.28571
2191.02278	24128.85714
2193.95707	24154
2196.88948	24137.85714
2199.82001	24123
2202.74867	24118.85714
2205.67545	24063.42857
2208.60037	24091.14286
2211.52341	24069.28571
2214.44458	24003.28571
2217.36388	24003.85714
2220.28132	23994.71429
2223.1969	23939.71429
2226.11061	23896
2229.02246	23817.28571
2231.93245	23801.14286
2234.84058	23769.85714
2237.74686	23699
2240.65128	23762.28571
2243.55385	23716.57143
2246.45456	23757.71429
2249.35343	23728.57143
2252.25044	23711.57143
2255.14561	23647
2258.03893	23610
2260.93041	23580.57143
2263.82004	23536.57143
2266.70783	23522.28571
2269.59378	23469.14286
2272.4779	23470.71429
2275.36017	23426.85714
2278.24061	23354.57143
2281.11922	23321.14286
2283.996	23340.71429
2286.87094	23314
2289.74405	23317.57143
2292.61534	23294.57143
2295.4848	23274.57143
2298.35243	23281.71429
2301.21824	23302.85714
2304.08223	23270.57143
2306.94439	23251.71429
2309.80474	23258.42857
2312.66327	23296.57143
2315.51999	23298
2318.37489	23282.42857
2321.22797	23241.28571
2324.07925	23190
2326.92871	23171.42857
2329.77637	23152.57143
2332.62222	23156.71429
2335.46626	23156.42857
2338.3085	23153.42857
2341.14893	23059.42857
2343.98756	23098.71429
2346.8244	23097
2349.65943	23069.85714
2352.49267	23051.28571
2355.32411	23083.57143
2358.15376	23022.28571
2360.98161	23001.71429
2363.80768	23015.14286
2366.63195	22976.28571
2369.45444	22963.28571
2372.27514	22920.42857
2375.09405	22913.85714
2377.91118	22906.14286
2380.72652	22871.71429
2383.54009	22789.57143
2386.35187	22805.85714
2389.16188	22706.57143
2391.97011	22726.71429
2394.77657	22690.14286
2397.58125	22699.71429
2400.38416	22695.57143
2403.18529	22686.28571
2405.98466	22692.14286
2408.78226	22559.28571
2411.57809	22516.85714
2414.37216	22501
2417.16446	22531.42857
2419.955	22476.57143
2422.74378	22475.14286
2425.5308	22443.42857
2428.31606	22449.28571
2431.09956	22454.14286
2433.88131	22367.71429
2436.6613	22419.28571
2439.43954	22420.85714
2442.21603	22426.28571
2444.99077	22392.71429
2447.76377	22412.28571
2450.53501	22396.14286
2453.30451	22384.71429
2456.07226	22371.14286
2458.83827	22353.71429
2461.60254	22326.85714
2464.36507	22295.14286
2467.12586	22294.57143
2469.88492	22311.71429
2472.64224	22294.14286
2475.39782	22287.28571
2478.15167	22371.85714
2480.90379	22328.14286
2483.65417	22368.85714
2486.40283	22385.42857
2489.14976	22423.28571
2491.89497	22371.71429
2494.63845	22395.57143
2497.3802	22379.28571
2500.12024	22379.85714
2502.85855	22361.85714
2505.59514	22343.85714
2508.33002	22321.14286
2511.06318	22252.71429
2513.79462	22257
2516.52435	22218.71429
2519.25237	22226.14286
2521.97867	22198.71429
2524.70327	22184.71429
2527.42616	22171.57143
2530.14734	22205.28571
2532.86681	22109.57143
2535.58458	22143
2538.30065	22141.85714
2541.01501	22161.28571
2543.72768	22083.42857
2546.43864	22061.42857
2549.14791	22030.14286
2551.85548	22057.71429
2554.56136	21984
2557.26554	21979.14286
2559.96803	21995.28571
2562.66883	21933.85714
2565.36794	21938.28571
2568.06536	21879
2570.7611	21892.14286
2573.45514	21888
2576.14751	21850.71429
2578.83819	21795.85714
2581.52719	21835.57143
2584.21451	21776.14286
2586.90015	21757.57143
2589.58411	21719.71429
2592.2664	21742.42857
2594.94701	21697.28571
2597.62594	21669.85714
2600.30321	21596.85714
2602.9788	21598.57143
2605.65273	21613.71429
2608.32498	21646.14286
2610.99557	21590.57143
2613.66449	21578
2616.33175	21600.14286
2618.99734	21595.42857
2621.66128	21576.85714
2624.32355	21556.57143
2626.98416	21539.71429
2629.64311	21477.14286
2632.30041	21460.14286
2634.95605	21448
2637.61004	21391.71429
2640.26238	21407.14286
2642.91306	21426.14286
2645.56209	21414.57143
2648.20948	21449.71429
2650.85521	21406.42857
2653.4993	21376.42857
2656.14175	21367.14286
2658.78255	21374.28571
2661.42171	21334.71429
2664.05923	21426.85714
2666.6951	21423.14286
2669.32934	21437.28571
2671.96194	21444.57143
2674.59291	21444.85714
2677.22224	21455.57143
2679.84993	21438
2682.476	21452
2685.10043	21414.42857
2687.72324	21393.42857
2690.34441	21394.42857
2692.96396	21417.57143
2695.58188	21424.28571
2698.19818	21403.57143
2700.81285	21379.14286
2703.4259	21375.28571
2706.03733	21439.14286
2708.64714	21420.28571
2711.25533	21482.28571
2713.86191	21437.71429
2716.46687	21512.42857
2719.07021	21478.28571
2721.67194	21500.57143
2724.27206	21530.42857
2726.87057	21602.14286
2729.46747	21551.42857
2732.06276	21513.28571
2734.65644	21524.28571
2737.24852	21536.71429
2739.83899	21487.71429
2742.42786	21534.28571
2745.01513	21475.71429
2747.60079	21435
2750.18486	21396
2752.76733	21364.71429
2755.3482	21424.57143
2757.92747	21436.71429
2760.50515	21383.14286
2763.08123	21417.57143
2765.65573	21366.14286
2768.22863	21369.57143
2770.79994	21338.14286
2773.36967	21311.14286
2775.9378	21300.28571
2778.50435	21294.71429
2781.06932	21310
2783.6327	21271
2786.1945	21233.28571
2788.75471	21224.14286
2791.31335	21186.85714
2793.87041	21197.28571
2796.42589	21142.71429
2798.97979	21146.14286
2801.53212	21100
2804.08288	21063.71429
2806.63206	21061.14286
2809.17967	21037.14286
2811.72571	20982.71429
2814.27018	20950.57143
2816.81308	20902.14286
2819.35442	20827
2821.89419	20812.28571
2824.43239	20781.14286
2826.96904	20772.71429
2829.50412	20777.57143
2832.03763	20754.71429
2834.56959	20744.42857
2837.1	20800.28571
2839.62884	20734.14286
2842.15613	20693.71429
2844.68186	20715.42857
2847.20604	20695.71429
2849.72867	20744.14286
2852.24974	20721.42857
2854.76927	20685.42857
2857.28724	20690.57143
2859.80367	20697.42857
2862.31855	20633.14286
2864.83189	20677.85714
2867.34368	20630.85714
2869.85393	20601.85714
2872.36264	20635.71429
2874.8698	20570.57143
2877.37543	20604.85714
2879.87952	20577.42857
2882.38207	20551.42857
2884.88308	20541.14286
2887.38256	20616
2889.88051	20616.42857
2892.37692	20620.14286
2894.8718	20648.85714
2897.36515	20634.71429
2899.85698	20647.57143
2902.34727	20735
2904.83604	20701.28571
2907.32328	20746.14286
2909.809	20712.42857
2912.29319	20765.57143
2914.77587	20765.85714
2917.25702	20752.14286
2919.73665	20775.85714
2922.21476	20768
2924.69136	20753
2927.16644	20749
2929.64	20714.57143
2932.11205	20673.85714
2934.58258	20629.28571
2937.05161	20684.14286
2939.51912	20704.42857
2941.98513	20683
2944.44962	20647.42857
2946.91261	20610.71429
2949.37409	20668.71429
2951.83407	20715.14286
2954.29254	20650.57143
2956.74951	20657.57143
2959.20498	20685.71429
2961.65895	20614.42857
2964.11142	20621.28571
2966.56239	20580.57143
2969.01186	20632.42857
2971.45984	20565.14286
2973.90632	20557.57143
2976.35131	20545.57143
2978.7948	20532.57143
2981.23681	20485.14286
2983.67732	20454.14286
2986.11635	20423.85714
2988.55388	20416.28571
2990.98993	20375.28571
2993.4245	20377.85714
2995.85758	20329.28571
2998.28917	20305
3000.71928	20300.14286
3003.14791	20240.14286
3005.57506	20225.14286
3008.00073	20168.14286
3010.42493	20175
3012.84764	20150
3015.26888	20163.71429
3017.68865	20095
3020.10694	20086
3022.52376	20062.57143
3024.9391	20058
3027.35298	20029
3029.76539	20020.57143
3032.17632	20024.14286
3034.5858	19940.42857
3036.9938	19939.42857
3039.40034	19958.71429
3041.80542	19941.42857
3044.20903	19892.85714
3046.61118	19893.42857
3049.01187	19884.71429
3051.4111	19891
3053.80888	19842.28571
3056.20519	19815.42857
3058.60005	19798.28571
3060.99345	19756.14286
3063.3854	19704.57143
3065.7759	19680.85714
3068.16494	19627.85714
3070.55254	19589.85714
3072.93868	19543.14286
3075.32338	19560
3077.70662	19543.28571
3080.08842	19516.71429
3082.46878	19476.85714
3084.84769	19466.14286
3087.22515	19464.14286
3089.60118	19505.57143
3091.97576	19509.85714
3094.3489	19512.71429
3096.72061	19513.28571
3099.09087	19496.42857
3101.4597	19467.42857
3103.82709	19544
3106.19305	19506.42857
3108.55757	19544.57143
3110.92066	19475.57143
3113.28232	19455.85714
3115.64255	19375.28571
3118.00134	19368.14286
3120.35871	19362.14286
3122.71466	19318.71429
3125.06917	19276.57143
3127.42226	19254.42857
3129.77393	19300
3132.12417	19259.57143
3134.47299	19273.42857
3136.82039	19265.71429
3139.16636	19223.71429
3141.51092	19237.71429
3143.85406	19289.85714
3146.19579	19228.42857
3148.53609	19253
3150.87499	19248.57143
3153.21246	19294
3155.54853	19353.42857
3157.88318	19338.42857
3160.21642	19351.85714
3162.54826	19383.57143
3164.87868	19378.71429
3167.2077	19365.85714
3169.5353	19371.71429
3171.86151	19384.57143
3174.18631	19407.57143
3176.5097	19351.42857
3178.83169	19369.42857
3181.15228	19371.42857
3183.47147	19318.85714
3185.78926	19273.14286
3188.10565	19319
3190.42065	19293.42857
3192.73424	19282.28571
3195.04645	19300.71429
3197.35725	19248.28571
3199.66667	19260.71429
3201.97469	19246.28571
3204.28132	19257.85714
3206.58656	19296
3208.8904	19325.71429
3211.19287	19326.57143
3213.49394	19320.85714
3215.79363	19266.71429
3218.09193	19303.28571
3220.38884	19339.57143
3222.68438	19397.85714
3224.97853	19386
3227.2713	19302.57143
3229.56269	19336.14286
3231.8527	19336.14286
3234.14133	19305.14286
3236.42858	19260.71429
3238.71446	19239.28571
3240.99896	19208.57143
3243.28209	19200.71429
3245.56384	19149.57143
3247.84423	19135
3250.12324	19154.42857
3252.40088	19165.14286
3254.67715	19123.71429
3256.95205	19102.28571
3259.22558	19168.57143
3261.49775	19151.28571
3263.76855	19151
3266.03799	19108.85714
3268.30606	19109
3270.57277	19070
3272.83812	19034.85714
3275.10211	18986
3277.36474	18961.14286
3279.62601	18946.71429
3281.88593	18954.57143
3284.14448	18996.28571
3286.40168	18934
3288.65753	18922.71429
3290.91202	18939.71429
3293.16516	18897.85714
3295.41695	18896.57143
3297.66738	18775.85714
3299.91647	18712.71429
3302.16421	18604.57143
3304.4106	18540.28571
3306.65564	18408.85714
3308.89933	18334.71429
3311.14169	18171.85714
3313.38269	18047.85714
3315.62236	17975.42857
3317.86068	17821.42857
3320.09766	17703.28571
3322.3333	17588.85714
3324.5676	17532.71429
3326.80056	17260.85714
3329.03219	17160.28571
3331.26248	3.42857
3333.49143	-0.57143
3335.71905	-0.28571
