Data from AgNPs_FTO_APTES_UA_20uM_CRN_500uM_R6G_10uM_NaF_0.1M_Addition_RamanShift__23__18-58-54-986.txt Node

Date: Thu Feb 17 18:58:54 GMT 2022
User: TCL
Spectrometer: QEP01345
Trigger mode: 4
Integration Time (sec): 1.000000E1
Scans to average: 7
Electric dark correction enabled: true
Nonlinearity correction enabled: false
Boxcar width: 0
XAxis mode: Raman Shifts
Number of Pixels in Spectrum: 1044
>>>>>Begin Spectral Data<<<<<
46.04893	0.28571
50.45542	-2.28571
54.85868	0.71429
59.25871	-2.57143
63.6555	76.14286
68.04907	76.42857
72.43941	85
76.82654	84.42857
81.21044	86.71429
85.59113	92.85714
89.96862	96.71429
94.34289	94.42857
98.71396	105.57143
103.08183	101.42857
107.4465	105.71429
111.80798	104.28571
116.16626	110.71429
120.52136	116.42857
124.87327	123.14286
129.222	123.85714
133.56755	131.85714
137.90993	141.85714
142.24913	151.42857
146.58517	171.57143
150.91804	198.57143
155.24774	236.14286
159.57429	283.42857
163.89768	369.85714
168.21792	492.71429
172.53501	669.28571
176.84895	939.28571
181.15975	1322.42857
185.46741	1867.71429
189.77193	2588.42857
194.07331	3486.71429
198.37157	4536.71429
202.6667	5636.28571
206.9587	6725.57143
211.24758	7844.42857
215.53334	8958.28571
219.81599	10132.71429
224.09553	11412.57143
228.37195	12853.14286
232.64527	14444.85714
236.91549	16109.57143
241.18261	17696.57143
245.44663	19173.71429
249.70755	20481.71429
253.96539	21521
258.22014	22395
262.4718	23138.14286
266.72039	23600.14286
270.96589	23821.28571
275.20832	23729.28571
279.44768	23405.71429
283.68397	23033.14286
287.91719	22697.71429
292.14735	22529.85714
296.37445	22539.14286
300.59849	22810.85714
304.81948	23151
309.03742	23405.71429
313.25231	23362.28571
317.46415	22910.71429
321.67296	22237.14286
325.87872	21641.71429
330.08145	21405.57143
334.28114	21424.85714
338.47781	21693.42857
342.67145	22038.57143
346.86207	22493
351.04966	23098.42857
355.23424	23854.42857
359.4158	24573.14286
363.59435	25045
367.76989	25308
371.94243	25471.85714
376.11196	25528
380.27849	25643
384.44203	25665.57143
388.60257	25619.57143
392.76012	25642.71429
396.91468	25824.28571
401.06626	26089.28571
405.21485	26354.71429
409.36047	26277
413.50311	25745.71429
417.64277	25244.71429
421.77947	24996.57143
425.9132	24897.57143
430.04396	24961.14286
434.17176	25172.71429
438.2966	25511.85714
442.41849	26004.28571
446.53742	26651.42857
450.6534	27319.71429
454.76644	27802.71429
458.87653	27947.42857
462.98368	27781.28571
467.08789	27432.28571
471.18916	26943.14286
475.2875	26561.42857
479.38291	26182.71429
483.4754	25882.42857
487.56496	25728.57143
491.6516	25629
495.73531	25522.85714
499.81612	25449.85714
503.89401	25639.42857
507.96899	25832.71429
512.04106	25957.85714
516.11023	26137
520.1765	26267.28571
524.23987	26291.71429
528.30034	26209.28571
532.35792	26108
536.41261	25985.28571
540.46441	25806.28571
544.51333	25617.57143
548.55936	25685.85714
552.60252	25924.42857
556.64279	26176.28571
560.6802	26411.85714
564.71473	26577.85714
568.7464	26895.28571
572.7752	27109.14286
576.80114	26927.85714
580.82422	26760.28571
584.84444	26829.85714
588.86181	27284.42857
592.87633	27895.28571
596.888	28358.85714
600.89682	28573.42857
604.9028	29578.42857
608.90594	32972.14286
612.90624	37252.71429
616.90371	36198.57143
620.89834	30167.14286
624.89015	27140.71429
628.87913	26698
632.86528	26716.14286
636.84862	26773
640.82913	26572.57143
644.80683	26061.42857
648.78172	25638.28571
652.75379	25525.57143
656.72306	26008.14286
660.68952	26531.28571
664.65319	26478.42857
668.61405	26033
672.57211	25913.71429
676.52738	26063.42857
680.47986	26148.57143
684.42955	26041.14286
688.37646	25816.71429
692.32058	25761.71429
696.26192	25849.42857
700.20048	26047.28571
704.13626	26183.71429
708.06928	26089
711.99952	25810.14286
715.927	25711.28571
719.85171	25686.85714
723.77365	25740.57143
727.69284	25715.71429
731.60928	25678.28571
735.52295	25623.71429
739.43388	25660.28571
743.34206	25710.71429
747.24749	25748
751.15017	25798.85714
755.05012	25934.28571
758.94733	26443.57143
762.8418	27573.28571
766.73354	29665.57143
770.62254	31878.71429
774.50882	33072.57143
778.39237	32278.57143
782.27321	30007.85714
786.15132	27730
790.02671	26281.14286
793.89938	25632
797.76935	25330.71429
801.6366	25266.57143
805.50115	25233.85714
809.36299	25168.71429
813.22213	24998.71429
817.07857	24961.14286
820.93231	24922.71429
824.78336	24886.28571
828.63172	24927.14286
832.47738	24933.42857
836.32036	24997.85714
840.16066	25017
843.99827	24973.85714
847.8332	24960.42857
851.66546	24951
855.49504	24986
859.32195	25067.14286
863.1462	25107.85714
866.96777	25115.85714
870.78668	25064.57143
874.60293	25089.42857
878.41652	25092.85714
882.22745	25084.28571
886.03573	25166.28571
889.84136	25140.42857
893.64433	25036.57143
897.44466	24956.42857
901.24235	24821.57143
905.0374	24767
908.8298	24608.57143
912.61957	24549.57143
916.40671	24595.57143
920.19121	24745.57143
923.97308	24920.71429
927.75233	25128.71429
931.52895	25212.42857
935.30295	25126.71429
939.07433	24865
942.84309	24564
946.60924	24360.42857
950.37278	24236.57143
954.13371	24087.85714
957.89203	23956.71429
961.64774	23897.71429
965.40086	23800.57143
969.15137	23762.57143
972.89929	23673.71429
976.64461	23642.28571
980.38733	23651.42857
984.12747	23757.28571
987.86502	23865.28571
991.59999	24103
995.33237	24425.14286
999.06217	24845.71429
1002.78939	25353.42857
1006.51404	25713.71429
1010.23611	25915.14286
1013.95561	26130.42857
1017.67255	26151.14286
1021.38692	26027.28571
1025.09872	25867.42857
1028.80796	25894.71429
1032.51465	26264.28571
1036.21877	26592.85714
1039.92035	26664.85714
1043.61937	26516.14286
1047.31584	26128.71429
1051.00976	25696.71429
1054.70114	25466.28571
1058.38998	25279.57143
1062.07627	25293.42857
1065.76003	25361.42857
1069.44126	25327.57143
1073.11995	25383.14286
1076.79611	25538.28571
1080.46974	25775.28571
1084.14085	26023.57143
1087.80943	26277.85714
1091.47549	26419.42857
1095.13903	26281.71429
1098.80005	25950.28571
1102.45857	25623.71429
1106.11456	25599.14286
1109.76805	25696
1113.41903	26002.28571
1117.06751	26367.57143
1120.71348	26844.28571
1124.35696	27248.28571
1127.99793	27683.28571
1131.63641	27751
1135.2724	27337.14286
1138.90589	26768.57143
1142.5369	26407.71429
1146.16542	26147.85714
1149.79145	25912.71429
1153.415	25895.85714
1157.03607	26020.42857
1160.65467	26321.14286
1164.27079	26875.85714
1167.88443	27738.57143
1171.49561	28951.14286
1175.10432	30631.71429
1178.71056	32880.42857
1182.31434	35155.71429
1185.91565	36255.57143
1189.51451	35746.85714
1193.11091	34389.28571
1196.70485	32889.85714
1200.29634	31688.57143
1203.88538	30845.42857
1207.47197	29844.85714
1211.05612	29066.28571
1214.63782	28540.42857
1218.21708	28356
1221.79391	28471.28571
1225.36829	28531.71429
1228.94024	28438.71429
1232.50976	28085.14286
1236.07685	27749.71429
1239.6415	27631.28571
1243.20374	27672.71429
1246.76355	27813.85714
1250.32093	28090.14286
1253.8759	28522.14286
1257.42845	29076
1260.97859	29561.14286
1264.52631	30072.42857
1268.07163	30558.57143
1271.61453	31155.28571
1275.15503	31779.42857
1278.69312	32267.28571
1282.22882	32684.57143
1285.76211	33129.42857
1289.29301	33731.71429
1292.82151	34478.42857
1296.34761	35373.85714
1299.87133	36813.85714
1303.39266	38853.71429
1306.9116	41599
1310.42815	44506.14286
1313.94233	46100.57143
1317.45412	45301
1320.96354	43248.85714
1324.47058	41067.57143
1327.97525	39194.28571
1331.47754	37990.42857
1334.97747	37531.28571
1338.47502	37705.85714
1341.97022	38334.28571
1345.46305	39078.57143
1348.95352	40009.57143
1352.44163	41379.14286
1355.92738	43542.14286
1359.41078	46902.14286
1362.89183	49919
1366.37053	49041
1369.84688	43766.71429
1373.32088	38236.14286
1376.79254	34822.14286
1380.26186	33140.57143
1383.72883	32207.57143
1387.19347	31694.42857
1390.65578	31078.57143
1394.11575	30660.42857
1397.57339	30610.14286
1401.0287	30960.85714
1404.48168	31380.57143
1407.93234	31714.14286
1411.38068	31932
1414.82669	32039.42857
1418.27039	31715.85714
1421.71177	31152.42857
1425.15083	30532
1428.58758	30241.85714
1432.02203	30212
1435.45416	30543.14286
1438.88399	30837.71429
1442.31151	30966.57143
1445.73673	31089
1449.15965	31285.28571
1452.58027	31239.85714
1455.9986	31134
1459.41463	31013.14286
1462.82837	31258.14286
1466.23982	31731
1469.64898	32367.57143
1473.05586	32862.71429
1476.46045	33127.57143
1479.86276	33334.14286
1483.26279	33411.28571
1486.66054	33520.71429
1490.05602	33898
1493.44922	34342.14286
1496.84016	35015.71429
1500.22882	36129
1503.61521	38128.57143
1506.99934	40653.85714
1510.38121	42710.57143
1513.76081	42999.28571
1517.13816	41023.57143
1520.51324	37989
1523.88607	35289.57143
1527.25665	33538.14286
1530.62498	32669
1533.99105	32222.85714
1537.35488	32053.14286
1540.71647	31911.57143
1544.07581	31797.71429
1547.4329	31672.71429
1550.78776	31573
1554.14038	31387.42857
1557.49077	31396.14286
1560.83892	31476.71429
1564.18484	31664.42857
1567.52853	31935.57143
1570.86999	32211
1574.20922	32412.42857
1577.54624	32366.85714
1580.88103	31795.57143
1584.2136	31041
1587.54395	30769
1590.87208	31467
1594.19801	32964.71429
1597.52172	34955.71429
1600.84321	36049.85714
1604.16251	35544
1607.47959	33942.57143
1610.79447	31891.14286
1614.10715	29896
1617.41763	28382.71429
1620.7259	27328.85714
1624.03199	26763.42857
1627.33587	26634
1630.63757	27096
1633.93707	28018.14286
1637.23439	29510.71429
1640.52951	31605.42857
1643.82246	34304
1647.11321	36848
1650.40179	38012.85714
1653.68819	36482.85714
1656.97241	32915.14286
1660.25446	29327.28571
1663.53433	26763.28571
1666.81203	25219.85714
1670.08756	24284
1673.36092	23651.57143
1676.63211	23260.85714
1679.90115	22962.42857
1683.16801	22727.14286
1686.43272	22504.57143
1689.69527	22370.85714
1692.95567	22254.85714
1696.2139	22176
1699.46999	22125
1702.72392	22045.57143
1705.97571	22018.28571
1709.22535	21999.14286
1712.47284	21963.28571
1715.71819	21950.14286
1718.96139	21837.14286
1722.20246	21782.28571
1725.44139	21722
1728.67818	21670.14286
1731.91284	21572
1735.14537	21521.42857
1738.37576	21461.14286
1741.60403	21407.42857
1744.83017	21322.71429
1748.05418	21342.71429
1751.27607	21323.71429
1754.49584	21249.57143
1757.71349	21257
1760.92903	21213.71429
1764.14244	21177.57143
1767.35375	21104.71429
1770.56294	21056.28571
1773.77002	20996.57143
1776.97499	21012
1780.17785	20947.28571
1783.37861	20906.57143
1786.57727	20819
1789.77382	20788.42857
1792.96828	20778.28571
1796.16064	20734.71429
1799.3509	20666.85714
1802.53907	20641.42857
1805.72514	20598.42857
1808.90913	20525.57143
1812.09102	20499.85714
1815.27083	20486.14286
1818.44856	20471.71429
1821.6242	20433.57143
1824.79776	20426.57143
1827.96924	20396.57143
1831.13864	20364.42857
1834.30597	20318.42857
1837.47122	20284.85714
1840.6344	20323.57143
1843.7955	20309.42857
1846.95454	20284.71429
1850.11151	20251.42857
1853.26642	20229.28571
1856.41926	20265
1859.57004	20227.42857
1862.71876	20213.85714
1865.86542	20236.85714
1869.01003	20197.42857
1872.15258	20212.71429
1875.29308	20168.57143
1878.43152	20189.85714
1881.56792	20179
1884.70227	20144.71429
1887.83457	20137.71429
1890.96482	20055.71429
1894.09304	20089.42857
1897.21921	20064.85714
1900.34335	20053.28571
1903.46544	20029
1906.58551	20020.14286
1909.70353	19980.42857
1912.81953	19962.85714
1915.93349	19920.85714
1919.04543	19937.42857
1922.15534	19894.85714
1925.26322	19825.42857
1928.36908	19791.85714
1931.47292	19795.42857
1934.57473	19778.57143
1937.67453	19692.57143
1940.77232	19682.28571
1943.86808	19652.57143
1946.96184	19551.14286
1950.05358	19504.85714
1953.14331	19480.42857
1956.23103	19407
1959.31675	19366.28571
1962.40046	19310.85714
1965.48217	19247
1968.56188	19193.57143
1971.63959	19185.85714
1974.7153	19134.71429
1977.78901	19099.71429
1980.86073	19000.85714
1983.93046	18918.28571
1986.99819	18858
1990.06394	18839.85714
1993.1277	18813.71429
1996.18947	18710.57143
1999.24925	18696.28571
2002.30706	18602
2005.36288	18546
2008.41672	18492
2011.46859	18472.71429
2014.51848	18419.14286
2017.56639	18320.14286
2020.61233	18305.28571
2023.6563	18252
2026.6983	18230.28571
2029.73833	18170
2032.7764	18204.57143
2035.8125	18091.71429
2038.84664	18101.14286
2041.87881	18082
2044.90903	18029.14286
2047.93729	17998.14286
2050.96359	17974.71429
2053.98794	17981.71429
2057.01034	17957.42857
2060.03078	17904.85714
2063.04927	17934.28571
2066.06582	17951.28571
2069.08042	17906.42857
2072.09307	17891.42857
2075.10378	17878
2078.11255	17869.42857
2081.11938	17865.57143
2084.12426	17840.42857
2087.12722	17854.57143
2090.12824	17819.28571
2093.12732	17842.57143
2096.12447	17844.14286
2099.11969	17815.71429
2102.11299	17825
2105.10435	17769.85714
2108.09379	17820.14286
2111.08131	17854.85714
2114.0669	17857.42857
2117.05057	17868
2120.03233	17896.57143
2123.01216	17948.42857
2125.99008	17911.14286
2128.96609	17957.28571
2131.94018	18002.28571
2134.91236	17956.42857
2137.88263	17981.85714
2140.851	17997.85714
2143.81746	18017.42857
2146.78201	17964.28571
2149.74466	17998.14286
2152.7054	18021.28571
2155.66425	17991
2158.6212	17986.57143
2161.57625	17946.57143
2164.52941	17968.85714
2167.48067	17984.57143
2170.43004	17952.71429
2173.37752	17944.71429
2176.32311	17961.42857
2179.26681	17989.57143
2182.20863	17947.42857
2185.14856	17995.14286
2188.08661	17966.57143
2191.02278	17963.28571
2193.95707	17947
2196.88948	17967.28571
2199.82001	17931.14286
2202.74867	17936.85714
2205.67545	17933.85714
2208.60037	17919.14286
2211.52341	17870.42857
2214.44458	17829.28571
2217.36388	17822.28571
2220.28132	17827.42857
2223.1969	17766.71429
2226.11061	17734.14286
2229.02246	17705.14286
2231.93245	17668.14286
2234.84058	17598.85714
2237.74686	17596.14286
2240.65128	17580.71429
2243.55385	17621.71429
2246.45456	17573.85714
2249.35343	17544.14286
2252.25044	17515.42857
2255.14561	17497.14286
2258.03893	17481.28571
2260.93041	17454.42857
2263.82004	17401.71429
2266.70783	17379.85714
2269.59378	17317.71429
2272.4779	17269.42857
2275.36017	17265.57143
2278.24061	17227.85714
2281.11922	17201.71429
2283.996	17167.71429
2286.87094	17144.28571
2289.74405	17124.57143
2292.61534	17069.85714
2295.4848	17086.57143
2298.35243	17127.85714
2301.21824	17108.71429
2304.08223	17076.14286
2306.94439	17039.85714
2309.80474	17072.71429
2312.66327	17064.57143
2315.51999	17073.71429
2318.37489	17051.71429
2321.22797	17016.57143
2324.07925	17005.42857
2326.92871	16977.71429
2329.77637	16941.42857
2332.62222	16952.85714
2335.46626	16881.71429
2338.3085	16931.28571
2341.14893	16916.14286
2343.98756	16950.14286
2346.8244	16935.57143
2349.65943	16930.57143
2352.49267	16883
2355.32411	16906.71429
2358.15376	16877.42857
2360.98161	16899.42857
2363.80768	16879
2366.63195	16868.71429
2369.45444	16823.71429
2372.27514	16769.42857
2375.09405	16737.14286
2377.91118	16715.28571
2380.72652	16694
2383.54009	16605.42857
2386.35187	16629
2389.16188	16573.14286
2391.97011	16523.71429
2394.77657	16560.85714
2397.58125	16492.14286
2400.38416	16501.42857
2403.18529	16476.57143
2405.98466	16439.71429
2408.78226	16368.71429
2411.57809	16347.42857
2414.37216	16333.28571
2417.16446	16334.42857
2419.955	16288.14286
2422.74378	16280.71429
2425.5308	16272.14286
2428.31606	16323.85714
2431.09956	16258.14286
2433.88131	16245.28571
2436.6613	16250.28571
2439.43954	16269.14286
2442.21603	16219.42857
2444.99077	16191.57143
2447.76377	16207.28571
2450.53501	16208
2453.30451	16201.14286
2456.07226	16161.42857
2458.83827	16172.14286
2461.60254	16153.42857
2464.36507	16117.85714
2467.12586	16112.14286
2469.88492	16100.14286
2472.64224	16076
2475.39782	16065.28571
2478.15167	16094
2480.90379	16096.71429
2483.65417	16133
2486.40283	16151.28571
2489.14976	16123.85714
2491.89497	16134.71429
2494.63845	16163.28571
2497.3802	16148.85714
2500.12024	16127.42857
2502.85855	16092.85714
2505.59514	16088.71429
2508.33002	16030.42857
2511.06318	16028.42857
2513.79462	16015.71429
2516.52435	16003.28571
2519.25237	15942.14286
2521.97867	15923
2524.70327	15921.85714
2527.42616	15886.57143
2530.14734	15890.42857
2532.86681	15867.85714
2535.58458	15850.71429
2538.30065	15844.71429
2541.01501	15854.57143
2543.72768	15799.71429
2546.43864	15806.85714
2549.14791	15782
2551.85548	15772.71429
2554.56136	15775.71429
2557.26554	15728.57143
2559.96803	15694
2562.66883	15671.85714
2565.36794	15629.85714
2568.06536	15626.57143
2570.7611	15591.57143
2573.45514	15586.28571
2576.14751	15587.57143
2578.83819	15541.28571
2581.52719	15526.42857
2584.21451	15534.42857
2586.90015	15541
2589.58411	15480.85714
2592.2664	15495.71429
2594.94701	15447.42857
2597.62594	15458.85714
2600.30321	15414.85714
2602.9788	15428.42857
2605.65273	15396.71429
2608.32498	15402.14286
2610.99557	15375.85714
2613.66449	15380.28571
2616.33175	15367.42857
2618.99734	15369
2621.66128	15348
2624.32355	15328.71429
2626.98416	15314.85714
2629.64311	15319
2632.30041	15320.71429
2634.95605	15281
2637.61004	15279
2640.26238	15208.57143
2642.91306	15244.57143
2645.56209	15221.71429
2648.20948	15255
2650.85521	15202.71429
2653.4993	15196.85714
2656.14175	15203
2658.78255	15211.85714
2661.42171	15221.14286
2664.05923	15218.28571
2666.6951	15237.28571
2669.32934	15251.57143
2671.96194	15234
2674.59291	15263.71429
2677.22224	15204.71429
2679.84993	15232.28571
2682.476	15203.42857
2685.10043	15191.85714
2687.72324	15226
2690.34441	15193.85714
2692.96396	15174.14286
2695.58188	15193.14286
2698.19818	15159.85714
2700.81285	15156
2703.4259	15186.14286
2706.03733	15155.42857
2708.64714	15173
2711.25533	15226.85714
2713.86191	15174.28571
2716.46687	15186.85714
2719.07021	15193.28571
2721.67194	15210
2724.27206	15213.85714
2726.87057	15195.42857
2729.46747	15196.57143
2732.06276	15176.57143
2734.65644	15211.57143
2737.24852	15181
2739.83899	15178.57143
2742.42786	15178.71429
2745.01513	15151
2747.60079	15115.42857
2750.18486	15074.85714
2752.76733	15082.14286
2755.3482	15084.28571
2757.92747	15100.85714
2760.50515	15097.57143
2763.08123	15064.71429
2765.65573	15035.57143
2768.22863	15005.71429
2770.79994	15021.28571
2773.36967	15029.42857
2775.9378	15026.71429
2778.50435	15009.85714
2781.06932	14984.71429
2783.6327	14977.42857
2786.1945	14976.57143
2788.75471	14944.85714
2791.31335	14908.14286
2793.87041	14887.85714
2796.42589	14895.42857
2798.97979	14904.71429
2801.53212	14827.57143
2804.08288	14834.42857
2806.63206	14759.85714
2809.17967	14788.42857
2811.72571	14763.28571
2814.27018	14744.71429
2816.81308	14707.42857
2819.35442	14706.14286
2821.89419	14686.57143
2824.43239	14655.14286
2826.96904	14666.14286
2829.50412	14640.57143
2832.03763	14588.14286
2834.56959	14647.57143
2837.1	14608.28571
2839.62884	14560.42857
2842.15613	14580.28571
2844.68186	14563.57143
2847.20604	14608.85714
2849.72867	14554.28571
2852.24974	14574.71429
2854.76927	14534.71429
2857.28724	14523.57143
2859.80367	14487.14286
2862.31855	14460.42857
2864.83189	14449
2867.34368	14445.42857
2869.85393	14460
2872.36264	14446.85714
2874.8698	14448.71429
2877.37543	14423.85714
2879.87952	14453
2882.38207	14482
2884.88308	14424.28571
2887.38256	14478.42857
2889.88051	14473.14286
2892.37692	14506.28571
2894.8718	14501.85714
2897.36515	14535.71429
2899.85698	14536.14286
2902.34727	14576.85714
2904.83604	14584.71429
2907.32328	14612.14286
2909.809	14634.42857
2912.29319	14626.85714
2914.77587	14647.42857
2917.25702	14625.85714
2919.73665	14618.57143
2922.21476	14650.14286
2924.69136	14631.71429
2927.16644	14673
2929.64	14614.14286
2932.11205	14599.14286
2934.58258	14545.57143
2937.05161	14562.14286
2939.51912	14585.28571
2941.98513	14570.71429
2944.44962	14527.71429
2946.91261	14470
2949.37409	14545.14286
2951.83407	14508.85714
2954.29254	14478.42857
2956.74951	14429.42857
2959.20498	14479.57143
2961.65895	14429
2964.11142	14444.14286
2966.56239	14372.85714
2969.01186	14354.71429
2971.45984	14322.71429
2973.90632	14285
2976.35131	14273.71429
2978.7948	14271
2981.23681	14224.57143
2983.67732	14167.28571
2986.11635	14125
2988.55388	14126.71429
2990.98993	14096.42857
2993.4245	14076
2995.85758	14063.42857
2998.28917	14082
3000.71928	14041.14286
3003.14791	14002.85714
3005.57506	13988.14286
3008.00073	13966.57143
3010.42493	13932.85714
3012.84764	13923.57143
3015.26888	13944.42857
3017.68865	13865
3020.10694	13882.57143
3022.52376	13844.57143
3024.9391	13777
3027.35298	13758.85714
3029.76539	13792
3032.17632	13787.14286
3034.5858	13732.14286
3036.9938	13736.14286
3039.40034	13734.71429
3041.80542	13672.85714
3044.20903	13699.14286
3046.61118	13685.14286
3049.01187	13677.57143
3051.4111	13652.71429
3053.80888	13606.28571
3056.20519	13590.14286
3058.60005	13554.42857
3060.99345	13543.71429
3063.3854	13508.57143
3065.7759	13457.71429
3068.16494	13467.14286
3070.55254	13383.85714
3072.93868	13347.14286
3075.32338	13335
3077.70662	13329.14286
3080.08842	13286
3082.46878	13288.71429
3084.84769	13293.42857
3087.22515	13280
3089.60118	13282.28571
3091.97576	13285.57143
3094.3489	13298
3096.72061	13296.42857
3099.09087	13289.85714
3101.4597	13289.14286
3103.82709	13287.14286
3106.19305	13294.85714
3108.55757	13270.85714
3110.92066	13248.71429
3113.28232	13251.57143
3115.64255	13209
3118.00134	13132.71429
3120.35871	13167.42857
3122.71466	13168.57143
3125.06917	13144.28571
3127.42226	13079
3129.77393	13141.14286
3132.12417	13107.85714
3134.47299	13114.71429
3136.82039	13089.71429
3139.16636	13096.14286
3141.51092	13113.14286
3143.85406	13113.85714
3146.19579	13090.85714
3148.53609	13132.14286
3150.87499	13085.42857
3153.21246	13111.42857
3155.54853	13158.28571
3157.88318	13146.28571
3160.21642	13124.42857
3162.54826	13157.57143
3164.87868	13154.14286
3167.2077	13155.28571
3169.5353	13167.42857
3171.86151	13180.28571
3174.18631	13154
3176.5097	13120.71429
3178.83169	13146.14286
3181.15228	13144.28571
3183.47147	13124.14286
3185.78926	13075.28571
3188.10565	13064.71429
3190.42065	13086.71429
3192.73424	13072.85714
3195.04645	13048.57143
3197.35725	13081.85714
3199.66667	13066.57143
3201.97469	13075.71429
3204.28132	13060.85714
3206.58656	13075.42857
3208.8904	13107.71429
3211.19287	13129.14286
3213.49394	13150.42857
3215.79363	13167
3218.09193	13169.57143
3220.38884	13140.14286
3222.68438	13150.71429
3224.97853	13151.71429
3227.2713	13161.14286
3229.56269	13125.85714
3231.8527	13168.42857
3234.14133	13111.85714
3236.42858	13074.71429
3238.71446	13094.14286
3240.99896	13052.14286
3243.28209	13036
3245.56384	12995.28571
3247.84423	13010.71429
3250.12324	13009.14286
3252.40088	13032.28571
3254.67715	12987.85714
3256.95205	12996.85714
3259.22558	12989.71429
3261.49775	12970.85714
3263.76855	12972.14286
3266.03799	12925.28571
3268.30606	12993.28571
3270.57277	12920.42857
3272.83812	12913.57143
3275.10211	12899.85714
3277.36474	12829.85714
3279.62601	12886.42857
3281.88593	12836.85714
3284.14448	12862.42857
3286.40168	12837.71429
3288.65753	12821
3290.91202	12832.85714
3293.16516	12782.42857
3295.41695	12801.14286
3297.66738	12719.14286
3299.91647	12671.71429
3302.16421	12601.57143
3304.4106	12526
3306.65564	12449.71429
3308.89933	12376.85714
3311.14169	12298.42857
3313.38269	12201.85714
3315.62236	12138.85714
3317.86068	12032.85714
3320.09766	11957.28571
3322.3333	11895.28571
3324.5676	11820.28571
3326.80056	11684.42857
3329.03219	11589.42857
3331.26248	2.71429
3333.49143	-0.28571
3335.71905	-0.42857
