Data from AgNPs_FTO_APTES_UA_20uM_CRN_200uM_R6G_10uM_NaF_0.1M_Addition_RamanShift__22__18-18-04-934.txt Node

Date: Thu Feb 17 18:18:04 GMT 2022
User: TCL
Spectrometer: QEP01345
Trigger mode: 4
Integration Time (sec): 1.000000E1
Scans to average: 7
Electric dark correction enabled: true
Nonlinearity correction enabled: false
Boxcar width: 0
XAxis mode: Raman Shifts
Number of Pixels in Spectrum: 1044
>>>>>Begin Spectral Data<<<<<
46.04893	0.33929
50.45542	-1.08929
54.85868	-0.375
59.25871	-0.94643
63.6555	86.05357
68.04907	83.91071
72.43941	92.19643
76.82654	92.625
81.21044	97.19643
85.59113	99.76786
89.96862	105.625
94.34289	102.91071
98.71396	111.76786
103.08183	112.48214
107.4465	121.76786
111.80798	115.33929
116.16626	119.48214
120.52136	126.625
124.87327	133.48214
129.222	135.19643
133.56755	142.19643
137.90993	160.05357
142.24913	169.33929
146.58517	186.625
150.91804	214.625
155.24774	256.91071
159.57429	314.76786
163.89768	411.625
168.21792	539.76786
172.53501	744.48214
176.84895	1020.19643
181.15975	1457.33929
185.46741	2053.625
189.77193	2835.05357
194.07331	3830.625
198.37157	4991.625
202.6667	6163.625
206.9587	7389.48214
211.24758	8594.19643
215.53334	9763.19643
219.81599	11048.19643
224.09553	12394.48214
228.37195	13951.19643
232.64527	15683.33929
236.91549	17452.76786
241.18261	19222.625
245.44663	20861.625
249.70755	22349.33929
253.96539	23606.48214
258.22014	24670.05357
262.4718	25540.625
266.72039	26151.91071
270.96589	26395.48214
275.20832	26388.76786
279.44768	26081.91071
283.68397	25725.33929
287.91719	25366.19643
292.14735	25124.76786
296.37445	25091.91071
300.59849	25274.91071
304.81948	25588.19643
309.03742	25739.625
313.25231	25626.91071
317.46415	25190.625
321.67296	24555.48214
325.87872	24057.05357
330.08145	23801.19643
334.28114	23913.625
338.47781	24152.33929
342.67145	24518.33929
346.86207	24991.625
351.04966	25635.76786
355.23424	26372.05357
359.4158	27007.76786
363.59435	27507.05357
367.76989	27791.33929
371.94243	28026.625
376.11196	28180.33929
380.27849	28282.48214
384.44203	28384.76786
388.60257	28371.625
392.76012	28446.19643
396.91468	28649.19643
401.06626	28989.05357
405.21485	29327.91071
409.36047	29313.19643
413.50311	28822.91071
417.64277	28345.33929
421.77947	28168.625
425.9132	28031.76786
430.04396	28143.91071
434.17176	28407.91071
438.2966	28737.76786
442.41849	29258.91071
446.53742	29960.33929
450.6534	30601.48214
454.76644	31189.33929
458.87653	31408.19643
462.98368	31213.19643
467.08789	30909.625
471.18916	30412.76786
475.2875	29968.76786
479.38291	29657.625
483.4754	29378.76786
487.56496	29104.91071
491.6516	28977.76786
495.73531	28899.33929
499.81612	28879.05357
503.89401	29005.05357
507.96899	29191.05357
512.04106	29385.33929
516.11023	29521.625
520.1765	29575.05357
524.23987	29646.91071
528.30034	29602.48214
532.35792	29531.05357
536.41261	29355.48214
540.46441	29094.48214
544.51333	28965.76786
548.55936	29007.91071
552.60252	29250.05357
556.64279	29589.05357
560.6802	29756.91071
564.71473	29922.91071
568.7464	30164.91071
572.7752	30459.19643
576.80114	30356.625
580.82422	30249.33929
584.84444	30387.625
588.86181	30855.19643
592.87633	31533.91071
596.888	31954.19643
600.89682	32149.05357
604.9028	33172.05357
608.90594	36408.625
612.90624	40486.05357
616.90371	39317.33929
620.89834	33445.91071
624.89015	30618.19643
628.87913	30206.19643
632.86528	30227.19643
636.84862	30248.33929
640.82913	30058.48214
644.80683	29462.91071
648.78172	29012.76786
652.75379	29042.33929
656.72306	29417.48214
660.68952	29953.48214
664.65319	29859.19643
668.61405	29440.48214
672.57211	29397.76786
676.52738	29544.48214
680.47986	29549.48214
684.42955	29516.625
688.37646	29321.76786
692.32058	29341.05357
696.26192	29383.33929
700.20048	29631.19643
704.13626	29695.91071
708.06928	29630.91071
711.99952	29371.76786
715.927	29326.48214
719.85171	29345.48214
723.77365	29377.33929
727.69284	29276.19643
731.60928	29194.48214
735.52295	29192.76786
739.43388	29263.05357
743.34206	29319.19643
747.24749	29427.33929
751.15017	29451.33929
755.05012	29631.625
758.94733	30063.76786
762.8418	31225.76786
766.73354	33197.76786
770.62254	35387.48214
774.50882	36522.91071
778.39237	35744.625
782.27321	33470.91071
786.15132	31294.76786
790.02671	29950.19643
793.89938	29230.76786
797.76935	28972.625
801.6366	28944.05357
805.50115	28891.76786
809.36299	28747.05357
813.22213	28671.33929
817.07857	28613.76786
820.93231	28550.05357
824.78336	28514.76786
828.63172	28577.48214
832.47738	28601.48214
836.32036	28696.48214
840.16066	28679.625
843.99827	28789.19643
847.8332	28792.05357
851.66546	28759.76786
855.49504	28776.625
859.32195	28843.48214
863.1462	28820.19643
866.96777	28816.48214
870.78668	28792.33929
874.60293	28799.19643
878.41652	28797.19643
882.22745	28877.19643
886.03573	28902.19643
889.84136	28904.05357
893.64433	28746.48214
897.44466	28658.91071
901.24235	28632.19643
905.0374	28491.33929
908.8298	28341.76786
912.61957	28263.19643
916.40671	28345.76786
920.19121	28522.625
923.97308	28736.05357
927.75233	28955.76786
931.52895	29018.91071
935.30295	28892.19643
939.07433	28610.48214
942.84309	28318.76786
946.60924	28103.76786
950.37278	27993.625
954.13371	27832.76786
957.89203	27742.625
961.64774	27650.91071
965.40086	27543.625
969.15137	27494.76786
972.89929	27393.91071
976.64461	27330.76786
980.38733	27414.48214
984.12747	27510.48214
987.86502	27654.05357
991.59999	27948.19643
995.33237	28269.91071
999.06217	28872.625
1002.78939	29464.33929
1006.51404	29872.76786
1010.23611	30062.05357
1013.95561	30242.76786
1017.67255	30323.19643
1021.38692	30154.91071
1025.09872	29991.625
1028.80796	30100.19643
1032.51465	30629.05357
1036.21877	31139.91071
1039.92035	31200.05357
1043.61937	30970.76786
1047.31584	30466.91071
1051.00976	29872.91071
1054.70114	29508.625
1058.38998	29364.76786
1062.07627	29327.76786
1065.76003	29384.48214
1069.44126	29366.91071
1073.11995	29418.33929
1076.79611	29607.91071
1080.46974	29809.33929
1084.14085	30078.48214
1087.80943	30285.05357
1091.47549	30448.48214
1095.13903	30257.05357
1098.80005	29969.48214
1102.45857	29688.05357
1106.11456	29616.91071
1109.76805	29719.19643
1113.41903	29987.48214
1117.06751	30309.48214
1120.71348	30771.76786
1124.35696	31150.76786
1127.99793	31504.48214
1131.63641	31640.33929
1135.2724	31219.76786
1138.90589	30731.76786
1142.5369	30381.19643
1146.16542	30150.19643
1149.79145	29880.33929
1153.415	29855.91071
1157.03607	29995.48214
1160.65467	30343.48214
1164.27079	30972.33929
1167.88443	31884.19643
1171.49561	33186.91071
1175.10432	34946.76786
1178.71056	37367.33929
1182.31434	39681.76786
1185.91565	40844.48214
1189.51451	40481.05357
1193.11091	39088.48214
1196.70485	37448.33929
1200.29634	36169.76786
1203.88538	35196.625
1207.47197	34238.76786
1211.05612	33374.05357
1214.63782	32875.05357
1218.21708	32710.48214
1221.79391	32881.05357
1225.36829	33023.76786
1228.94024	32881.625
1232.50976	32501.625
1236.07685	32108.76786
1239.6415	31987.91071
1243.20374	32028.33929
1246.76355	32193.48214
1250.32093	32480.91071
1253.8759	32953.76786
1257.42845	33564.625
1260.97859	34124.19643
1264.52631	34683.48214
1268.07163	35228.625
1271.61453	35892.625
1275.15503	36669.05357
1278.69312	37328.76786
1282.22882	37800.19643
1285.76211	38255.48214
1289.29301	38834.76786
1292.82151	39556.48214
1296.34761	40553.05357
1299.87133	42092.91071
1303.39266	44303.19643
1306.9116	47097.625
1310.42815	50133.76786
1313.94233	51722.625
1317.45412	51124.33929
1320.96354	48999.05357
1324.47058	46785.19643
1327.97525	44911.33929
1331.47754	43688.19643
1334.97747	43205.33929
1338.47502	43381.19643
1341.97022	43900.19643
1345.46305	44545.76786
1348.95352	45355.625
1352.44163	46628.625
1355.92738	48581.91071
1359.41078	51810.05357
1362.89183	54813.76786
1366.37053	53628.76786
1369.84688	48430.05357
1373.32088	43001.91071
1376.79254	39513.625
1380.26186	37692.33929
1383.72883	36867.33929
1387.19347	36314.05357
1390.65578	35762.48214
1394.11575	35285.48214
1397.57339	35285.625
1401.0287	35675.625
1404.48168	36150.76786
1407.93234	36575.05357
1411.38068	36939.91071
1414.82669	36973.625
1418.27039	36585.625
1421.71177	35929.48214
1425.15083	35242.91071
1428.58758	34792.19643
1432.02203	34824.91071
1435.45416	35086.33929
1438.88399	35465.19643
1442.31151	35669.33929
1445.73673	35892.19643
1449.15965	36039.05357
1452.58027	36079.625
1455.9986	35899.76786
1459.41463	35816.625
1462.82837	36059.76786
1466.23982	36613.625
1469.64898	37296.48214
1473.05586	37832.05357
1476.46045	38154.48214
1479.86276	38382.76786
1483.26279	38490.19643
1486.66054	38562.48214
1490.05602	38837.05357
1493.44922	39323.91071
1496.84016	39834.91071
1500.22882	40890.19643
1503.61521	42568.05357
1506.99934	44804.625
1510.38121	46692.625
1513.76081	47026.76786
1517.13816	45299.05357
1520.51324	42403.76786
1523.88607	39926.48214
1527.25665	38288.33929
1530.62498	37444.05357
1533.99105	37055.05357
1537.35488	36793.19643
1540.71647	36764.625
1544.07581	36585.91071
1547.4329	36481.05357
1550.78776	36319.91071
1554.14038	36163.76786
1557.49077	36105.33929
1560.83892	36152.625
1564.18484	36225.05357
1567.52853	36475.91071
1570.86999	36650.05357
1574.20922	36853.33929
1577.54624	36861.625
1580.88103	36336.19643
1584.2136	35722.76786
1587.54395	35741.91071
1590.87208	36617.19643
1594.19801	38351.76786
1597.52172	40640.625
1600.84321	41866.48214
1604.16251	41159.91071
1607.47959	39194.91071
1610.79447	36824.48214
1614.10715	34657.91071
1617.41763	32919.625
1620.7259	31731.05357
1624.03199	31128.76786
1627.33587	31088.19643
1630.63757	31504.33929
1633.93707	32599.76786
1637.23439	34226.91071
1640.52951	36469.76786
1643.82246	39260.76786
1647.11321	41723.19643
1650.40179	42747.19643
1653.68819	41009.91071
1656.97241	37253.76786
1660.25446	33506.91071
1663.53433	30846.19643
1666.81203	29204.19643
1670.08756	28205.625
1673.36092	27541.76786
1676.63211	27125.76786
1679.90115	26845.33929
1683.16801	26525.48214
1686.43272	26329.625
1689.69527	26176.19643
1692.95567	26013.91071
1696.2139	26009.33929
1699.46999	25945.76786
1702.72392	25901.19643
1705.97571	25868.05357
1709.22535	25828.05357
1712.47284	25877.91071
1715.71819	25826.48214
1718.96139	25764.91071
1722.20246	25656.19643
1725.44139	25628.33929
1728.67818	25505.91071
1731.91284	25458.625
1735.14537	25411.05357
1738.37576	25351.05357
1741.60403	25254.625
1744.83017	25188.33929
1748.05418	25146.48214
1751.27607	25182.48214
1754.49584	25118.05357
1757.71349	25079.625
1760.92903	25059.76786
1764.14244	25008.48214
1767.35375	25007.48214
1770.56294	24929.33929
1773.77002	24824.76786
1776.97499	24823.76786
1780.17785	24832.19643
1783.37861	24791.91071
1786.57727	24713.48214
1789.77382	24639.48214
1792.96828	24673.19643
1796.16064	24641.625
1799.3509	24510.48214
1802.53907	24553.05357
1805.72514	24490.48214
1808.90913	24424.625
1812.09102	24413.91071
1815.27083	24364.33929
1818.44856	24327.19643
1821.6242	24347.19643
1824.79776	24348.625
1827.96924	24262.48214
1831.13864	24221.48214
1834.30597	24235.625
1837.47122	24211.05357
1840.6344	24217.48214
1843.7955	24159.33929
1846.95454	24191.48214
1850.11151	24164.91071
1853.26642	24163.625
1856.41926	24171.05357
1859.57004	24112.05357
1862.71876	24078.19643
1865.86542	24147.76786
1869.01003	24101.19643
1872.15258	24088.625
1875.29308	24081.48214
1878.43152	24055.625
1881.56792	24081.05357
1884.70227	24067.76786
1887.83457	24056.76786
1890.96482	24014.625
1894.09304	23994.48214
1897.21921	23975.33929
1900.34335	23958.48214
1903.46544	23917.625
1906.58551	23909.33929
1909.70353	23852.48214
1912.81953	23803.33929
1915.93349	23829.91071
1919.04543	23768.19643
1922.15534	23807.05357
1925.26322	23702.48214
1928.36908	23707.76786
1931.47292	23702.76786
1934.57473	23596.05357
1937.67453	23555.91071
1940.77232	23544.91071
1943.86808	23455.76786
1946.96184	23364.48214
1950.05358	23318.91071
1953.14331	23266.48214
1956.23103	23224.33929
1959.31675	23178.625
1962.40046	23081.33929
1965.48217	23002.625
1968.56188	22984.76786
1971.63959	22874.76786
1974.7153	22845.48214
1977.78901	22785.19643
1980.86073	22702.05357
1983.93046	22635.33929
1986.99819	22589.33929
1990.06394	22521.76786
1993.1277	22481.625
1996.18947	22384.19643
1999.24925	22309.91071
2002.30706	22224.19643
2005.36288	22171.91071
2008.41672	22107.625
2011.46859	22076.91071
2014.51848	22032.19643
2017.56639	21966.91071
2020.61233	21927.05357
2023.6563	21842.05357
2026.6983	21788.76786
2029.73833	21793.05357
2032.7764	21754.625
2035.8125	21756.33929
2038.84664	21691.33929
2041.87881	21674.19643
2044.90903	21643.91071
2047.93729	21563.19643
2050.96359	21564.91071
2053.98794	21505.76786
2057.01034	21541.05357
2060.03078	21497.05357
2063.04927	21482.625
2066.06582	21479.48214
2069.08042	21457.91071
2072.09307	21463.91071
2075.10378	21460.05357
2078.11255	21427.48214
2081.11938	21425.625
2084.12426	21419.48214
2087.12722	21400.48214
2090.12824	21394.48214
2093.12732	21424.33929
2096.12447	21415.76786
2099.11969	21408.19643
2102.11299	21379.91071
2105.10435	21342.05357
2108.09379	21373.91071
2111.08131	21437.625
2114.0669	21432.48214
2117.05057	21488.48214
2120.03233	21497.05357
2123.01216	21538.48214
2125.99008	21549.91071
2128.96609	21576.76786
2131.94018	21590.625
2134.91236	21610.05357
2137.88263	21632.91071
2140.851	21572.625
2143.81746	21625.05357
2146.78201	21636.625
2149.74466	21657.48214
2152.7054	21656.91071
2155.66425	21621.625
2158.6212	21628.91071
2161.57625	21610.625
2164.52941	21611.33929
2167.48067	21598.625
2170.43004	21590.33929
2173.37752	21585.19643
2176.32311	21602.76786
2179.26681	21563.33929
2182.20863	21631.19643
2185.14856	21653.76786
2188.08661	21645.625
2191.02278	21623.91071
2193.95707	21615.33929
2196.88948	21603.05357
2199.82001	21616.76786
2202.74867	21592.05357
2205.67545	21577.91071
2208.60037	21608.625
2211.52341	21538.48214
2214.44458	21535.625
2217.36388	21431.19643
2220.28132	21485.05357
2223.1969	21410.91071
2226.11061	21373.48214
2229.02246	21327.19643
2231.93245	21264.19643
2234.84058	21243.91071
2237.74686	21224.05357
2240.65128	21235.48214
2243.55385	21201.05357
2246.45456	21158.91071
2249.35343	21115.76786
2252.25044	21096.48214
2255.14561	21128.05357
2258.03893	21087.76786
2260.93041	21007.91071
2263.82004	21016.48214
2266.70783	20969.33929
2269.59378	20896.76786
2272.4779	20818.33929
2275.36017	20808.76786
2278.24061	20807.33929
2281.11922	20729.76786
2283.996	20741.91071
2286.87094	20731.19643
2289.74405	20671.76786
2292.61534	20685.76786
2295.4848	20645.48214
2298.35243	20655.05357
2301.21824	20647.48214
2304.08223	20635.33929
2306.94439	20634.76786
2309.80474	20637.48214
2312.66327	20653.33929
2315.51999	20616.19643
2318.37489	20618.48214
2321.22797	20586.48214
2324.07925	20568.48214
2326.92871	20525.19643
2329.77637	20501.48214
2332.62222	20488.76786
2335.46626	20470.48214
2338.3085	20508.76786
2341.14893	20453.33929
2343.98756	20506.625
2346.8244	20472.05357
2349.65943	20453.625
2352.49267	20401.76786
2355.32411	20432.48214
2358.15376	20462.19643
2360.98161	20444.05357
2363.80768	20395.48214
2366.63195	20358.48214
2369.45444	20309.19643
2372.27514	20287.19643
2375.09405	20261.33929
2377.91118	20235.05357
2380.72652	20212.625
2383.54009	20133.19643
2386.35187	20138.05357
2389.16188	20086.33929
2391.97011	20043.48214
2394.77657	20021.19643
2397.58125	19987.19643
2400.38416	19985.91071
2403.18529	19942.33929
2405.98466	19909.625
2408.78226	19841.625
2411.57809	19844.48214
2414.37216	19795.33929
2417.16446	19780.05357
2419.955	19754.625
2422.74378	19716.48214
2425.5308	19703.625
2428.31606	19720.05357
2431.09956	19727.91071
2433.88131	19641.625
2436.6613	19687.91071
2439.43954	19687.76786
2442.21603	19673.33929
2444.99077	19651.48214
2447.76377	19625.625
2450.53501	19586.05357
2453.30451	19631.91071
2456.07226	19582.48214
2458.83827	19567.19643
2461.60254	19562.48214
2464.36507	19536.33929
2467.12586	19491.19643
2469.88492	19471.05357
2472.64224	19517.19643
2475.39782	19503.33929
2478.15167	19510.76786
2480.90379	19528.19643
2483.65417	19581.625
2486.40283	19583.33929
2489.14976	19588.05357
2491.89497	19590.91071
2494.63845	19594.33929
2497.3802	19570.05357
2500.12024	19565.19643
2502.85855	19508.76786
2505.59514	19503.33929
2508.33002	19497.91071
2511.06318	19452.48214
2513.79462	19391.48214
2516.52435	19377.19643
2519.25237	19358.625
2521.97867	19332.19643
2524.70327	19339.19643
2527.42616	19323.91071
2530.14734	19328.91071
2532.86681	19269.19643
2535.58458	19250.625
2538.30065	19255.91071
2541.01501	19255.625
2543.72768	19229.48214
2546.43864	19214.91071
2549.14791	19200.05357
2551.85548	19166.48214
2554.56136	19134.48214
2557.26554	19078.76786
2559.96803	19115.05357
2562.66883	19038.48214
2565.36794	18990.48214
2568.06536	18996.33929
2570.7611	18975.91071
2573.45514	18962.33929
2576.14751	18942.19643
2578.83819	18928.48214
2581.52719	18905.625
2584.21451	18837.625
2586.90015	18882.33929
2589.58411	18853.91071
2592.2664	18853.33929
2594.94701	18810.05357
2597.62594	18765.33929
2600.30321	18725.48214
2602.9788	18730.76786
2605.65273	18712.33929
2608.32498	18718.33929
2610.99557	18716.76786
2613.66449	18763.76786
2616.33175	18742.48214
2618.99734	18707.05357
2621.66128	18668.91071
2624.32355	18691.05357
2626.98416	18669.625
2629.64311	18660.33929
2632.30041	18654.33929
2634.95605	18608.33929
2637.61004	18556.76786
2640.26238	18576.625
2642.91306	18551.48214
2645.56209	18544.33929
2648.20948	18500.48214
2650.85521	18526.33929
2653.4993	18499.76786
2656.14175	18484.05357
2658.78255	18553.76786
2661.42171	18504.76786
2664.05923	18535.76786
2666.6951	18518.19643
2669.32934	18549.19643
2671.96194	18569.625
2674.59291	18570.76786
2677.22224	18545.05357
2679.84993	18541.19643
2682.476	18483.48214
2685.10043	18506.33929
2687.72324	18513.76786
2690.34441	18500.33929
2692.96396	18502.91071
2695.58188	18472.48214
2698.19818	18485.33929
2700.81285	18488.76786
2703.4259	18472.05357
2706.03733	18491.19643
2708.64714	18492.48214
2711.25533	18525.48214
2713.86191	18500.05357
2716.46687	18533.48214
2719.07021	18506.625
2721.67194	18547.48214
2724.27206	18520.33929
2726.87057	18515.48214
2729.46747	18531.91071
2732.06276	18487.19643
2734.65644	18483.48214
2737.24852	18499.19643
2739.83899	18456.76786
2742.42786	18490.19643
2745.01513	18460.05357
2747.60079	18426.625
2750.18486	18370.05357
2752.76733	18431.625
2755.3482	18398.625
2757.92747	18411.05357
2760.50515	18383.625
2763.08123	18363.48214
2765.65573	18328.33929
2768.22863	18339.19643
2770.79994	18297.33929
2773.36967	18325.48214
2775.9378	18287.76786
2778.50435	18267.19643
2781.06932	18257.76786
2783.6327	18282.76786
2786.1945	18230.91071
2788.75471	18226.48214
2791.31335	18176.91071
2793.87041	18128.625
2796.42589	18127.625
2798.97979	18091.625
2801.53212	18096.33929
2804.08288	18094.33929
2806.63206	18037.33929
2809.17967	17996.19643
2811.72571	17962.48214
2814.27018	17962.76786
2816.81308	17922.76786
2819.35442	17935.625
2821.89419	17862.48214
2824.43239	17877.48214
2826.96904	17850.33929
2829.50412	17858.19643
2832.03763	17794.19643
2834.56959	17845.48214
2837.1	17792.05357
2839.62884	17771.91071
2842.15613	17739.19643
2844.68186	17777.19643
2847.20604	17737.05357
2849.72867	17739.625
2852.24974	17749.625
2854.76927	17726.76786
2857.28724	17690.19643
2859.80367	17659.48214
2862.31855	17656.48214
2864.83189	17612.91071
2867.34368	17611.76786
2869.85393	17593.05357
2872.36264	17594.05357
2874.8698	17567.76786
2877.37543	17582.76786
2879.87952	17587.76786
2882.38207	17609.19643
2884.88308	17604.76786
2887.38256	17570.76786
2889.88051	17569.19643
2892.37692	17644.625
2894.8718	17575.19643
2897.36515	17640.76786
2899.85698	17675.91071
2902.34727	17684.33929
2904.83604	17700.91071
2907.32328	17697.33929
2909.809	17741.33929
2912.29319	17769.19643
2914.77587	17734.48214
2917.25702	17792.33929
2919.73665	17730.19643
2922.21476	17721.76786
2924.69136	17724.05357
2927.16644	17740.33929
2929.64	17725.19643
2932.11205	17678.76786
2934.58258	17621.76786
2937.05161	17665.33929
2939.51912	17674.76786
2941.98513	17677.05357
2944.44962	17639.48214
2946.91261	17615.91071
2949.37409	17638.48214
2951.83407	17633.05357
2954.29254	17588.91071
2956.74951	17616.33929
2959.20498	17585.76786
2961.65895	17554.33929
2964.11142	17545.19643
2966.56239	17484.76786
2969.01186	17485.19643
2971.45984	17466.05357
2973.90632	17448.91071
2976.35131	17379.76786
2978.7948	17361.05357
2981.23681	17313.05357
2983.67732	17274.05357
2986.11635	17262.625
2988.55388	17206.05357
2990.98993	17214.05357
2993.4245	17161.48214
2995.85758	17155.33929
2998.28917	17151.05357
3000.71928	17090.33929
3003.14791	17047.33929
3005.57506	17061.48214
3008.00073	17028.625
3010.42493	17020.19643
3012.84764	16990.19643
3015.26888	16988.19643
3017.68865	16922.48214
3020.10694	16883.19643
3022.52376	16897.33929
3024.9391	16841.19643
3027.35298	16841.19643
3029.76539	16817.625
3032.17632	16808.48214
3034.5858	16779.05357
3036.9938	16790.33929
3039.40034	16784.33929
3041.80542	16772.48214
3044.20903	16719.05357
3046.61118	16754.91071
3049.01187	16694.91071
3051.4111	16711.48214
3053.80888	16635.91071
3056.20519	16630.91071
3058.60005	16594.33929
3060.99345	16559.91071
3063.3854	16532.48214
3065.7759	16495.19643
3068.16494	16440.48214
3070.55254	16389.33929
3072.93868	16383.625
3075.32338	16314.625
3077.70662	16310.33929
3080.08842	16293.76786
3082.46878	16255.76786
3084.84769	16272.05357
3087.22515	16279.91071
3089.60118	16272.05357
3091.97576	16277.91071
3094.3489	16301.33929
3096.72061	16278.19643
3099.09087	16261.19643
3101.4597	16251.19643
3103.82709	16251.48214
3106.19305	16248.91071
3108.55757	16247.05357
3110.92066	16215.48214
3113.28232	16219.19643
3115.64255	16182.76786
3118.00134	16114.05357
3120.35871	16111.91071
3122.71466	16092.19643
3125.06917	16065.91071
3127.42226	16039.76786
3129.77393	16061.76786
3132.12417	16032.19643
3134.47299	16008.91071
3136.82039	15995.05357
3139.16636	15983.33929
3141.51092	15974.76786
3143.85406	15985.48214
3146.19579	16013.625
3148.53609	15985.76786
3150.87499	16061.76786
3153.21246	16039.05357
3155.54853	16053.91071
3157.88318	16055.05357
3160.21642	16074.33929
3162.54826	16088.76786
3164.87868	16079.48214
3167.2077	16058.19643
3169.5353	16108.91071
3171.86151	16051.91071
3174.18631	16060.91071
3176.5097	16103.19643
3178.83169	16058.33929
3181.15228	16056.625
3183.47147	16043.625
3185.78926	16011.91071
3188.10565	16015.33929
3190.42065	15981.19643
3192.73424	15982.33929
3195.04645	16001.19643
3197.35725	16003.19643
3199.66667	15949.625
3201.97469	15991.625
3204.28132	15939.05357
3206.58656	15959.625
3208.8904	16011.19643
3211.19287	16027.91071
3213.49394	16041.625
3215.79363	16047.76786
3218.09193	16073.33929
3220.38884	16073.05357
3222.68438	16114.625
3224.97853	16107.05357
3227.2713	16098.19643
3229.56269	16076.76786
3231.8527	16042.91071
3234.14133	16020.76786
3236.42858	15969.33929
3238.71446	15965.05357
3240.99896	15901.76786
3243.28209	15904.91071
3245.56384	15907.91071
3247.84423	15901.19643
3250.12324	15874.19643
3252.40088	15874.48214
3254.67715	15884.05357
3256.95205	15874.76786
3259.22558	15864.05357
3261.49775	15839.05357
3263.76855	15824.33929
3266.03799	15817.33929
3268.30606	15819.48214
3270.57277	15800.91071
3272.83812	15774.76786
3275.10211	15731.91071
3277.36474	15723.48214
3279.62601	15721.33929
3281.88593	15705.76786
3284.14448	15708.91071
3286.40168	15682.76786
3288.65753	15686.33929
3290.91202	15678.19643
3293.16516	15673.76786
3295.41695	15627.48214
3297.66738	15546.48214
3299.91647	15471.05357
3302.16421	15388.33929
3304.4106	15300.48214
3306.65564	15220.625
3308.89933	15137.91071
3311.14169	15052.91071
3313.38269	14907.48214
3315.62236	14815.76786
3317.86068	14691.33929
3320.09766	14609.76786
3322.3333	14506.19643
3324.5676	14427.05357
3326.80056	14253.91071
3329.03219	14203.76786
3331.26248	4.625
3333.49143	-0.51786
3335.71905	-1.51786
