Data from AgNPs_FTO_APTES_UA_20uM_CRN_500uM_R6G_10uM_NaF_0.1M_Addition_RamanShift__26__19-02-24-991.txt Node

Date: Thu Feb 17 19:02:24 GMT 2022
User: TCL
Spectrometer: QEP01345
Trigger mode: 4
Integration Time (sec): 1.000000E1
Scans to average: 7
Electric dark correction enabled: true
Nonlinearity correction enabled: false
Boxcar width: 0
XAxis mode: Raman Shifts
Number of Pixels in Spectrum: 1044
>>>>>Begin Spectral Data<<<<<
46.04893	0.375
50.45542	-0.33929
54.85868	-0.19643
59.25871	-1.91071
63.6555	92.51786
68.04907	88.375
72.43941	96.375
76.82654	96.23214
81.21044	98.51786
85.59113	104.80357
89.96862	109.94643
94.34289	112.66071
98.71396	114.08929
103.08183	111.51786
107.4465	126.51786
111.80798	127.23214
116.16626	128.66071
120.52136	136.375
124.87327	141.375
129.222	147.51786
133.56755	154.66071
137.90993	170.51786
142.24913	185.66071
146.58517	211.08929
150.91804	246.66071
155.24774	289.66071
159.57429	357.08929
163.89768	484.80357
168.21792	641.51786
172.53501	879.08929
176.84895	1226.51786
181.15975	1743.375
185.46741	2471.08929
189.77193	3414.66071
194.07331	4642.08929
198.37157	5993.94643
202.6667	7454.23214
206.9587	8995.08929
211.24758	10500.80357
215.53334	12143.66071
219.81599	13914.51786
224.09553	15871.23214
228.37195	18136.66071
232.64527	20598.94643
236.91549	23021.94643
241.18261	25216.51786
245.44663	26951.08929
249.70755	28436.375
253.96539	29703.66071
258.22014	30731.94643
262.4718	31442.51786
266.72039	31794.23214
270.96589	31733.80357
275.20832	31202.375
279.44768	30368.66071
283.68397	29485.51786
287.91719	28999.23214
292.14735	28947.375
296.37445	29709.23214
300.59849	31128.23214
304.81948	33000.66071
309.03742	34554.80357
313.25231	34824.51786
317.46415	33352.23214
321.67296	30583.08929
325.87872	28123.94643
330.08145	27003.80357
334.28114	26986.23214
338.47781	27549.08929
342.67145	28459.94643
346.86207	29780.08929
351.04966	31879.66071
355.23424	34339.66071
359.4158	36249.23214
363.59435	37095.80357
367.76989	37132.80357
371.94243	36844.23214
376.11196	36454.375
380.27849	36149.80357
384.44203	35489.94643
388.60257	34869.23214
392.76012	34413.51786
396.91468	34583.51786
401.06626	35307.66071
405.21485	35888.51786
409.36047	35078.80357
413.50311	33027.51786
417.64277	30967.66071
421.77947	29646.94643
425.9132	29088.94643
430.04396	28892.51786
434.17176	29047.375
438.2966	29558.08929
442.41849	30380.23214
446.53742	31344.08929
450.6534	32234.66071
454.76644	32759.66071
458.87653	32855.08929
462.98368	32462.23214
467.08789	31877.66071
471.18916	31094.51786
475.2875	30232.08929
479.38291	29458.80357
483.4754	28884.23214
487.56496	28515.80357
491.6516	28173.94643
495.73531	28032.51786
499.81612	28076.80357
503.89401	28481.66071
507.96899	28964.08929
512.04106	29539.80357
516.11023	30295.66071
520.1765	30769.23214
524.23987	30905.66071
528.30034	30512.80357
532.35792	30041.80357
536.41261	29578.375
540.46441	28923.23214
544.51333	28486.08929
548.55936	28459.80357
552.60252	28983.80357
556.64279	29682.94643
560.6802	30151.51786
564.71473	30812.08929
568.7464	32341.375
572.7752	32986.94643
576.80114	31518.375
580.82422	29743.08929
584.84444	28998.08929
588.86181	29108.66071
592.87633	29661.66071
596.888	30372.375
600.89682	31407.80357
604.9028	35405.80357
608.90594	46616.51786
612.90624	61998.23214
616.90371	60422.51786
620.89834	41491.94643
624.89015	31992.94643
628.87913	30205.375
632.86528	30510.08929
636.84862	31190.66071
640.82913	30532.80357
644.80683	28858.51786
648.78172	27665.66071
652.75379	27635.66071
656.72306	28835.23214
660.68952	30480.375
664.65319	30071.23214
668.61405	28424.66071
672.57211	27659.08929
676.52738	27687.66071
680.47986	27735.51786
684.42955	27412.23214
688.37646	27144.375
692.32058	27106.08929
696.26192	27360.80357
700.20048	27750.51786
704.13626	27958.08929
708.06928	27778.80357
711.99952	27434.66071
715.927	27297.51786
719.85171	27476.08929
723.77365	27677.08929
727.69284	27557.23214
731.60928	27306.94643
735.52295	27291.94643
739.43388	27382.23214
743.34206	27474.66071
747.24749	27580.94643
751.15017	27592.80357
755.05012	28040.66071
758.94733	29485.94643
762.8418	33247.08929
766.73354	39478.375
770.62254	45700.375
774.50882	49002.66071
778.39237	47397.08929
782.27321	40956.80357
786.15132	34013.51786
790.02671	29928.51786
793.89938	28117.375
797.76935	27359.375
801.6366	27076.66071
805.50115	26909.375
809.36299	26803.08929
813.22213	26671.51786
817.07857	26623.66071
820.93231	26619.51786
824.78336	26662.375
828.63172	26822.66071
832.47738	26937.94643
836.32036	26803.94643
840.16066	26612.375
843.99827	26519.66071
847.8332	26497.51786
851.66546	26422.66071
855.49504	26448.80357
859.32195	26446.375
863.1462	26430.94643
866.96777	26391.80357
870.78668	26383.08929
874.60293	26383.08929
878.41652	26417.80357
882.22745	26622.23214
886.03573	26712.08929
889.84136	26750.94643
893.64433	26552.23214
897.44466	26564.80357
901.24235	26493.375
905.0374	26351.66071
908.8298	26136.08929
912.61957	25901.94643
916.40671	25899.08929
920.19121	26065.375
923.97308	26330.375
927.75233	26884.08929
931.52895	27436.08929
935.30295	27338.80357
939.07433	26482.51786
942.84309	25701.375
946.60924	25208.80357
950.37278	24990.66071
954.13371	24808.23214
957.89203	24687.51786
961.64774	24597.51786
965.40086	24493.66071
969.15137	24431.51786
972.89929	24372.94643
976.64461	24288.80357
980.38733	24380.94643
984.12747	24395.66071
987.86502	24578.51786
991.59999	24785.375
995.33237	25136.23214
999.06217	25809.23214
1002.78939	26536.94643
1006.51404	27229.375
1010.23611	27711.375
1013.95561	27981.66071
1017.67255	27974.94643
1021.38692	27676.94643
1025.09872	27332.375
1028.80796	27304.66071
1032.51465	27742.94643
1036.21877	28263.23214
1039.92035	28360.80357
1043.61937	28273.80357
1047.31584	27920.94643
1051.00976	27420.51786
1054.70114	26909.23214
1058.38998	26691.66071
1062.07627	26619.375
1065.76003	26577.94643
1069.44126	26583.375
1073.11995	26824.375
1076.79611	27217.23214
1080.46974	27942.23214
1084.14085	28920.375
1087.80943	29842.66071
1091.47549	30011.375
1095.13903	29422.94643
1098.80005	28405.80357
1102.45857	27674.66071
1106.11456	27584.66071
1109.76805	28008.08929
1113.41903	28940.94643
1117.06751	30258.94643
1120.71348	32105.375
1124.35696	34118.375
1127.99793	35415.23214
1131.63641	34670.375
1135.2724	32456.94643
1138.90589	30556.66071
1142.5369	29384.375
1146.16542	28601.08929
1149.79145	28101.51786
1153.415	27959.94643
1157.03607	28125.80357
1160.65467	28599.08929
1164.27079	29578.375
1167.88443	31204.23214
1171.49561	33624.375
1175.10432	37562.80357
1178.71056	43187.08929
1182.31434	48092.80357
1185.91565	49550.08929
1189.51451	47622.23214
1193.11091	44018.51786
1196.70485	40379.23214
1200.29634	37991.375
1203.88538	36349.66071
1207.47197	34176.08929
1211.05612	32158.80357
1214.63782	31006.94643
1218.21708	30587.51786
1221.79391	30512.66071
1225.36829	30511.80357
1228.94024	30313.66071
1232.50976	29983.94643
1236.07685	29789.94643
1239.6415	29871.66071
1243.20374	30158.375
1246.76355	30509.51786
1250.32093	30954.51786
1253.8759	31721.66071
1257.42845	32722.51786
1260.97859	33783.08929
1264.52631	34944.66071
1268.07163	35999.375
1271.61453	36970.23214
1275.15503	37593.51786
1278.69312	37942.66071
1282.22882	38370.80357
1285.76211	39268.94643
1289.29301	40563.80357
1292.82151	41938.66071
1296.34761	43550.23214
1299.87133	46275.375
1303.39266	51083.23214
1306.9116	58377.23214
1310.42815	65826.80357
1313.94233	68403.66071
1317.45412	64202.94643
1320.96354	57357.23214
1324.47058	51031.08929
1327.97525	46213.94643
1331.47754	43554.66071
1334.97747	42818.66071
1338.47502	43610.08929
1341.97022	45780.51786
1345.46305	48829.94643
1348.95352	52686.375
1352.44163	57565.66071
1355.92738	65006.66071
1359.41078	76317.51786
1362.89183	85644.375
1366.37053	80789.375
1369.84688	65778.66071
1373.32088	53112.94643
1376.79254	45577.08929
1380.26186	41455.375
1383.72883	38930.375
1387.19347	37061.23214
1390.65578	35456.23214
1394.11575	34385.80357
1397.57339	33989.80357
1401.0287	34126.94643
1404.48168	34491.08929
1407.93234	35007.80357
1411.38068	35581.23214
1414.82669	36030.51786
1418.27039	35983.94643
1421.71177	35476.51786
1425.15083	34783.51786
1428.58758	34597.66071
1432.02203	34958.08929
1435.45416	35306.375
1438.88399	35350.94643
1442.31151	35181.375
1445.73673	35304.51786
1449.15965	35494.80357
1452.58027	35437.66071
1455.9986	35038.80357
1459.41463	34864.08929
1462.82837	35192.375
1466.23982	36003.08929
1469.64898	36951.375
1473.05586	37518.51786
1476.46045	37828.94643
1479.86276	38333.51786
1483.26279	39121.80357
1486.66054	40177.375
1490.05602	41761.08929
1493.44922	43852.08929
1496.84016	47201.08929
1500.22882	52500.66071
1503.61521	60633.375
1506.99934	70614.08929
1510.38121	78694.23214
1513.76081	79882.66071
1517.13816	72809.23214
1520.51324	61541.23214
1523.88607	51537.23214
1527.25665	45147.80357
1530.62498	41593.08929
1533.99105	39614.80357
1537.35488	38451.51786
1540.71647	37939.23214
1544.07581	37852.80357
1547.4329	38093.51786
1550.78776	38363.94643
1554.14038	38599.94643
1557.49077	38947.375
1560.83892	39721.51786
1564.18484	40961.23214
1567.52853	42576.94643
1570.86999	43683.375
1574.20922	44125.375
1577.54624	43542.51786
1580.88103	40935.94643
1584.2136	37827.66071
1587.54395	36110.23214
1590.87208	36605.375
1594.19801	38805.51786
1597.52172	41880.375
1600.84321	43180.94643
1604.16251	42041.08929
1607.47959	39468.51786
1610.79447	36503.375
1614.10715	33720.23214
1617.41763	31515.94643
1620.7259	30181.51786
1624.03199	29586.23214
1627.33587	29683.51786
1630.63757	30521.80357
1633.93707	32126.08929
1637.23439	34722.94643
1640.52951	38717.23214
1643.82246	44543.94643
1647.11321	51455.51786
1650.40179	55837.94643
1653.68819	53382.66071
1656.97241	45405.66071
1660.25446	37248.23214
1663.53433	31814.80357
1666.81203	28675.66071
1670.08756	26897.375
1673.36092	25793.08929
1676.63211	25088.08929
1679.90115	24528.80357
1683.16801	24143.80357
1686.43272	23872.51786
1689.69527	23657.51786
1692.95567	23524.375
1696.2139	23424.80357
1699.46999	23380.51786
1702.72392	23310.23214
1705.97571	23281.51786
1709.22535	23258.23214
1712.47284	23247.94643
1715.71819	23235.94643
1718.96139	23152.375
1722.20246	23011.08929
1725.44139	22927.51786
1728.67818	22781.23214
1731.91284	22611.51786
1735.14537	22498.51786
1738.37576	22403.80357
1741.60403	22300.80357
1744.83017	22260.94643
1748.05418	22145.375
1751.27607	22127.08929
1754.49584	22062.51786
1757.71349	22022.51786
1760.92903	21953.94643
1764.14244	21874.23214
1767.35375	21870.51786
1770.56294	21729.23214
1773.77002	21689.375
1776.97499	21595.66071
1780.17785	21576.23214
1783.37861	21486.51786
1786.57727	21424.66071
1789.77382	21421.23214
1792.96828	21366.66071
1796.16064	21286.23214
1799.3509	21261.375
1802.53907	21218.80357
1805.72514	21209.66071
1808.90913	21118.66071
1812.09102	21099.94643
1815.27083	21020.94643
1818.44856	20990.375
1821.6242	20977.80357
1824.79776	20955.51786
1827.96924	20895.23214
1831.13864	20851.94643
1834.30597	20837.80357
1837.47122	20794.80357
1840.6344	20777.94643
1843.7955	20717.23214
1846.95454	20702.51786
1850.11151	20692.51786
1853.26642	20648.51786
1856.41926	20677.66071
1859.57004	20679.51786
1862.71876	20678.375
1865.86542	20669.51786
1869.01003	20694.80357
1872.15258	20643.23214
1875.29308	20687.23214
1878.43152	20712.80357
1881.56792	20654.375
1884.70227	20662.94643
1887.83457	20636.94643
1890.96482	20581.375
1894.09304	20534.51786
1897.21921	20526.375
1900.34335	20561.94643
1903.46544	20502.23214
1906.58551	20489.375
1909.70353	20495.80357
1912.81953	20445.23214
1915.93349	20442.51786
1919.04543	20415.375
1922.15534	20394.51786
1925.26322	20344.94643
1928.36908	20321.94643
1931.47292	20270.51786
1934.57473	20211.51786
1937.67453	20201.66071
1940.77232	20090.23214
1943.86808	19991.375
1946.96184	19988.08929
1950.05358	19902.66071
1953.14331	19827.375
1956.23103	19809.375
1959.31675	19781.375
1962.40046	19702.94643
1965.48217	19651.94643
1968.56188	19649.51786
1971.63959	19577.51786
1974.7153	19567.80357
1977.78901	19502.80357
1980.86073	19422.23214
1983.93046	19330.80357
1986.99819	19252.51786
1990.06394	19183.08929
1993.1277	19162.80357
1996.18947	19049.23214
1999.24925	18971.80357
2002.30706	18927.375
2005.36288	18894.80357
2008.41672	18783.66071
2011.46859	18761.80357
2014.51848	18710.23214
2017.56639	18639.51786
2020.61233	18599.80357
2023.6563	18592.80357
2026.6983	18483.08929
2029.73833	18476.08929
2032.7764	18421.80357
2035.8125	18374.80357
2038.84664	18341.80357
2041.87881	18367.80357
2044.90903	18315.08929
2047.93729	18265.94643
2050.96359	18263.51786
2053.98794	18210.08929
2057.01034	18212.23214
2060.03078	18168.66071
2063.04927	18149.51786
2066.06582	18121.66071
2069.08042	18080.23214
2072.09307	18071.51786
2075.10378	18084.375
2078.11255	18064.375
2081.11938	18069.94643
2084.12426	18053.51786
2087.12722	18026.375
2090.12824	18023.375
2093.12732	18021.08929
2096.12447	18013.94643
2099.11969	18020.51786
2102.11299	18025.08929
2105.10435	18017.375
2108.09379	18030.66071
2111.08131	18053.94643
2114.0669	18076.94643
2117.05057	18072.80357
2120.03233	18085.08929
2123.01216	18168.51786
2125.99008	18143.80357
2128.96609	18216.66071
2131.94018	18213.80357
2134.91236	18230.94643
2137.88263	18228.23214
2140.851	18179.66071
2143.81746	18170.375
2146.78201	18147.80357
2149.74466	18172.94643
2152.7054	18148.08929
2155.66425	18170.08929
2158.6212	18093.23214
2161.57625	18121.80357
2164.52941	18092.51786
2167.48067	18062.375
2170.43004	18101.375
2173.37752	18110.80357
2176.32311	18095.51786
2179.26681	18114.80357
2182.20863	18134.375
2185.14856	18112.23214
2188.08661	18080.08929
2191.02278	18105.66071
2193.95707	18091.08929
2196.88948	18040.94643
2199.82001	18035.80357
2202.74867	18020.08929
2205.67545	18014.66071
2208.60037	18047.08929
2211.52341	17993.66071
2214.44458	17998.08929
2217.36388	17947.23214
2220.28132	17908.94643
2223.1969	17861.51786
2226.11061	17875.80357
2229.02246	17751.08929
2231.93245	17728.08929
2234.84058	17689.375
2237.74686	17684.08929
2240.65128	17679.51786
2243.55385	17688.51786
2246.45456	17672.80357
2249.35343	17629.94643
2252.25044	17637.23214
2255.14561	17643.08929
2258.03893	17671.66071
2260.93041	17622.08929
2263.82004	17615.23214
2266.70783	17544.08929
2269.59378	17501.94643
2272.4779	17453.66071
2275.36017	17428.66071
2278.24061	17403.23214
2281.11922	17304.23214
2283.996	17312.66071
2286.87094	17272.23214
2289.74405	17285.23214
2292.61534	17218.08929
2295.4848	17208.51786
2298.35243	17203.375
2301.21824	17214.80357
2304.08223	17200.08929
2306.94439	17183.66071
2309.80474	17195.23214
2312.66327	17129.08929
2315.51999	17173.08929
2318.37489	17177.51786
2321.22797	17144.23214
2324.07925	17138.66071
2326.92871	17126.80357
2329.77637	17098.66071
2332.62222	17071.66071
2335.46626	17058.94643
2338.3085	17080.08929
2341.14893	17080.80357
2343.98756	17072.375
2346.8244	17114.375
2349.65943	17114.80357
2352.49267	17070.23214
2355.32411	17113.80357
2358.15376	17104.94643
2360.98161	17148.94643
2363.80768	17181.94643
2366.63195	17115.66071
2369.45444	17095.08929
2372.27514	17098.94643
2375.09405	17032.51786
2377.91118	16982.08929
2380.72652	16948.23214
2383.54009	16912.66071
2386.35187	16867.51786
2389.16188	16735.08929
2391.97011	16747.94643
2394.77657	16693.51786
2397.58125	16679.375
2400.38416	16620.375
2403.18529	16588.51786
2405.98466	16565.80357
2408.78226	16510.94643
2411.57809	16452.94643
2414.37216	16437.80357
2417.16446	16447.375
2419.955	16393.23214
2422.74378	16392.08929
2425.5308	16355.80357
2428.31606	16440.23214
2431.09956	16397.08929
2433.88131	16377.80357
2436.6613	16415.08929
2439.43954	16377.375
2442.21603	16385.08929
2444.99077	16371.23214
2447.76377	16435.94643
2450.53501	16366.94643
2453.30451	16391.66071
2456.07226	16358.66071
2458.83827	16379.23214
2461.60254	16353.23214
2464.36507	16322.23214
2467.12586	16322.80357
2469.88492	16298.23214
2472.64224	16325.51786
2475.39782	16339.23214
2478.15167	16356.08929
2480.90379	16406.66071
2483.65417	16431.08929
2486.40283	16422.08929
2489.14976	16469.80357
2491.89497	16496.80357
2494.63845	16513.08929
2497.3802	16495.08929
2500.12024	16450.375
2502.85855	16419.80357
2505.59514	16350.08929
2508.33002	16321.51786
2511.06318	16219.375
2513.79462	16194.66071
2516.52435	16170.80357
2519.25237	16105.66071
2521.97867	16091.51786
2524.70327	16029.80357
2527.42616	16062.66071
2530.14734	16045.80357
2532.86681	16016.08929
2535.58458	15992.66071
2538.30065	15986.375
2541.01501	16032.66071
2543.72768	15971.375
2546.43864	15965.66071
2549.14791	15958.94643
2551.85548	15979.80357
2554.56136	15934.80357
2557.26554	15905.80357
2559.96803	15897.375
2562.66883	15857.375
2565.36794	15855.94643
2568.06536	15827.375
2570.7611	15826.23214
2573.45514	15754.08929
2576.14751	15736.23214
2578.83819	15700.66071
2581.52719	15736.23214
2584.21451	15687.375
2586.90015	15678.23214
2589.58411	15669.66071
2592.2664	15647.08929
2594.94701	15612.51786
2597.62594	15595.66071
2600.30321	15598.23214
2602.9788	15588.375
2605.65273	15557.66071
2608.32498	15583.94643
2610.99557	15580.80357
2613.66449	15583.80357
2616.33175	15574.94643
2618.99734	15613.375
2621.66128	15523.66071
2624.32355	15558.51786
2626.98416	15566.94643
2629.64311	15542.51786
2632.30041	15534.375
2634.95605	15480.66071
2637.61004	15447.08929
2640.26238	15418.375
2642.91306	15420.375
2645.56209	15414.51786
2648.20948	15387.08929
2650.85521	15376.51786
2653.4993	15398.375
2656.14175	15387.66071
2658.78255	15426.66071
2661.42171	15436.375
2664.05923	15440.94643
2666.6951	15437.66071
2669.32934	15494.375
2671.96194	15462.80357
2674.59291	15511.66071
2677.22224	15483.375
2679.84993	15434.375
2682.476	15453.375
2685.10043	15461.51786
2687.72324	15459.375
2690.34441	15440.94643
2692.96396	15412.51786
2695.58188	15446.51786
2698.19818	15374.375
2700.81285	15424.08929
2703.4259	15404.66071
2706.03733	15419.80357
2708.64714	15422.66071
2711.25533	15448.80357
2713.86191	15440.23214
2716.46687	15461.51786
2719.07021	15429.80357
2721.67194	15503.23214
2724.27206	15426.23214
2726.87057	15451.94643
2729.46747	15412.23214
2732.06276	15445.375
2734.65644	15427.80357
2737.24852	15377.08929
2739.83899	15381.80357
2742.42786	15400.94643
2745.01513	15303.51786
2747.60079	15319.375
2750.18486	15294.94643
2752.76733	15315.94643
2755.3482	15277.08929
2757.92747	15286.66071
2760.50515	15266.08929
2763.08123	15273.66071
2765.65573	15195.51786
2768.22863	15208.80357
2770.79994	15222.94643
2773.36967	15205.23214
2775.9378	15184.51786
2778.50435	15187.51786
2781.06932	15150.80357
2783.6327	15213.08929
2786.1945	15183.94643
2788.75471	15179.23214
2791.31335	15136.375
2793.87041	15132.66071
2796.42589	15102.375
2798.97979	15123.375
2801.53212	15124.23214
2804.08288	15124.23214
2806.63206	15089.375
2809.17967	15094.08929
2811.72571	15075.375
2814.27018	15094.94643
2816.81308	15048.80357
2819.35442	15054.94643
2821.89419	15045.80357
2824.43239	15088.375
2826.96904	15066.51786
2829.50412	15069.375
2832.03763	15059.94643
2834.56959	15056.08929
2837.1	15046.08929
2839.62884	15040.375
2842.15613	14981.80357
2844.68186	15025.08929
2847.20604	15034.51786
2849.72867	15025.66071
2852.24974	14994.94643
2854.76927	15010.375
2857.28724	15001.94643
2859.80367	14973.375
2862.31855	15008.08929
2864.83189	14986.375
2867.34368	14987.80357
2869.85393	14998.51786
2872.36264	15024.66071
2874.8698	15024.80357
2877.37543	15008.51786
2879.87952	15026.94643
2882.38207	14982.66071
2884.88308	14971.375
2887.38256	14962.80357
2889.88051	14971.375
2892.37692	14987.51786
2894.8718	14981.51786
2897.36515	14995.51786
2899.85698	15016.23214
2902.34727	15032.94643
2904.83604	15014.80357
2907.32328	15030.51786
2909.809	15029.66071
2912.29319	15044.23214
2914.77587	15017.08929
2917.25702	15027.23214
2919.73665	15004.94643
2922.21476	14999.375
2924.69136	14965.23214
2927.16644	14935.51786
2929.64	14956.80357
2932.11205	14938.66071
2934.58258	14815.375
2937.05161	14876.23214
2939.51912	14842.375
2941.98513	14841.375
2944.44962	14814.23214
2946.91261	14757.375
2949.37409	14759.08929
2951.83407	14741.375
2954.29254	14729.94643
2956.74951	14696.51786
2959.20498	14720.66071
2961.65895	14681.51786
2964.11142	14668.51786
2966.56239	14643.23214
2969.01186	14630.94643
2971.45984	14571.80357
2973.90632	14513.23214
2976.35131	14509.08929
2978.7948	14468.66071
2981.23681	14435.66071
2983.67732	14393.94643
2986.11635	14377.23214
2988.55388	14353.23214
2990.98993	14314.08929
2993.4245	14296.94643
2995.85758	14291.08929
2998.28917	14298.08929
3000.71928	14271.66071
3003.14791	14244.66071
3005.57506	14205.08929
3008.00073	14225.51786
3010.42493	14168.51786
3012.84764	14154.51786
3015.26888	14154.51786
3017.68865	14089.375
3020.10694	14111.66071
3022.52376	14053.94643
3024.9391	14039.08929
3027.35298	13994.08929
3029.76539	14004.66071
3032.17632	13988.23214
3034.5858	13950.66071
3036.9938	13923.80357
3039.40034	13908.66071
3041.80542	13863.66071
3044.20903	13819.375
3046.61118	13838.23214
3049.01187	13806.23214
3051.4111	13792.80357
3053.80888	13750.375
3056.20519	13704.66071
3058.60005	13658.94643
3060.99345	13669.80357
3063.3854	13594.66071
3065.7759	13557.08929
3068.16494	13570.66071
3070.55254	13523.80357
3072.93868	13487.94643
3075.32338	13404.94643
3077.70662	13393.66071
3080.08842	13379.51786
3082.46878	13349.375
3084.84769	13309.94643
3087.22515	13322.23214
3089.60118	13340.375
3091.97576	13336.66071
3094.3489	13303.80357
3096.72061	13324.08929
3099.09087	13280.375
3101.4597	13275.51786
3103.82709	13295.375
3106.19305	13293.23214
3108.55757	13281.23214
3110.92066	13237.51786
3113.28232	13227.375
3115.64255	13180.66071
3118.00134	13157.08929
3120.35871	13163.94643
3122.71466	13129.66071
3125.06917	13133.94643
3127.42226	13091.66071
3129.77393	13118.66071
3132.12417	13098.375
3134.47299	13081.23214
3136.82039	13087.08929
3139.16636	13108.23214
3141.51092	13086.375
3143.85406	13052.94643
3146.19579	13091.94643
3148.53609	13089.375
3150.87499	13102.08929
3153.21246	13098.94643
3155.54853	13147.80357
3157.88318	13135.23214
3160.21642	13153.94643
3162.54826	13145.375
3164.87868	13165.80357
3167.2077	13102.08929
3169.5353	13118.94643
3171.86151	13126.08929
3174.18631	13095.08929
3176.5097	13125.80357
3178.83169	13094.94643
3181.15228	13067.08929
3183.47147	13015.66071
3185.78926	13049.375
3188.10565	13044.08929
3190.42065	13011.375
3192.73424	13077.66071
3195.04645	13055.08929
3197.35725	13046.375
3199.66667	13030.80357
3201.97469	13102.08929
3204.28132	13065.375
3206.58656	13085.51786
3208.8904	13112.08929
3211.19287	13143.51786
3213.49394	13160.375
3215.79363	13167.94643
3218.09193	13177.80357
3220.38884	13162.51786
3222.68438	13188.66071
3224.97853	13185.66071
3227.2713	13179.94643
3229.56269	13144.375
3231.8527	13160.66071
3234.14133	13167.66071
3236.42858	13101.08929
3238.71446	13084.80357
3240.99896	13059.94643
3243.28209	13033.08929
3245.56384	12977.23214
3247.84423	13029.375
3250.12324	13030.375
3252.40088	13007.23214
3254.67715	13018.375
3256.95205	12994.375
3259.22558	13013.80357
3261.49775	12967.51786
3263.76855	12988.66071
3266.03799	12976.51786
3268.30606	12956.80357
3270.57277	12916.80357
3272.83812	12895.80357
3275.10211	12891.80357
3277.36474	12878.23214
3279.62601	12854.51786
3281.88593	12827.94643
3284.14448	12853.375
3286.40168	12875.66071
3288.65753	12868.375
3290.91202	12867.94643
3293.16516	12828.23214
3295.41695	12796.375
3297.66738	12709.375
3299.91647	12678.08929
3302.16421	12595.94643
3304.4106	12503.94643
3306.65564	12451.51786
3308.89933	12357.66071
3311.14169	12261.94643
3313.38269	12144.80357
3315.62236	12076.375
3317.86068	11999.66071
3320.09766	11891.94643
3322.3333	11796.66071
3324.5676	11770.80357
3326.80056	11577.94643
3329.03219	11528.23214
3331.26248	1.80357
3333.49143	-0.91071
3335.71905	-0.48214
