Data from AgNPs_FTO_APTES_UA_20uM_CRN_200uM_R6G_10uM_NaF_0.1M_Addition_RamanShift__5__17-58-14-910.txt Node

Date: Thu Feb 17 17:58:14 GMT 2022
User: TCL
Spectrometer: QEP01345
Trigger mode: 4
Integration Time (sec): 1.000000E1
Scans to average: 7
Electric dark correction enabled: true
Nonlinearity correction enabled: false
Boxcar width: 0
XAxis mode: Raman Shifts
Number of Pixels in Spectrum: 1044
>>>>>Begin Spectral Data<<<<<
46.04893	0.08929
50.45542	-1.33929
54.85868	-0.625
59.25871	-2.625
63.6555	101.94643
68.04907	102.94643
72.43941	109.375
76.82654	116.94643
81.21044	120.375
85.59113	115.80357
89.96862	126.66071
94.34289	127.94643
98.71396	132.66071
103.08183	134.375
107.4465	140.08929
111.80798	140.08929
116.16626	143.94643
120.52136	148.80357
124.87327	154.51786
129.222	162.08929
133.56755	175.375
137.90993	188.66071
142.24913	203.08929
146.58517	226.375
150.91804	267.51786
155.24774	308.23214
159.57429	388.66071
163.89768	502.23214
168.21792	667.94643
172.53501	910.375
176.84895	1291.94643
181.15975	1802.23214
185.46741	2542.375
189.77193	3522.66071
194.07331	4755.51786
198.37157	6118.23214
202.6667	7615.23214
206.9587	9068.08929
211.24758	10494.66071
215.53334	11861.08929
219.81599	13371.51786
224.09553	15020.375
228.37195	16875.08929
232.64527	18846.94643
236.91549	20987.51786
241.18261	23123.94643
245.44663	25170.80357
249.70755	26972.375
253.96539	28521.08929
258.22014	29786.94643
262.4718	30917.94643
266.72039	31606.80357
270.96589	31953.23214
275.20832	31988.94643
279.44768	31675.80357
283.68397	31234.375
287.91719	30807.66071
292.14735	30581.66071
296.37445	30413.08929
300.59849	30562.66071
304.81948	30723.08929
309.03742	30936.51786
313.25231	31002.08929
317.46415	30854.23214
321.67296	30462.23214
325.87872	30162.80357
330.08145	30015.08929
334.28114	30079.51786
338.47781	30302.23214
342.67145	30690.375
346.86207	31196.51786
351.04966	31778.51786
355.23424	32385.23214
359.4158	32786.66071
363.59435	33147.375
367.76989	33373.80357
371.94243	33536.23214
376.11196	33699.80357
380.27849	33919.66071
384.44203	34091.80357
388.60257	34371.94643
392.76012	34630.80357
396.91468	34917.94643
401.06626	35313.80357
405.21485	35577.80357
409.36047	35484.375
413.50311	35176.08929
417.64277	34944.94643
421.77947	34968.23214
425.9132	35063.94643
430.04396	35330.80357
434.17176	35566.66071
438.2966	35969.375
442.41849	36655.51786
446.53742	37779.08929
450.6534	38901.23214
454.76644	39443.375
458.87653	39445.23214
462.98368	38967.94643
467.08789	38285.94643
471.18916	37591.375
475.2875	36755.66071
479.38291	36100.80357
483.4754	35641.80357
487.56496	35348.51786
491.6516	35236.51786
495.73531	35143.375
499.81612	35241.51786
503.89401	35509.375
507.96899	35718.23214
512.04106	35681.66071
516.11023	35614.375
520.1765	35638.94643
524.23987	35713.66071
528.30034	35835.08929
532.35792	35843.94643
536.41261	35555.94643
540.46441	35176.80357
544.51333	34928.51786
548.55936	35123.66071
552.60252	35610.375
556.64279	36343.66071
560.6802	36854.80357
564.71473	36859.375
568.7464	36797.66071
572.7752	37156.51786
576.80114	37674.51786
580.82422	38432.66071
584.84444	39701.375
588.86181	41810.08929
592.87633	44390.80357
596.888	45402.08929
600.89682	43844.94643
604.9028	42700.375
608.90594	44320.66071
612.90624	47189.375
616.90371	45276.375
620.89834	39613.80357
624.89015	36886.08929
628.87913	36488.94643
632.86528	36614.375
636.84862	36560.08929
640.82913	36167.51786
644.80683	35500.80357
648.78172	35163.51786
652.75379	35173.23214
656.72306	35621.66071
660.68952	36077.80357
664.65319	35914.94643
668.61405	35428.08929
672.57211	35377.94643
676.52738	35595.66071
680.47986	35540.23214
684.42955	35381.08929
688.37646	35217.94643
692.32058	35352.94643
696.26192	35763.51786
700.20048	36143.51786
704.13626	36390.94643
708.06928	36294.375
711.99952	36131.94643
715.927	36132.51786
719.85171	36230.23214
723.77365	36216.66071
727.69284	35913.375
731.60928	35625.08929
735.52295	35591.94643
739.43388	35729.94643
743.34206	35831.66071
747.24749	35988.66071
751.15017	36127.66071
755.05012	36498.23214
758.94733	37085.51786
762.8418	38391.375
766.73354	40534.375
770.62254	42752.66071
774.50882	43446.94643
778.39237	42239.66071
782.27321	39996.51786
786.15132	38039.375
790.02671	36761.23214
793.89938	36123.08929
797.76935	35804.51786
801.6366	35764.80357
805.50115	35634.51786
809.36299	35462.08929
813.22213	35281.66071
817.07857	35164.66071
820.93231	35026.23214
824.78336	35028.80357
828.63172	35092.51786
832.47738	35077.94643
836.32036	35181.23214
840.16066	35294.80357
843.99827	35419.08929
847.8332	35391.375
851.66546	35397.51786
855.49504	35384.51786
859.32195	35413.08929
863.1462	35368.08929
866.96777	35296.66071
870.78668	35330.66071
874.60293	35353.23214
878.41652	35402.66071
882.22745	35466.08929
886.03573	35571.23214
889.84136	35539.23214
893.64433	35430.51786
897.44466	35285.66071
901.24235	35272.375
905.0374	35120.66071
908.8298	35027.94643
912.61957	34974.80357
916.40671	35143.23214
920.19121	35418.66071
923.97308	35725.23214
927.75233	35899.94643
931.52895	35849.80357
935.30295	35503.08929
939.07433	35117.66071
942.84309	34795.51786
946.60924	34676.08929
950.37278	34546.23214
954.13371	34472.23214
957.89203	34433.94643
961.64774	34323.66071
965.40086	34335.08929
969.15137	34323.08929
972.89929	34203.80357
976.64461	34303.375
980.38733	34356.51786
984.12747	34460.375
987.86502	34739.66071
991.59999	35008.51786
995.33237	35450.94643
999.06217	36069.51786
1002.78939	36819.80357
1006.51404	37430.51786
1010.23611	37843.94643
1013.95561	38179.08929
1017.67255	38406.23214
1021.38692	38100.375
1025.09872	37601.23214
1028.80796	37449.94643
1032.51465	37807.375
1036.21877	38300.08929
1039.92035	38417.08929
1043.61937	38205.08929
1047.31584	37778.08929
1051.00976	37221.94643
1054.70114	36910.375
1058.38998	36777.23214
1062.07627	36810.80357
1065.76003	36908.80357
1069.44126	37161.375
1073.11995	37448.08929
1076.79611	37848.94643
1080.46974	38150.66071
1084.14085	38533.94643
1087.80943	38774.08929
1091.47549	38910.80357
1095.13903	38749.51786
1098.80005	38306.08929
1102.45857	37886.23214
1106.11456	37644.80357
1109.76805	37632.375
1113.41903	37818.08929
1117.06751	38058.94643
1120.71348	38378.66071
1124.35696	38772.66071
1127.99793	39031.51786
1131.63641	39169.08929
1135.2724	38904.08929
1138.90589	38710.23214
1142.5369	38553.94643
1146.16542	38600.66071
1149.79145	38568.23214
1153.415	38523.94643
1157.03607	38817.375
1160.65467	39412.66071
1164.27079	40500.23214
1167.88443	42018.66071
1171.49561	44057.80357
1175.10432	46698.375
1178.71056	50083.08929
1182.31434	53319.66071
1185.91565	54598.66071
1189.51451	53860.94643
1193.11091	51907.94643
1196.70485	49943.375
1200.29634	48216.66071
1203.88538	46782.08929
1207.47197	45589.23214
1211.05612	44640.51786
1214.63782	43843.23214
1218.21708	43522.23214
1221.79391	43588.08929
1225.36829	43925.08929
1228.94024	43872.375
1232.50976	43272.66071
1236.07685	42468.375
1239.6415	41875.08929
1243.20374	41711.23214
1246.76355	41772.66071
1250.32093	42195.23214
1253.8759	42776.08929
1257.42845	43650.08929
1260.97859	44591.08929
1264.52631	45573.94643
1268.07163	46609.80357
1271.61453	47645.23214
1275.15503	48652.08929
1278.69312	49608.51786
1282.22882	50489.375
1285.76211	51599.94643
1289.29301	53011.23214
1292.82151	54724.08929
1296.34761	56961.51786
1299.87133	59857.80357
1303.39266	63212.08929
1306.9116	67009.375
1310.42815	70597.375
1313.94233	72623.51786
1317.45412	71680.94643
1320.96354	68960.51786
1324.47058	65710.80357
1327.97525	63047.23214
1331.47754	61160.375
1334.97747	60023.51786
1338.47502	59282.66071
1341.97022	58934.94643
1345.46305	58776.66071
1348.95352	59480.375
1352.44163	61207.375
1355.92738	64307.66071
1359.41078	68496.66071
1362.89183	71576.80357
1366.37053	70477.51786
1369.84688	64705.80357
1373.32088	57589.08929
1376.79254	52900.51786
1380.26186	51004.80357
1383.72883	50494.94643
1387.19347	49994.08929
1390.65578	49163.23214
1394.11575	48768.80357
1397.57339	49035.23214
1401.0287	49627.08929
1404.48168	49981.66071
1407.93234	50025.66071
1411.38068	49718.51786
1414.82669	49219.80357
1418.27039	48470.51786
1421.71177	47487.80357
1425.15083	46518.94643
1428.58758	46065.51786
1432.02203	46426.08929
1435.45416	47338.66071
1438.88399	48171.51786
1442.31151	48545.80357
1445.73673	48595.23214
1449.15965	48443.08929
1452.58027	48064.66071
1455.9986	47577.94643
1459.41463	47475.80357
1462.82837	48007.375
1466.23982	48946.51786
1469.64898	49984.51786
1473.05586	50733.375
1476.46045	51351.80357
1479.86276	51393.08929
1483.26279	51326.94643
1486.66054	51397.80357
1490.05602	51878.375
1493.44922	52425.375
1496.84016	53063.23214
1500.22882	53891.08929
1503.61521	55402.80357
1506.99934	57097.94643
1510.38121	58343.08929
1513.76081	58221.66071
1517.13816	56495.80357
1520.51324	54025.375
1523.88607	52137.80357
1527.25665	51307.23214
1530.62498	51143.23214
1533.99105	50990.66071
1537.35488	50699.66071
1540.71647	50117.23214
1544.07581	49324.80357
1547.4329	48538.51786
1550.78776	47778.94643
1554.14038	47035.94643
1557.49077	46645.94643
1560.83892	46540.375
1564.18484	46562.94643
1567.52853	46843.66071
1570.86999	47283.80357
1574.20922	47698.51786
1577.54624	47950.66071
1580.88103	47712.94643
1584.2136	47488.51786
1587.54395	48152.23214
1590.87208	50018.66071
1594.19801	52955.94643
1597.52172	56314.375
1600.84321	58011.66071
1604.16251	56813.66071
1607.47959	53322.51786
1610.79447	49200.08929
1614.10715	45563.375
1617.41763	42843.375
1620.7259	41227.23214
1624.03199	40449.66071
1627.33587	40457.08929
1630.63757	41329.94643
1633.93707	43174.23214
1637.23439	46385.94643
1640.52951	51308.23214
1643.82246	57295.23214
1647.11321	62042.08929
1650.40179	62573.80357
1653.68819	58123.80357
1656.97241	51121.375
1660.25446	44906.23214
1663.53433	40781.66071
1666.81203	38305.375
1670.08756	36888.66071
1673.36092	35956.08929
1676.63211	35361.94643
1679.90115	34866.23214
1683.16801	34544.375
1686.43272	34236.80357
1689.69527	34127.51786
1692.95567	33899.51786
1696.2139	33812.66071
1699.46999	33718.51786
1702.72392	33654.51786
1705.97571	33704.375
1709.22535	33674.80357
1712.47284	33555.08929
1715.71819	33590.80357
1718.96139	33540.51786
1722.20246	33477.23214
1725.44139	33368.94643
1728.67818	33234.94643
1731.91284	33090.94643
1735.14537	32994.23214
1738.37576	32910.94643
1741.60403	32792.94643
1744.83017	32675.66071
1748.05418	32672.23214
1751.27607	32665.94643
1754.49584	32575.66071
1757.71349	32596.23214
1760.92903	32567.94643
1764.14244	32524.66071
1767.35375	32540.23214
1770.56294	32485.94643
1773.77002	32411.08929
1776.97499	32399.51786
1780.17785	32330.80357
1783.37861	32327.23214
1786.57727	32235.08929
1789.77382	32158.375
1792.96828	32142.94643
1796.16064	32086.94643
1799.3509	32046.80357
1802.53907	32009.08929
1805.72514	31938.51786
1808.90913	31910.94643
1812.09102	31811.375
1815.27083	31777.375
1818.44856	31799.80357
1821.6242	31752.51786
1824.79776	31803.66071
1827.96924	31797.94643
1831.13864	31671.08929
1834.30597	31688.08929
1837.47122	31708.66071
1840.6344	31702.66071
1843.7955	31648.375
1846.95454	31677.51786
1850.11151	31631.94643
1853.26642	31584.51786
1856.41926	31551.94643
1859.57004	31607.80357
1862.71876	31562.375
1865.86542	31572.80357
1869.01003	31519.51786
1872.15258	31486.66071
1875.29308	31463.80357
1878.43152	31474.08929
1881.56792	31429.80357
1884.70227	31454.66071
1887.83457	31398.375
1890.96482	31367.51786
1894.09304	31315.94643
1897.21921	31299.80357
1900.34335	31251.375
1903.46544	31179.66071
1906.58551	31198.375
1909.70353	31185.375
1912.81953	31122.08929
1915.93349	31098.375
1919.04543	31059.94643
1922.15534	31023.08929
1925.26322	30989.08929
1928.36908	30885.08929
1931.47292	30925.80357
1934.57473	30863.80357
1937.67453	30803.375
1940.77232	30706.23214
1943.86808	30608.94643
1946.96184	30508.23214
1950.05358	30407.51786
1953.14331	30353.94643
1956.23103	30314.08929
1959.31675	30237.08929
1962.40046	30151.08929
1965.48217	30049.94643
1968.56188	30047.80357
1971.63959	29947.375
1974.7153	29887.80357
1977.78901	29803.08929
1980.86073	29659.51786
1983.93046	29610.66071
1986.99819	29527.51786
1990.06394	29457.80357
1993.1277	29451.23214
1996.18947	29296.08929
1999.24925	29176.375
2002.30706	29102.94643
2005.36288	29050.94643
2008.41672	28963.375
2011.46859	28900.375
2014.51848	28828.375
2017.56639	28769.66071
2020.61233	28651.23214
2023.6563	28615.375
2026.6983	28574.51786
2029.73833	28524.80357
2032.7764	28487.66071
2035.8125	28469.08929
2038.84664	28390.51786
2041.87881	28367.80357
2044.90903	28311.66071
2047.93729	28215.375
2050.96359	28259.08929
2053.98794	28222.375
2057.01034	28183.80357
2060.03078	28188.08929
2063.04927	28190.66071
2066.06582	28187.08929
2069.08042	28129.375
2072.09307	28116.51786
2075.10378	28087.94643
2078.11255	28102.23214
2081.11938	28089.94643
2084.12426	28075.94643
2087.12722	28088.66071
2090.12824	28116.51786
2093.12732	28133.66071
2096.12447	28102.23214
2099.11969	28114.08929
2102.11299	28113.375
2105.10435	28073.80357
2108.09379	28114.94643
2111.08131	28148.23214
2114.0669	28219.51786
2117.05057	28205.80357
2120.03233	28266.23214
2123.01216	28267.08929
2125.99008	28338.66071
2128.96609	28405.80357
2131.94018	28443.375
2134.91236	28422.94643
2137.88263	28432.375
2140.851	28420.80357
2143.81746	28519.80357
2146.78201	28452.23214
2149.74466	28486.80357
2152.7054	28505.23214
2155.66425	28464.08929
2158.6212	28493.375
2161.57625	28441.66071
2164.52941	28470.51786
2167.48067	28450.80357
2170.43004	28424.80357
2173.37752	28453.23214
2176.32311	28472.66071
2179.26681	28486.23214
2182.20863	28457.51786
2185.14856	28522.375
2188.08661	28510.94643
2191.02278	28482.23214
2193.95707	28507.375
2196.88948	28440.51786
2199.82001	28463.375
2202.74867	28457.80357
2205.67545	28503.08929
2208.60037	28397.94643
2211.52341	28314.23214
2214.44458	28345.80357
2217.36388	28283.80357
2220.28132	28257.94643
2223.1969	28201.94643
2226.11061	28162.80357
2229.02246	28117.94643
2231.93245	28104.375
2234.84058	27984.80357
2237.74686	28016.08929
2240.65128	28025.80357
2243.55385	28019.375
2246.45456	28051.08929
2249.35343	27901.80357
2252.25044	27855.51786
2255.14561	27803.51786
2258.03893	27817.08929
2260.93041	27746.94643
2263.82004	27711.23214
2266.70783	27675.51786
2269.59378	27553.375
2272.4779	27521.66071
2275.36017	27467.375
2278.24061	27444.94643
2281.11922	27406.51786
2283.996	27414.66071
2286.87094	27373.66071
2289.74405	27367.08929
2292.61534	27311.375
2295.4848	27319.51786
2298.35243	27288.51786
2301.21824	27361.66071
2304.08223	27322.94643
2306.94439	27261.23214
2309.80474	27237.94643
2312.66327	27315.08929
2315.51999	27276.08929
2318.37489	27249.08929
2321.22797	27223.51786
2324.07925	27211.66071
2326.92871	27109.23214
2329.77637	27106.66071
2332.62222	27079.08929
2335.46626	27048.23214
2338.3085	27015.94643
2341.14893	27063.375
2343.98756	27057.94643
2346.8244	27018.51786
2349.65943	27002.80357
2352.49267	26933.66071
2355.32411	26929.80357
2358.15376	26980.94643
2360.98161	26963.51786
2363.80768	26920.375
2366.63195	26912.51786
2369.45444	26895.51786
2372.27514	26779.375
2375.09405	26747.23214
2377.91118	26760.375
2380.72652	26776.23214
2383.54009	26666.08929
2386.35187	26647.66071
2389.16188	26576.51786
2391.97011	26508.94643
2394.77657	26531.66071
2397.58125	26476.66071
2400.38416	26436.23214
2403.18529	26422.80357
2405.98466	26428.08929
2408.78226	26304.375
2411.57809	26310.80357
2414.37216	26232.94643
2417.16446	26280.66071
2419.955	26173.375
2422.74378	26223.51786
2425.5308	26179.94643
2428.31606	26161.66071
2431.09956	26196.23214
2433.88131	26123.08929
2436.6613	26147.08929
2439.43954	26140.51786
2442.21603	26130.66071
2444.99077	26113.94643
2447.76377	26132.66071
2450.53501	26124.23214
2453.30451	26051.66071
2456.07226	26029.23214
2458.83827	26005.80357
2461.60254	25958.66071
2464.36507	26008.23214
2467.12586	25969.66071
2469.88492	25952.66071
2472.64224	26009.08929
2475.39782	25976.80357
2478.15167	25991.08929
2480.90379	25971.66071
2483.65417	25994.66071
2486.40283	26047.66071
2489.14976	26051.66071
2491.89497	26040.66071
2494.63845	26080.94643
2497.3802	26025.51786
2500.12024	26047.66071
2502.85855	25945.375
2505.59514	25907.23214
2508.33002	25866.375
2511.06318	25840.08929
2513.79462	25880.51786
2516.52435	25852.375
2519.25237	25784.23214
2521.97867	25789.08929
2524.70327	25722.375
2527.42616	25752.66071
2530.14734	25718.23214
2532.86681	25717.23214
2535.58458	25699.51786
2538.30065	25657.51786
2541.01501	25684.94643
2543.72768	25641.51786
2546.43864	25615.51786
2549.14791	25575.375
2551.85548	25553.23214
2554.56136	25506.51786
2557.26554	25506.94643
2559.96803	25464.66071
2562.66883	25412.51786
2565.36794	25374.08929
2568.06536	25412.94643
2570.7611	25381.51786
2573.45514	25305.08929
2576.14751	25277.23214
2578.83819	25245.66071
2581.52719	25215.80357
2584.21451	25221.66071
2586.90015	25235.66071
2589.58411	25212.375
2592.2664	25218.375
2594.94701	25134.23214
2597.62594	25081.23214
2600.30321	25038.94643
2602.9788	25008.66071
2605.65273	24990.66071
2608.32498	25009.66071
2610.99557	25013.08929
2613.66449	25010.66071
2616.33175	24990.08929
2618.99734	25033.80357
2621.66128	24937.08929
2624.32355	24908.375
2626.98416	24903.66071
2629.64311	24941.51786
2632.30041	24883.375
2634.95605	24791.80357
2637.61004	24789.08929
2640.26238	24743.80357
2642.91306	24733.66071
2645.56209	24710.08929
2648.20948	24724.375
2650.85521	24730.375
2653.4993	24721.80357
2656.14175	24759.66071
2658.78255	24755.51786
2661.42171	24773.51786
2664.05923	24802.08929
2666.6951	24777.51786
2669.32934	24814.66071
2671.96194	24824.375
2674.59291	24829.66071
2677.22224	24798.66071
2679.84993	24783.80357
2682.476	24743.80357
2685.10043	24758.375
2687.72324	24742.66071
2690.34441	24732.51786
2692.96396	24785.51786
2695.58188	24791.80357
2698.19818	24715.80357
2700.81285	24751.08929
2703.4259	24719.66071
2706.03733	24781.51786
2708.64714	24780.23214
2711.25533	24819.51786
2713.86191	24826.23214
2716.46687	24839.66071
2719.07021	24864.66071
2721.67194	24844.80357
2724.27206	24844.80357
2726.87057	24849.51786
2729.46747	24841.66071
2732.06276	24879.66071
2734.65644	24860.66071
2737.24852	24853.94643
2739.83899	24835.80357
2742.42786	24863.375
2745.01513	24814.94643
2747.60079	24747.375
2750.18486	24706.08929
2752.76733	24702.375
2755.3482	24755.66071
2757.92747	24753.80357
2760.50515	24718.375
2763.08123	24700.51786
2765.65573	24655.94643
2768.22863	24619.80357
2770.79994	24622.80357
2773.36967	24588.80357
2775.9378	24598.375
2778.50435	24569.23214
2781.06932	24576.08929
2783.6327	24553.375
2786.1945	24500.80357
2788.75471	24493.80357
2791.31335	24360.375
2793.87041	24431.94643
2796.42589	24383.08929
2798.97979	24369.94643
2801.53212	24298.23214
2804.08288	24287.08929
2806.63206	24238.08929
2809.17967	24169.51786
2811.72571	24115.94643
2814.27018	24124.08929
2816.81308	24060.80357
2819.35442	23993.94643
2821.89419	23988.80357
2824.43239	23989.66071
2826.96904	23970.375
2829.50412	23961.80357
2832.03763	23891.51786
2834.56959	23935.66071
2837.1	23893.94643
2839.62884	23879.08929
2842.15613	23752.51786
2844.68186	23820.51786
2847.20604	23796.80357
2849.72867	23821.80357
2852.24974	23843.23214
2854.76927	23758.80357
2857.28724	23773.375
2859.80367	23744.80357
2862.31855	23628.08929
2864.83189	23687.23214
2867.34368	23623.08929
2869.85393	23621.08929
2872.36264	23609.23214
2874.8698	23599.51786
2877.37543	23575.23214
2879.87952	23581.08929
2882.38207	23544.51786
2884.88308	23514.08929
2887.38256	23542.23214
2889.88051	23560.23214
2892.37692	23549.08929
2894.8718	23582.23214
2897.36515	23612.51786
2899.85698	23613.80357
2902.34727	23707.08929
2904.83604	23619.375
2907.32328	23693.51786
2909.809	23723.375
2912.29319	23742.08929
2914.77587	23798.51786
2917.25702	23754.375
2919.73665	23695.80357
2922.21476	23731.66071
2924.69136	23711.51786
2927.16644	23722.23214
2929.64	23654.94643
2932.11205	23637.80357
2934.58258	23549.80357
2937.05161	23596.375
2939.51912	23605.08929
2941.98513	23590.66071
2944.44962	23559.80357
2946.91261	23543.08929
2949.37409	23593.94643
2951.83407	23603.66071
2954.29254	23577.80357
2956.74951	23578.66071
2959.20498	23541.66071
2961.65895	23537.80357
2964.11142	23578.23214
2966.56239	23534.51786
2969.01186	23514.23214
2971.45984	23457.94643
2973.90632	23435.94643
2976.35131	23393.08929
2978.7948	23310.80357
2981.23681	23284.23214
2983.67732	23224.51786
2986.11635	23194.51786
2988.55388	23194.23214
2990.98993	23129.375
2993.4245	23117.375
2995.85758	23101.08929
2998.28917	23051.51786
3000.71928	23009.375
3003.14791	22993.94643
3005.57506	22945.23214
3008.00073	22918.08929
3010.42493	22887.08929
3012.84764	22858.23214
3015.26888	22843.66071
3017.68865	22786.94643
3020.10694	22753.23214
3022.52376	22696.94643
3024.9391	22658.51786
3027.35298	22662.08929
3029.76539	22680.66071
3032.17632	22670.80357
3034.5858	22595.08929
3036.9938	22670.66071
3039.40034	22630.51786
3041.80542	22602.08929
3044.20903	22559.51786
3046.61118	22570.23214
3049.01187	22488.51786
3051.4111	22502.80357
3053.80888	22442.51786
3056.20519	22444.66071
3058.60005	22413.23214
3060.99345	22358.66071
3063.3854	22327.80357
3065.7759	22262.80357
3068.16494	22233.23214
3070.55254	22155.66071
3072.93868	22100.80357
3075.32338	22056.80357
3077.70662	22056.08929
3080.08842	21963.08929
3082.46878	21982.375
3084.84769	21927.94643
3087.22515	21935.08929
3089.60118	21920.94643
3091.97576	21952.80357
3094.3489	21964.80357
3096.72061	21976.80357
3099.09087	21958.66071
3101.4597	21923.375
3103.82709	21953.80357
3106.19305	21917.80357
3108.55757	21900.94643
3110.92066	21886.66071
3113.28232	21868.08929
3115.64255	21748.80357
3118.00134	21766.66071
3120.35871	21727.375
3122.71466	21655.08929
3125.06917	21616.80357
3127.42226	21599.08929
3129.77393	21627.51786
3132.12417	21591.51786
3134.47299	21591.51786
3136.82039	21567.80357
3139.16636	21540.94643
3141.51092	21561.66071
3143.85406	21492.80357
3146.19579	21520.51786
3148.53609	21524.08929
3150.87499	21561.80357
3153.21246	21549.08929
3155.54853	21622.66071
3157.88318	21597.94643
3160.21642	21594.80357
3162.54826	21628.66071
3164.87868	21637.66071
3167.2077	21601.51786
3169.5353	21623.51786
3171.86151	21614.51786
3174.18631	21588.08929
3176.5097	21589.80357
3178.83169	21544.94643
3181.15228	21558.375
3183.47147	21466.51786
3185.78926	21460.51786
3188.10565	21419.08929
3190.42065	21418.08929
3192.73424	21453.80357
3195.04645	21373.66071
3197.35725	21361.66071
3199.66667	21361.23214
3201.97469	21363.08929
3204.28132	21334.51786
3206.58656	21402.94643
3208.8904	21428.66071
3211.19287	21410.66071
3213.49394	21471.51786
3215.79363	21450.51786
3218.09193	21499.80357
3220.38884	21470.94643
3222.68438	21468.375
3224.97853	21490.94643
3227.2713	21488.08929
3229.56269	21432.80357
3231.8527	21468.375
3234.14133	21411.08929
3236.42858	21328.23214
3238.71446	21348.23214
3240.99896	21257.08929
3243.28209	21243.23214
3245.56384	21170.375
3247.84423	21214.66071
3250.12324	21181.94643
3252.40088	21162.94643
3254.67715	21113.80357
3256.95205	21178.66071
3259.22558	21147.51786
3261.49775	21101.08929
3263.76855	21116.66071
3266.03799	21074.66071
3268.30606	21067.51786
3270.57277	21050.66071
3272.83812	20997.51786
3275.10211	20966.375
3277.36474	20978.51786
3279.62601	20925.51786
3281.88593	20927.375
3284.14448	20933.08929
3286.40168	20919.94643
3288.65753	20885.51786
3290.91202	20874.80357
3293.16516	20817.23214
3295.41695	20813.66071
3297.66738	20712.51786
3299.91647	20598.94643
3302.16421	20476.375
3304.4106	20394.23214
3306.65564	20285.66071
3308.89933	20170.08929
3311.14169	19976.08929
3313.38269	19826.51786
3315.62236	19701.23214
3317.86068	19568.23214
3320.09766	19430.66071
3322.3333	19293.51786
3324.5676	19213.66071
3326.80056	18920.08929
3329.03219	18792.94643
3331.26248	1.66071
3333.49143	0.94643
3335.71905	0.08929
