Data from AgNPs_FTO_APTES_UA_20uM_CRN_1000uM_R6G_10uM_NaF_0.1M_Addition_RamanShift__7__19-19-55-013.txt Node

Date: Thu Feb 17 19:19:55 GMT 2022
User: TCL
Spectrometer: QEP01345
Trigger mode: 4
Integration Time (sec): 1.000000E1
Scans to average: 7
Electric dark correction enabled: true
Nonlinearity correction enabled: false
Boxcar width: 0
XAxis mode: Raman Shifts
Number of Pixels in Spectrum: 1044
>>>>>Begin Spectral Data<<<<<
46.04893	1.08929
50.45542	-1.91071
54.85868	-0.48214
59.25871	-0.625
63.6555	80.66071
68.04907	79.375
72.43941	83.66071
76.82654	87.23214
81.21044	91.08929
85.59113	92.51786
89.96862	94.94643
94.34289	97.94643
98.71396	102.08929
103.08183	101.375
107.4465	109.08929
111.80798	107.23214
116.16626	113.23214
120.52136	120.94643
124.87327	125.375
129.222	127.80357
133.56755	131.23214
137.90993	149.08929
142.24913	156.66071
146.58517	174.94643
150.91804	199.51786
155.24774	240.375
159.57429	298.66071
163.89768	382.51786
168.21792	507.23214
172.53501	695.94643
176.84895	969.94643
181.15975	1381.375
185.46741	1925.51786
189.77193	2694.08929
194.07331	3609.375
198.37157	4703.66071
202.6667	5845.66071
206.9587	6977.08929
211.24758	8094.80357
215.53334	9189.08929
219.81599	10357.08929
224.09553	11609.51786
228.37195	13024.66071
232.64527	14612.08929
236.91549	16251.375
241.18261	17906.08929
245.44663	19398.08929
249.70755	20743.23214
253.96539	21879.23214
258.22014	22784.51786
262.4718	23506.08929
266.72039	24013.375
270.96589	24217.08929
275.20832	24204.66071
279.44768	23965.51786
283.68397	23662.51786
287.91719	23377.08929
292.14735	23180.80357
296.37445	23143.94643
300.59849	23273.23214
304.81948	23516.375
309.03742	23732.08929
313.25231	23807.51786
317.46415	23611.94643
321.67296	23226.94643
325.87872	22804.80357
330.08145	22555.08929
334.28114	22545.94643
338.47781	22731.66071
342.67145	23029.23214
346.86207	23416.80357
351.04966	23970.94643
355.23424	24471.375
359.4158	24893.80357
363.59435	25160.66071
367.76989	25315.51786
371.94243	25455.66071
376.11196	25478.375
380.27849	25544.80357
384.44203	25704.80357
388.60257	25807.66071
392.76012	25971.66071
396.91468	26240.51786
401.06626	26556.94643
405.21485	26730.375
409.36047	26595.375
413.50311	26182.94643
417.64277	25848.80357
421.77947	25694.08929
425.9132	25667.94643
430.04396	25805.08929
434.17176	25971.51786
438.2966	26222.51786
442.41849	26665.80357
446.53742	27279.66071
450.6534	27886.94643
454.76644	28296.66071
458.87653	28397.51786
462.98368	28266.375
467.08789	27971.23214
471.18916	27665.08929
475.2875	27231.23214
479.38291	26776.51786
483.4754	26511.80357
487.56496	26296.80357
491.6516	26092.08929
495.73531	26068.23214
499.81612	26085.80357
503.89401	26195.94643
507.96899	26344.23214
512.04106	26428.66071
516.11023	26480.375
520.1765	26544.375
524.23987	26630.94643
528.30034	26612.80357
532.35792	26591.08929
536.41261	26469.375
540.46441	26204.23214
544.51333	26077.375
548.55936	26191.94643
552.60252	26507.94643
556.64279	26935.51786
560.6802	27256.80357
564.71473	27319.51786
568.7464	27401.375
572.7752	27704.08929
576.80114	27876.80357
580.82422	28098.375
584.84444	28551.08929
588.86181	29354.08929
592.87633	30391.94643
596.888	31001.08929
600.89682	30694.66071
604.9028	30844.94643
608.90594	33109.23214
612.90624	36312.08929
616.90371	35110.94643
620.89834	29905.94643
624.89015	27334.94643
628.87913	26879.23214
632.86528	27056.80357
636.84862	27331.51786
640.82913	27093.80357
644.80683	26685.80357
648.78172	26304.94643
652.75379	26183.80357
656.72306	26552.80357
660.68952	26936.94643
664.65319	26852.08929
668.61405	26361.80357
672.57211	26230.23214
676.52738	26416.80357
680.47986	26532.08929
684.42955	26372.80357
688.37646	26239.375
692.32058	26238.51786
696.26192	26328.80357
700.20048	26605.23214
704.13626	26760.51786
708.06928	26746.80357
711.99952	26609.66071
715.927	26553.375
719.85171	26603.51786
723.77365	26607.66071
727.69284	26525.80357
731.60928	26358.94643
735.52295	26310.08929
739.43388	26339.80357
743.34206	26400.51786
747.24749	26504.375
751.15017	26544.80357
755.05012	26756.08929
758.94733	27263.375
762.8418	28445.94643
766.73354	30417.51786
770.62254	32433.80357
774.50882	33139.08929
778.39237	32161.08929
782.27321	30179.23214
786.15132	28348.51786
790.02671	27147.23214
793.89938	26547.80357
797.76935	26212.94643
801.6366	26136.23214
805.50115	26045.51786
809.36299	25923.23214
813.22213	25804.51786
817.07857	25716.51786
820.93231	25700.23214
824.78336	25660.94643
828.63172	25671.94643
832.47738	25659.66071
836.32036	25655.66071
840.16066	25645.66071
843.99827	25623.375
847.8332	25658.51786
851.66546	25667.80357
855.49504	25721.80357
859.32195	25765.80357
863.1462	25719.80357
866.96777	25741.23214
870.78668	25769.94643
874.60293	25778.375
878.41652	25843.23214
882.22745	25934.66071
886.03573	25971.66071
889.84136	25993.94643
893.64433	25934.375
897.44466	25860.23214
901.24235	25774.08929
905.0374	25757.66071
908.8298	25606.51786
912.61957	25525.08929
916.40671	25628.80357
920.19121	25767.375
923.97308	25875.51786
927.75233	25973.66071
931.52895	25912.80357
935.30295	25718.08929
939.07433	25412.66071
942.84309	25139.08929
946.60924	24996.94643
950.37278	24906.23214
954.13371	24887.08929
957.89203	24891.94643
961.64774	24825.94643
965.40086	24830.375
969.15137	24794.375
972.89929	24795.80357
976.64461	24728.66071
980.38733	24715.51786
984.12747	24781.08929
987.86502	24883.08929
991.59999	24977.23214
995.33237	25184.66071
999.06217	25397.08929
1002.78939	25696.66071
1006.51404	26048.08929
1010.23611	26419.23214
1013.95561	26611.375
1017.67255	26798.23214
1021.38692	26678.375
1025.09872	26363.80357
1028.80796	26014.94643
1032.51465	25894.80357
1036.21877	25939.80357
1039.92035	25966.80357
1043.61937	26025.08929
1047.31584	26080.23214
1051.00976	26123.94643
1054.70114	26122.08929
1058.38998	26160.08929
1062.07627	26225.80357
1065.76003	26349.375
1069.44126	26569.66071
1073.11995	26828.66071
1076.79611	27108.80357
1080.46974	27317.51786
1084.14085	27502.375
1087.80943	27717.08929
1091.47549	27837.66071
1095.13903	27797.375
1098.80005	27433.51786
1102.45857	27122.08929
1106.11456	26920.375
1109.76805	26812.51786
1113.41903	26954.23214
1117.06751	27197.23214
1120.71348	27587.23214
1124.35696	28005.94643
1127.99793	28396.23214
1131.63641	28490.23214
1135.2724	28256.08929
1138.90589	27889.66071
1142.5369	27672.80357
1146.16542	27577.66071
1149.79145	27515.66071
1153.415	27462.94643
1157.03607	27592.23214
1160.65467	27911.51786
1164.27079	28507.375
1167.88443	29509.94643
1171.49561	30753.66071
1175.10432	32488.375
1178.71056	34751.80357
1182.31434	36828.23214
1185.91565	37848.375
1189.51451	37658.80357
1193.11091	36915.23214
1196.70485	35750.23214
1200.29634	34578.94643
1203.88538	33413.08929
1207.47197	32308.375
1211.05612	31385.375
1214.63782	30655.66071
1218.21708	30274.23214
1221.79391	30109.80357
1225.36829	30148.51786
1228.94024	30169.66071
1232.50976	30045.23214
1236.07685	29736.375
1239.6415	29561.80357
1243.20374	29492.08929
1246.76355	29487.08929
1250.32093	29613.66071
1253.8759	29951.80357
1257.42845	30427.08929
1260.97859	31024.375
1264.52631	31696.94643
1268.07163	32292.66071
1271.61453	32822.51786
1275.15503	33264.94643
1278.69312	33666.51786
1282.22882	34119.51786
1285.76211	34732.375
1289.29301	35528.375
1292.82151	36584.66071
1296.34761	37719.23214
1299.87133	39175.66071
1303.39266	40954.375
1306.9116	43101.80357
1310.42815	45455.51786
1313.94233	46825.08929
1317.45412	46283.23214
1320.96354	44709.94643
1324.47058	42971.80357
1327.97525	41317.51786
1331.47754	40165.375
1334.97747	39636.66071
1338.47502	39619.23214
1341.97022	39991.66071
1345.46305	40713.66071
1348.95352	41862.23214
1352.44163	43329.375
1355.92738	45251.375
1359.41078	47745.375
1362.89183	50008.66071
1366.37053	49278.23214
1369.84688	45010.51786
1373.32088	39968.23214
1376.79254	36568.23214
1380.26186	35021.94643
1383.72883	34386.94643
1387.19347	33843.66071
1390.65578	33251.08929
1394.11575	32699.66071
1397.57339	32572.375
1401.0287	32551.08929
1404.48168	32534.375
1407.93234	32544.66071
1411.38068	32407.23214
1414.82669	32162.80357
1418.27039	31843.94643
1421.71177	31391.375
1425.15083	30900.23214
1428.58758	30599.08929
1432.02203	30674.66071
1435.45416	30988.51786
1438.88399	31398.51786
1442.31151	31551.80357
1445.73673	31635.94643
1449.15965	31702.08929
1452.58027	31668.80357
1455.9986	31549.94643
1459.41463	31586.375
1462.82837	31883.08929
1466.23982	32432.23214
1469.64898	32922.51786
1473.05586	33362.66071
1476.46045	33728.08929
1479.86276	33929.23214
1483.26279	34022.375
1486.66054	34220.94643
1490.05602	34668.51786
1493.44922	35447.08929
1496.84016	36569.80357
1500.22882	38125.66071
1503.61521	40170.94643
1506.99934	42391.80357
1510.38121	43890.51786
1513.76081	43842.375
1517.13816	42023.51786
1520.51324	39418.94643
1523.88607	37232.23214
1527.25665	35942.94643
1530.62498	35323.80357
1533.99105	35037.375
1537.35488	34684.375
1540.71647	34245.375
1544.07581	33697.23214
1547.4329	33243.375
1550.78776	32750.66071
1554.14038	32401.08929
1557.49077	32253.94643
1560.83892	32292.23214
1564.18484	32547.08929
1567.52853	32930.08929
1570.86999	33356.80357
1574.20922	33744.23214
1577.54624	33830.51786
1580.88103	33224.51786
1584.2136	32479.375
1587.54395	32230.375
1590.87208	32598.375
1594.19801	33868.94643
1597.52172	35469.80357
1600.84321	36378.375
1604.16251	35909.66071
1607.47959	34462.51786
1610.79447	32798.23214
1614.10715	31003.375
1617.41763	29510.51786
1620.7259	28356.94643
1624.03199	27666.51786
1627.33587	27509.80357
1630.63757	27821.08929
1633.93707	28754.51786
1637.23439	30462.375
1640.52951	33050.51786
1643.82246	36485.66071
1647.11321	39561.23214
1650.40179	40673.94643
1653.68819	38774.94643
1656.97241	34820.80357
1660.25446	30924.375
1663.53433	28154.80357
1666.81203	26454.66071
1670.08756	25419.80357
1673.36092	24752.51786
1676.63211	24339.66071
1679.90115	23963.94643
1683.16801	23711.80357
1686.43272	23492.08929
1689.69527	23322.08929
1692.95567	23124.375
1696.2139	23063.51786
1699.46999	23004.51786
1702.72392	22911.80357
1705.97571	22872.94643
1709.22535	22835.66071
1712.47284	22865.375
1715.71819	22811.66071
1718.96139	22744.51786
1722.20246	22667.08929
1725.44139	22571.51786
1728.67818	22499.08929
1731.91284	22401.51786
1735.14537	22312.51786
1738.37576	22284.51786
1741.60403	22199.23214
1744.83017	22080.94643
1748.05418	22079.94643
1751.27607	22012.375
1754.49584	22010.66071
1757.71349	21991.80357
1760.92903	21966.375
1764.14244	21933.08929
1767.35375	21890.23214
1770.56294	21825.94643
1773.77002	21754.375
1776.97499	21734.23214
1780.17785	21696.23214
1783.37861	21673.51786
1786.57727	21585.23214
1789.77382	21571.23214
1792.96828	21507.66071
1796.16064	21463.375
1799.3509	21410.66071
1802.53907	21358.08929
1805.72514	21338.51786
1808.90913	21279.23214
1812.09102	21272.08929
1815.27083	21171.51786
1818.44856	21144.80357
1821.6242	21103.80357
1824.79776	21119.08929
1827.96924	21094.375
1831.13864	21039.80357
1834.30597	21037.08929
1837.47122	21042.23214
1840.6344	21001.375
1843.7955	20997.80357
1846.95454	20955.08929
1850.11151	20944.66071
1853.26642	20914.375
1856.41926	20860.375
1859.57004	20891.51786
1862.71876	20841.80357
1865.86542	20863.80357
1869.01003	20828.23214
1872.15258	20813.23214
1875.29308	20819.51786
1878.43152	20750.51786
1881.56792	20754.23214
1884.70227	20721.23214
1887.83457	20709.51786
1890.96482	20675.94643
1894.09304	20632.08929
1897.21921	20651.51786
1900.34335	20576.08929
1903.46544	20570.08929
1906.58551	20544.80357
1909.70353	20504.23214
1912.81953	20479.375
1915.93349	20448.23214
1919.04543	20418.66071
1922.15534	20382.66071
1925.26322	20312.23214
1928.36908	20301.08929
1931.47292	20302.80357
1934.57473	20249.51786
1937.67453	20223.375
1940.77232	20133.66071
1943.86808	20078.23214
1946.96184	19994.375
1950.05358	19978.80357
1953.14331	19954.51786
1956.23103	19909.66071
1959.31675	19865.375
1962.40046	19810.51786
1965.48217	19687.80357
1968.56188	19660.23214
1971.63959	19630.80357
1974.7153	19533.94643
1977.78901	19532.51786
1980.86073	19427.94643
1983.93046	19355.08929
1986.99819	19306.375
1990.06394	19233.08929
1993.1277	19224.08929
1996.18947	19100.66071
1999.24925	19108.51786
2002.30706	18980.51786
2005.36288	18905.80357
2008.41672	18868.66071
2011.46859	18839.375
2014.51848	18782.23214
2017.56639	18706.66071
2020.61233	18669.51786
2023.6563	18584.51786
2026.6983	18511.51786
2029.73833	18518.80357
2032.7764	18485.80357
2035.8125	18425.08929
2038.84664	18385.94643
2041.87881	18352.375
2044.90903	18315.375
2047.93729	18308.23214
2050.96359	18286.51786
2053.98794	18284.08929
2057.01034	18242.80357
2060.03078	18245.51786
2063.04927	18178.23214
2066.06582	18218.94643
2069.08042	18182.08929
2072.09307	18171.80357
2075.10378	18190.94643
2078.11255	18167.23214
2081.11938	18145.94643
2084.12426	18121.80357
2087.12722	18146.375
2090.12824	18125.80357
2093.12732	18147.08929
2096.12447	18149.51786
2099.11969	18124.66071
2102.11299	18115.80357
2105.10435	18121.94643
2108.09379	18139.94643
2111.08131	18157.51786
2114.0669	18157.80357
2117.05057	18124.23214
2120.03233	18186.80357
2123.01216	18214.66071
2125.99008	18247.80357
2128.96609	18263.66071
2131.94018	18281.375
2134.91236	18268.23214
2137.88263	18225.80357
2140.851	18274.80357
2143.81746	18319.66071
2146.78201	18307.375
2149.74466	18297.23214
2152.7054	18255.66071
2155.66425	18237.375
2158.6212	18231.375
2161.57625	18247.80357
2164.52941	18251.80357
2167.48067	18215.80357
2170.43004	18203.23214
2173.37752	18214.51786
2176.32311	18242.80357
2179.26681	18232.66071
2182.20863	18203.51786
2185.14856	18224.23214
2188.08661	18158.375
2191.02278	18206.375
2193.95707	18194.23214
2196.88948	18116.23214
2199.82001	18152.23214
2202.74867	18095.51786
2205.67545	18179.51786
2208.60037	18047.51786
2211.52341	17998.80357
2214.44458	18004.94643
2217.36388	17990.51786
2220.28132	17947.94643
2223.1969	17917.375
2226.11061	17911.80357
2229.02246	17854.375
2231.93245	17803.51786
2234.84058	17744.66071
2237.74686	17718.08929
2240.65128	17761.375
2243.55385	17739.51786
2246.45456	17706.51786
2249.35343	17684.375
2252.25044	17622.66071
2255.14561	17624.23214
2258.03893	17645.66071
2260.93041	17578.66071
2263.82004	17539.94643
2266.70783	17540.51786
2269.59378	17454.80357
2272.4779	17404.51786
2275.36017	17343.23214
2278.24061	17362.80357
2281.11922	17292.94643
2283.996	17290.375
2286.87094	17278.51786
2289.74405	17220.51786
2292.61534	17222.66071
2295.4848	17192.375
2298.35243	17211.375
2301.21824	17189.94643
2304.08223	17185.80357
2306.94439	17108.94643
2309.80474	17091.23214
2312.66327	17106.80357
2315.51999	17077.08929
2318.37489	17065.375
2321.22797	17023.94643
2324.07925	17000.80357
2326.92871	16986.51786
2329.77637	16933.23214
2332.62222	16906.23214
2335.46626	16902.23214
2338.3085	16859.51786
2341.14893	16880.51786
2343.98756	16849.375
2346.8244	16852.51786
2349.65943	16857.94643
2352.49267	16804.66071
2355.32411	16809.51786
2358.15376	16825.66071
2360.98161	16837.23214
2363.80768	16800.80357
2366.63195	16803.94643
2369.45444	16757.375
2372.27514	16761.80357
2375.09405	16715.80357
2377.91118	16721.375
2380.72652	16666.66071
2383.54009	16662.08929
2386.35187	16627.23214
2389.16188	16516.94643
2391.97011	16470.08929
2394.77657	16460.66071
2397.58125	16447.375
2400.38416	16445.23214
2403.18529	16383.375
2405.98466	16371.80357
2408.78226	16307.08929
2411.57809	16301.08929
2414.37216	16307.51786
2417.16446	16302.94643
2419.955	16289.66071
2422.74378	16260.51786
2425.5308	16261.375
2428.31606	16256.23214
2431.09956	16229.66071
2433.88131	16182.80357
2436.6613	16200.23214
2439.43954	16209.51786
2442.21603	16165.66071
2444.99077	16134.23214
2447.76377	16121.80357
2450.53501	16151.51786
2453.30451	16115.94643
2456.07226	16091.80357
2458.83827	16090.80357
2461.60254	16087.51786
2464.36507	16063.375
2467.12586	16023.08929
2469.88492	16010.80357
2472.64224	16035.23214
2475.39782	16005.51786
2478.15167	16013.66071
2480.90379	16033.08929
2483.65417	16028.80357
2486.40283	15975.08929
2489.14976	16047.23214
2491.89497	16000.51786
2494.63845	16008.51786
2497.3802	15964.375
2500.12024	15940.66071
2502.85855	15943.23214
2505.59514	15890.94643
2508.33002	15898.66071
2511.06318	15893.08929
2513.79462	15862.23214
2516.52435	15812.80357
2519.25237	15807.51786
2521.97867	15776.08929
2524.70327	15768.51786
2527.42616	15706.23214
2530.14734	15728.66071
2532.86681	15676.375
2535.58458	15671.51786
2538.30065	15663.375
2541.01501	15664.51786
2543.72768	15608.51786
2546.43864	15579.51786
2549.14791	15596.94643
2551.85548	15537.80357
2554.56136	15558.66071
2557.26554	15505.66071
2559.96803	15483.23214
2562.66883	15419.66071
2565.36794	15419.66071
2568.06536	15389.08929
2570.7611	15403.08929
2573.45514	15382.23214
2576.14751	15292.375
2578.83819	15272.94643
2581.52719	15292.66071
2584.21451	15246.375
2586.90015	15241.51786
2589.58411	15226.80357
2592.2664	15193.08929
2594.94701	15178.23214
2597.62594	15141.94643
2600.30321	15092.08929
2602.9788	15071.08929
2605.65273	15026.66071
2608.32498	15060.94643
2610.99557	15068.94643
2613.66449	15061.66071
2616.33175	15020.80357
2618.99734	14992.375
2621.66128	14969.66071
2624.32355	14961.375
2626.98416	14914.51786
2629.64311	14912.23214
2632.30041	14867.375
2634.95605	14847.375
2637.61004	14837.80357
2640.26238	14784.80357
2642.91306	14807.51786
2645.56209	14798.375
2648.20948	14829.08929
2650.85521	14781.08929
2653.4993	14805.375
2656.14175	14832.23214
2658.78255	14834.94643
2661.42171	14826.80357
2664.05923	14839.94643
2666.6951	14822.80357
2669.32934	14805.80357
2671.96194	14825.51786
2674.59291	14840.80357
2677.22224	14825.23214
2679.84993	14791.66071
2682.476	14790.08929
2685.10043	14811.51786
2687.72324	14747.23214
2690.34441	14751.375
2692.96396	14736.51786
2695.58188	14747.80357
2698.19818	14749.66071
2700.81285	14737.23214
2703.4259	14753.23214
2706.03733	14761.94643
2708.64714	14780.94643
2711.25533	14791.94643
2713.86191	14762.23214
2716.46687	14767.94643
2719.07021	14790.51786
2721.67194	14783.23214
2724.27206	14745.94643
2726.87057	14798.66071
2729.46747	14752.80357
2732.06276	14766.23214
2734.65644	14745.94643
2737.24852	14726.23214
2739.83899	14712.08929
2742.42786	14723.08929
2745.01513	14656.08929
2747.60079	14667.375
2750.18486	14647.375
2752.76733	14608.23214
2755.3482	14643.80357
2757.92747	14628.08929
2760.50515	14586.66071
2763.08123	14558.375
2765.65573	14514.80357
2768.22863	14528.08929
2770.79994	14529.51786
2773.36967	14505.51786
2775.9378	14491.23214
2778.50435	14485.08929
2781.06932	14432.66071
2783.6327	14484.94643
2786.1945	14424.23214
2788.75471	14365.80357
2791.31335	14367.23214
2793.87041	14319.80357
2796.42589	14322.23214
2798.97979	14343.23214
2801.53212	14302.80357
2804.08288	14250.80357
2806.63206	14227.08929
2809.17967	14151.51786
2811.72571	14167.08929
2814.27018	14161.80357
2816.81308	14112.08929
2819.35442	14103.51786
2821.89419	14048.23214
2824.43239	14049.94643
2826.96904	14031.375
2829.50412	14071.23214
2832.03763	14016.80357
2834.56959	14003.51786
2837.1	13985.51786
2839.62884	14009.66071
2842.15613	13936.66071
2844.68186	13988.08929
2847.20604	13980.08929
2849.72867	13950.51786
2852.24974	13973.80357
2854.76927	13891.94643
2857.28724	13918.66071
2859.80367	13863.51786
2862.31855	13818.23214
2864.83189	13803.08929
2867.34368	13820.08929
2869.85393	13822.23214
2872.36264	13820.08929
2874.8698	13805.51786
2877.37543	13792.23214
2879.87952	13766.375
2882.38207	13753.51786
2884.88308	13762.23214
2887.38256	13749.23214
2889.88051	13758.94643
2892.37692	13761.23214
2894.8718	13755.80357
2897.36515	13789.94643
2899.85698	13744.80357
2902.34727	13799.66071
2904.83604	13790.375
2907.32328	13802.66071
2909.809	13802.23214
2912.29319	13855.375
2914.77587	13847.23214
2917.25702	13855.94643
2919.73665	13845.23214
2922.21476	13836.08929
2924.69136	13823.375
2927.16644	13840.51786
2929.64	13786.375
2932.11205	13804.51786
2934.58258	13741.94643
2937.05161	13763.375
2939.51912	13766.80357
2941.98513	13749.94643
2944.44962	13731.51786
2946.91261	13693.375
2949.37409	13674.80357
2951.83407	13663.94643
2954.29254	13661.23214
2956.74951	13611.66071
2959.20498	13642.66071
2961.65895	13606.94643
2964.11142	13639.23214
2966.56239	13551.51786
2969.01186	13582.51786
2971.45984	13495.23214
2973.90632	13525.94643
2976.35131	13503.80357
2978.7948	13489.08929
2981.23681	13457.08929
2983.67732	13436.80357
2986.11635	13372.23214
2988.55388	13341.80357
2990.98993	13311.08929
2993.4245	13338.08929
2995.85758	13318.80357
2998.28917	13279.66071
3000.71928	13226.66071
3003.14791	13256.08929
3005.57506	13195.23214
3008.00073	13174.23214
3010.42493	13146.51786
3012.84764	13143.08929
3015.26888	13122.23214
3017.68865	13125.51786
3020.10694	13083.80357
3022.52376	13055.80357
3024.9391	13033.23214
3027.35298	13015.94643
3029.76539	13008.08929
3032.17632	12993.51786
3034.5858	12964.23214
3036.9938	12953.375
3039.40034	12965.66071
3041.80542	12953.94643
3044.20903	12900.80357
3046.61118	12893.94643
3049.01187	12870.94643
3051.4111	12875.375
3053.80888	12823.94643
3056.20519	12807.51786
3058.60005	12773.375
3060.99345	12762.51786
3063.3854	12738.23214
3065.7759	12692.80357
3068.16494	12678.66071
3070.55254	12622.66071
3072.93868	12639.66071
3075.32338	12586.51786
3077.70662	12594.23214
3080.08842	12539.375
3082.46878	12484.375
3084.84769	12517.23214
3087.22515	12521.80357
3089.60118	12484.51786
3091.97576	12515.08929
3094.3489	12523.51786
3096.72061	12530.66071
3099.09087	12527.51786
3101.4597	12497.66071
3103.82709	12514.23214
3106.19305	12468.51786
3108.55757	12451.375
3110.92066	12436.375
3113.28232	12450.80357
3115.64255	12405.80357
3118.00134	12383.80357
3120.35871	12376.23214
3122.71466	12358.80357
3125.06917	12323.66071
3127.42226	12301.66071
3129.77393	12313.94643
3132.12417	12304.51786
3134.47299	12290.51786
3136.82039	12272.80357
3139.16636	12284.08929
3141.51092	12271.375
3143.85406	12272.94643
3146.19579	12280.08929
3148.53609	12296.66071
3150.87499	12297.08929
3153.21246	12297.80357
3155.54853	12325.51786
3157.88318	12320.375
3160.21642	12345.375
3162.54826	12305.08929
3164.87868	12308.51786
3167.2077	12312.08929
3169.5353	12321.51786
3171.86151	12317.375
3174.18631	12326.23214
3176.5097	12300.66071
3178.83169	12279.80357
3181.15228	12258.23214
3183.47147	12223.66071
3185.78926	12233.51786
3188.10565	12181.08929
3190.42065	12171.51786
3192.73424	12219.80357
3195.04645	12177.66071
3197.35725	12198.08929
3199.66667	12184.23214
3201.97469	12184.08929
3204.28132	12189.51786
3206.58656	12185.23214
3208.8904	12229.08929
3211.19287	12227.23214
3213.49394	12227.94643
3215.79363	12249.08929
3218.09193	12234.08929
3220.38884	12208.51786
3222.68438	12255.51786
3224.97853	12231.375
3227.2713	12195.375
3229.56269	12220.23214
3231.8527	12196.94643
3234.14133	12142.51786
3236.42858	12102.66071
3238.71446	12108.375
3240.99896	12094.51786
3243.28209	12021.80357
3245.56384	11999.08929
3247.84423	12033.80357
3250.12324	12016.80357
3252.40088	12012.94643
3254.67715	12017.94643
3256.95205	11978.80357
3259.22558	11986.375
3261.49775	11969.94643
3263.76855	11968.375
3266.03799	11945.94643
3268.30606	11936.94643
3270.57277	11908.08929
3272.83812	11848.80357
3275.10211	11851.375
3277.36474	11834.80357
3279.62601	11863.23214
3281.88593	11796.23214
3284.14448	11816.23214
3286.40168	11821.08929
3288.65753	11816.375
3290.91202	11795.80357
3293.16516	11756.375
3295.41695	11746.375
3297.66738	11667.94643
3299.91647	11625.80357
3302.16421	11549.66071
3304.4106	11527.23214
3306.65564	11453.375
3308.89933	11399.80357
3311.14169	11275.375
3313.38269	11175.80357
3315.62236	11111.66071
3317.86068	11029.23214
3320.09766	10953.08929
3322.3333	10896.80357
3324.5676	10843.51786
3326.80056	10693.51786
3329.03219	10623.66071
3331.26248	2.08929
3333.49143	-1.19643
3335.71905	0.08929
