Data from AgNPs_FTO_APTES_UA_20uM_CRN_100uM_R6G_10uM_NaF_0.1M_Addition_RamanShift__17__17-38-24-885.txt Node

Date: Thu Feb 17 17:38:24 GMT 2022
User: TCL
Spectrometer: QEP01345
Trigger mode: 4
Integration Time (sec): 1.000000E1
Scans to average: 7
Electric dark correction enabled: true
Nonlinearity correction enabled: false
Boxcar width: 0
XAxis mode: Raman Shifts
Number of Pixels in Spectrum: 1044
>>>>>Begin Spectral Data<<<<<
46.04893	0.19643
50.45542	-0.94643
54.85868	0.76786
59.25871	-1.23214
63.6555	86.76786
68.04907	77.76786
72.43941	90.05357
76.82654	90.33929
81.21044	94.48214
85.59113	94.625
89.96862	106.05357
94.34289	99.76786
98.71396	109.33929
103.08183	107.48214
107.4465	118.33929
111.80798	114.05357
116.16626	117.48214
120.52136	125.19643
124.87327	130.91071
129.222	128.91071
133.56755	133.91071
137.90993	147.48214
142.24913	156.33929
146.58517	179.05357
150.91804	198.19643
155.24774	234.48214
159.57429	286.33929
163.89768	371.76786
168.21792	489.91071
172.53501	668.48214
176.84895	931.76786
181.15975	1307.76786
185.46741	1852.33929
189.77193	2562.76786
194.07331	3453.05357
198.37157	4487.33929
202.6667	5573.76786
206.9587	6670.91071
211.24758	7723.91071
215.53334	8784.33929
219.81599	9912.33929
224.09553	11179.76786
228.37195	12539.33929
232.64527	14055.76786
236.91549	15686.91071
241.18261	17288.48214
245.44663	18791.33929
249.70755	20160.33929
253.96539	21324.19643
258.22014	22239.91071
262.4718	23061.33929
266.72039	23634.19643
270.96589	23853.625
275.20832	23835.625
279.44768	23583.05357
283.68397	23208.19643
287.91719	22849.19643
292.14735	22617.91071
296.37445	22645.19643
300.59849	22792.05357
304.81948	23076.625
309.03742	23206.19643
313.25231	23096.76786
317.46415	22712.625
321.67296	22093.19643
325.87872	21627.48214
330.08145	21448.76786
334.28114	21534.625
338.47781	21764.76786
342.67145	22117.48214
346.86207	22561.625
351.04966	23187.33929
355.23424	23890.625
359.4158	24462.19643
363.59435	24939.91071
367.76989	25198.91071
371.94243	25399.91071
376.11196	25540.91071
380.27849	25645.33929
384.44203	25690.19643
388.60257	25780.48214
392.76012	25793.76786
396.91468	25938.05357
401.06626	26264.625
405.21485	26587.48214
409.36047	26540.05357
413.50311	26091.91071
417.64277	25680.76786
421.77947	25392.33929
425.9132	25376.625
430.04396	25486.48214
434.17176	25631.33929
438.2966	25934.48214
442.41849	26422.48214
446.53742	26951.625
450.6534	27527.05357
454.76644	28011.48214
458.87653	28189.05357
462.98368	28107.33929
467.08789	27812.48214
471.18916	27496.625
475.2875	27137.48214
479.38291	26852.33929
483.4754	26598.76786
487.56496	26399.48214
491.6516	26296.625
495.73531	26200.33929
499.81612	26195.48214
503.89401	26315.33929
507.96899	26526.33929
512.04106	26717.05357
516.11023	26831.19643
520.1765	27039.91071
524.23987	27079.91071
528.30034	27008.33929
532.35792	26969.76786
536.41261	26808.33929
540.46441	26607.48214
544.51333	26427.91071
548.55936	26468.33929
552.60252	26661.625
556.64279	26913.48214
560.6802	27065.48214
564.71473	27036.19643
568.7464	27259.76786
572.7752	27503.33929
576.80114	27325.19643
580.82422	27151.05357
584.84444	27222.05357
588.86181	27518.76786
592.87633	28028.625
596.888	28410.91071
600.89682	28751.76786
604.9028	29824.625
608.90594	32897.625
612.90624	36880.91071
616.90371	35853.76786
620.89834	30605.19643
624.89015	28091.91071
628.87913	27689.76786
632.86528	27757.625
636.84862	27685.91071
640.82913	27509.19643
644.80683	27021.05357
648.78172	26632.76786
652.75379	26602.19643
656.72306	26922.48214
660.68952	27482.48214
664.65319	27454.05357
668.61405	27059.19643
672.57211	26993.33929
676.52738	27142.19643
680.47986	27140.05357
684.42955	27075.76786
688.37646	27012.48214
692.32058	26974.91071
696.26192	27079.33929
700.20048	27151.19643
704.13626	27255.05357
708.06928	27134.48214
711.99952	26929.625
715.927	26821.48214
719.85171	26863.19643
723.77365	26880.625
727.69284	26922.76786
731.60928	26843.05357
735.52295	26837.19643
739.43388	26899.625
743.34206	26973.91071
747.24749	27010.76786
751.15017	27077.48214
755.05012	27127.76786
758.94733	27584.19643
762.8418	28507.91071
766.73354	30274.76786
770.62254	32276.19643
774.50882	33465.625
778.39237	32810.91071
782.27321	30704.19643
786.15132	28823.91071
790.02671	27546.625
793.89938	26977.33929
797.76935	26779.48214
801.6366	26676.19643
805.50115	26670.76786
809.36299	26566.76786
813.22213	26488.76786
817.07857	26381.19643
820.93231	26370.33929
824.78336	26403.76786
828.63172	26411.625
832.47738	26539.33929
836.32036	26559.33929
840.16066	26659.625
843.99827	26669.91071
847.8332	26654.48214
851.66546	26643.91071
855.49504	26678.76786
859.32195	26691.19643
863.1462	26747.19643
866.96777	26786.48214
870.78668	26717.76786
874.60293	26721.48214
878.41652	26732.19643
882.22745	26839.05357
886.03573	26838.33929
889.84136	26817.19643
893.64433	26703.91071
897.44466	26615.48214
901.24235	26513.05357
905.0374	26405.48214
908.8298	26317.625
912.61957	26298.91071
916.40671	26364.05357
920.19121	26478.48214
923.97308	26664.48214
927.75233	26859.76786
931.52895	27030.33929
935.30295	26927.48214
939.07433	26625.625
942.84309	26349.33929
946.60924	26227.48214
950.37278	26093.76786
954.13371	25948.05357
957.89203	25812.76786
961.64774	25687.625
965.40086	25582.48214
969.15137	25529.91071
972.89929	25461.05357
976.64461	25496.48214
980.38733	25548.91071
984.12747	25611.48214
987.86502	25848.48214
991.59999	26098.625
995.33237	26504.19643
999.06217	27009.48214
1002.78939	27632.76786
1006.51404	27968.76786
1010.23611	28097.05357
1013.95561	28198.91071
1017.67255	28290.33929
1021.38692	28155.625
1025.09872	28076.91071
1028.80796	28293.19643
1032.51465	28931.05357
1036.21877	29575.33929
1039.92035	29683.91071
1043.61937	29358.625
1047.31584	28769.91071
1051.00976	28062.33929
1054.70114	27670.19643
1058.38998	27544.91071
1062.07627	27479.625
1065.76003	27445.48214
1069.44126	27372.625
1073.11995	27440.05357
1076.79611	27615.48214
1080.46974	27825.76786
1084.14085	28087.48214
1087.80943	28278.19643
1091.47549	28377.91071
1095.13903	28222.05357
1098.80005	27929.33929
1102.45857	27678.76786
1106.11456	27583.625
1109.76805	27789.33929
1113.41903	28009.625
1117.06751	28347.05357
1120.71348	28700.05357
1124.35696	29116.625
1127.99793	29450.05357
1131.63641	29526.19643
1135.2724	29194.48214
1138.90589	28712.05357
1142.5369	28282.48214
1146.16542	27968.625
1149.79145	27707.33929
1153.415	27626.76786
1157.03607	27669.625
1160.65467	27907.19643
1164.27079	28433.91071
1167.88443	29188.19643
1171.49561	30339.19643
1175.10432	31890.91071
1178.71056	34059.48214
1182.31434	36119.91071
1185.91565	37223.625
1189.51451	36894.48214
1193.11091	35669.625
1196.70485	34045.76786
1200.29634	32843.05357
1203.88538	31971.76786
1207.47197	31047.91071
1211.05612	30340.91071
1214.63782	29897.05357
1218.21708	29894.33929
1221.79391	30054.05357
1225.36829	30213.48214
1228.94024	30102.05357
1232.50976	29738.33929
1236.07685	29441.91071
1239.6415	29349.05357
1243.20374	29459.05357
1246.76355	29715.48214
1250.32093	30000.48214
1253.8759	30425.19643
1257.42845	31031.48214
1260.97859	31525.19643
1264.52631	32023.625
1268.07163	32501.625
1271.61453	33107.76786
1275.15503	33743.19643
1278.69312	34375.19643
1282.22882	34794.91071
1285.76211	35205.33929
1289.29301	35610.91071
1292.82151	36058.33929
1296.34761	36834.19643
1299.87133	38128.76786
1303.39266	40055.76786
1306.9116	42658.91071
1310.42815	45412.05357
1313.94233	46782.48214
1317.45412	46002.91071
1320.96354	43948.19643
1324.47058	41696.33929
1327.97525	39818.33929
1331.47754	38523.625
1334.97747	38043.76786
1338.47502	38245.19643
1341.97022	38871.91071
1345.46305	39645.76786
1348.95352	40571.91071
1352.44163	41914.33929
1355.92738	44036.19643
1359.41078	47169.05357
1362.89183	49865.76786
1366.37053	48755.625
1369.84688	43882.76786
1373.32088	39052.33929
1376.79254	35822.19643
1380.26186	34197.76786
1383.72883	33355.76786
1387.19347	32744.48214
1390.65578	32156.48214
1394.11575	31663.19643
1397.57339	31616.19643
1401.0287	31840.05357
1404.48168	32080.48214
1407.93234	32408.91071
1411.38068	32738.625
1414.82669	32981.76786
1418.27039	32743.625
1421.71177	32363.48214
1425.15083	31848.19643
1428.58758	31539.91071
1432.02203	31599.48214
1435.45416	31904.76786
1438.88399	32116.05357
1442.31151	32168.05357
1445.73673	32284.91071
1449.15965	32391.76786
1452.58027	32396.91071
1455.9986	32286.625
1459.41463	32231.91071
1462.82837	32471.76786
1466.23982	32939.33929
1469.64898	33453.625
1473.05586	33914.05357
1476.46045	34142.91071
1479.86276	34380.48214
1483.26279	34599.33929
1486.66054	34840.19643
1490.05602	35229.76786
1493.44922	35723.48214
1496.84016	36387.33929
1500.22882	37431.625
1503.61521	39136.91071
1506.99934	41327.48214
1510.38121	43140.05357
1513.76081	43448.48214
1517.13816	41797.05357
1520.51324	39085.33929
1523.88607	36634.625
1527.25665	35020.625
1530.62498	34139.33929
1533.99105	33654.19643
1537.35488	33409.48214
1540.71647	33347.05357
1544.07581	33291.33929
1547.4329	33239.76786
1550.78776	33199.76786
1554.14038	33102.91071
1557.49077	33145.48214
1560.83892	33186.19643
1564.18484	33358.91071
1567.52853	33578.33929
1570.86999	33748.625
1574.20922	33902.33929
1577.54624	33894.76786
1580.88103	33370.33929
1584.2136	32743.48214
1587.54395	32654.76786
1590.87208	33295.625
1594.19801	34880.48214
1597.52172	36869.48214
1600.84321	37866.33929
1604.16251	37276.19643
1607.47959	35597.76786
1610.79447	33564.625
1614.10715	31687.05357
1617.41763	30293.33929
1620.7259	29387.76786
1624.03199	28935.625
1627.33587	28909.05357
1630.63757	29344.625
1633.93707	30277.48214
1637.23439	31551.19643
1640.52951	33306.05357
1643.82246	35365.91071
1647.11321	37314.91071
1650.40179	38123.05357
1653.68819	36758.19643
1656.97241	33708.33929
1660.25446	30658.48214
1663.53433	28587.19643
1666.81203	27254.91071
1670.08756	26475.48214
1673.36092	25938.91071
1676.63211	25564.91071
1679.90115	25372.19643
1683.16801	25097.33929
1686.43272	24957.19643
1689.69527	24869.48214
1692.95567	24776.76786
1696.2139	24724.33929
1699.46999	24707.33929
1702.72392	24667.91071
1705.97571	24618.33929
1709.22535	24625.05357
1712.47284	24596.76786
1715.71819	24572.76786
1718.96139	24522.91071
1722.20246	24464.19643
1725.44139	24400.19643
1728.67818	24377.48214
1731.91284	24248.33929
1735.14537	24205.76786
1738.37576	24137.05357
1741.60403	24127.19643
1744.83017	24077.91071
1748.05418	24038.48214
1751.27607	23990.91071
1754.49584	23989.76786
1757.71349	23970.76786
1760.92903	23949.05357
1764.14244	23882.19643
1767.35375	23906.33929
1770.56294	23838.91071
1773.77002	23822.19643
1776.97499	23822.05357
1780.17785	23761.48214
1783.37861	23806.05357
1786.57727	23694.91071
1789.77382	23649.05357
1792.96828	23656.48214
1796.16064	23591.625
1799.3509	23594.76786
1802.53907	23582.76786
1805.72514	23496.19643
1808.90913	23490.33929
1812.09102	23458.48214
1815.27083	23393.33929
1818.44856	23378.48214
1821.6242	23375.625
1824.79776	23341.91071
1827.96924	23294.33929
1831.13864	23293.76786
1834.30597	23249.91071
1837.47122	23246.625
1840.6344	23241.19643
1843.7955	23267.625
1846.95454	23238.76786
1850.11151	23238.33929
1853.26642	23201.91071
1856.41926	23185.91071
1859.57004	23136.91071
1862.71876	23137.33929
1865.86542	23154.76786
1869.01003	23186.625
1872.15258	23186.48214
1875.29308	23192.19643
1878.43152	23125.19643
1881.56792	23153.48214
1884.70227	23098.625
1887.83457	23079.48214
1890.96482	23082.48214
1894.09304	22994.625
1897.21921	23031.48214
1900.34335	23032.05357
1903.46544	23038.91071
1906.58551	22954.05357
1909.70353	22975.05357
1912.81953	22954.625
1915.93349	22916.05357
1919.04543	22927.19643
1922.15534	22856.625
1925.26322	22827.625
1928.36908	22801.91071
1931.47292	22768.48214
1934.57473	22754.05357
1937.67453	22710.625
1940.77232	22677.19643
1943.86808	22607.91071
1946.96184	22569.76786
1950.05358	22467.33929
1953.14331	22440.625
1956.23103	22422.33929
1959.31675	22349.48214
1962.40046	22298.05357
1965.48217	22240.48214
1968.56188	22174.625
1971.63959	22094.625
1974.7153	22083.91071
1977.78901	22053.33929
1980.86073	22009.76786
1983.93046	21936.91071
1986.99819	21862.625
1990.06394	21791.625
1993.1277	21698.19643
1996.18947	21657.76786
1999.24925	21576.19643
2002.30706	21534.76786
2005.36288	21504.625
2008.41672	21457.48214
2011.46859	21384.48214
2014.51848	21357.76786
2017.56639	21297.625
2020.61233	21240.48214
2023.6563	21176.91071
2026.6983	21140.19643
2029.73833	21117.05357
2032.7764	21071.76786
2035.8125	21046.91071
2038.84664	21070.48214
2041.87881	21022.33929
2044.90903	20924.625
2047.93729	20917.625
2050.96359	20911.76786
2053.98794	20860.19643
2057.01034	20864.05357
2060.03078	20903.05357
2063.04927	20796.76786
2066.06582	20807.91071
2069.08042	20780.05357
2072.09307	20784.76786
2075.10378	20794.19643
2078.11255	20790.76786
2081.11938	20796.625
2084.12426	20835.48214
2087.12722	20793.48214
2090.12824	20739.91071
2093.12732	20787.91071
2096.12447	20773.19643
2099.11969	20766.76786
2102.11299	20784.625
2105.10435	20801.19643
2108.09379	20816.48214
2111.08131	20819.625
2114.0669	20843.625
2117.05057	20856.19643
2120.03233	20863.19643
2123.01216	20902.48214
2125.99008	20953.48214
2128.96609	20972.19643
2131.94018	21017.48214
2134.91236	20997.48214
2137.88263	21018.91071
2140.851	21008.05357
2143.81746	21043.48214
2146.78201	21040.91071
2149.74466	21061.76786
2152.7054	21075.05357
2155.66425	21055.91071
2158.6212	21107.19643
2161.57625	21052.91071
2164.52941	21045.91071
2167.48067	21033.91071
2170.43004	21039.76786
2173.37752	21057.76786
2176.32311	21090.91071
2179.26681	21049.48214
2182.20863	21073.33929
2185.14856	21094.33929
2188.08661	21064.48214
2191.02278	21070.91071
2193.95707	21099.05357
2196.88948	21050.48214
2199.82001	21105.76786
2202.74867	21048.48214
2205.67545	21072.91071
2208.60037	21096.76786
2211.52341	21034.48214
2214.44458	20980.05357
2217.36388	20990.625
2220.28132	20977.625
2223.1969	20886.625
2226.11061	20917.625
2229.02246	20862.76786
2231.93245	20800.05357
2234.84058	20778.48214
2237.74686	20730.19643
2240.65128	20704.33929
2243.55385	20689.625
2246.45456	20742.48214
2249.35343	20715.91071
2252.25044	20678.625
2255.14561	20610.48214
2258.03893	20589.33929
2260.93041	20563.48214
2263.82004	20514.76786
2266.70783	20531.05357
2269.59378	20464.48214
2272.4779	20427.76786
2275.36017	20349.91071
2278.24061	20344.76786
2281.11922	20322.91071
2283.996	20275.19643
2286.87094	20308.05357
2289.74405	20252.625
2292.61534	20251.19643
2295.4848	20219.76786
2298.35243	20254.48214
2301.21824	20257.33929
2304.08223	20251.76786
2306.94439	20263.05357
2309.80474	20256.05357
2312.66327	20263.19643
2315.51999	20284.91071
2318.37489	20287.48214
2321.22797	20239.48214
2324.07925	20214.625
2326.92871	20188.05357
2329.77637	20133.76786
2332.62222	20126.91071
2335.46626	20183.48214
2338.3085	20121.48214
2341.14893	20130.33929
2343.98756	20127.05357
2346.8244	20095.05357
2349.65943	20077.76786
2352.49267	20096.19643
2355.32411	20100.91071
2358.15376	20102.76786
2360.98161	20038.48214
2363.80768	20044.33929
2366.63195	19989.91071
2369.45444	19986.05357
2372.27514	19916.91071
2375.09405	19895.33929
2377.91118	19857.05357
2380.72652	19825.19643
2383.54009	19745.91071
2386.35187	19783.76786
2389.16188	19737.19643
2391.97011	19702.48214
2394.77657	19697.48214
2397.58125	19666.76786
2400.38416	19650.05357
2403.18529	19598.19643
2405.98466	19640.05357
2408.78226	19535.76786
2411.57809	19482.91071
2414.37216	19474.05357
2417.16446	19460.76786
2419.955	19454.05357
2422.74378	19436.48214
2425.5308	19383.19643
2428.31606	19373.19643
2431.09956	19366.76786
2433.88131	19360.48214
2436.6613	19366.05357
2439.43954	19329.05357
2442.21603	19347.33929
2444.99077	19367.48214
2447.76377	19335.625
2450.53501	19318.91071
2453.30451	19320.33929
2456.07226	19310.91071
2458.83827	19288.76786
2461.60254	19294.48214
2464.36507	19247.91071
2467.12586	19206.05357
2469.88492	19195.05357
2472.64224	19219.19643
2475.39782	19253.05357
2478.15167	19261.91071
2480.90379	19285.19643
2483.65417	19290.48214
2486.40283	19292.33929
2489.14976	19299.625
2491.89497	19351.19643
2494.63845	19310.91071
2497.3802	19309.19643
2500.12024	19311.91071
2502.85855	19288.05357
2505.59514	19238.33929
2508.33002	19223.19643
2511.06318	19206.05357
2513.79462	19140.05357
2516.52435	19129.91071
2519.25237	19099.91071
2521.97867	19111.91071
2524.70327	19090.625
2527.42616	19081.33929
2530.14734	19073.91071
2532.86681	19008.33929
2535.58458	19021.76786
2538.30065	19023.33929
2541.01501	19025.48214
2543.72768	18991.625
2546.43864	18966.19643
2549.14791	18926.19643
2551.85548	18900.33929
2554.56136	18918.76786
2557.26554	18857.19643
2559.96803	18855.91071
2562.66883	18784.33929
2565.36794	18802.19643
2568.06536	18767.625
2570.7611	18714.05357
2573.45514	18725.625
2576.14751	18684.76786
2578.83819	18672.05357
2581.52719	18679.48214
2584.21451	18651.625
2586.90015	18647.76786
2589.58411	18626.33929
2592.2664	18597.625
2594.94701	18574.625
2597.62594	18578.33929
2600.30321	18524.76786
2602.9788	18581.48214
2605.65273	18548.48214
2608.32498	18550.05357
2610.99557	18531.05357
2613.66449	18494.48214
2616.33175	18468.05357
2618.99734	18521.625
2621.66128	18538.625
2624.32355	18458.48214
2626.98416	18488.76786
2629.64311	18433.625
2632.30041	18435.625
2634.95605	18454.33929
2637.61004	18401.48214
2640.26238	18407.48214
2642.91306	18350.33929
2645.56209	18334.625
2648.20948	18378.19643
2650.85521	18322.19643
2653.4993	18282.05357
2656.14175	18306.76786
2658.78255	18269.05357
2661.42171	18268.91071
2664.05923	18352.76786
2666.6951	18302.625
2669.32934	18353.48214
2671.96194	18345.19643
2674.59291	18335.33929
2677.22224	18342.76786
2679.84993	18334.33929
2682.476	18315.33929
2685.10043	18273.33929
2687.72324	18295.76786
2690.34441	18269.625
2692.96396	18289.48214
2695.58188	18262.91071
2698.19818	18256.91071
2700.81285	18258.19643
2703.4259	18239.19643
2706.03733	18258.625
2708.64714	18237.33929
2711.25533	18303.19643
2713.86191	18302.625
2716.46687	18339.625
2719.07021	18309.625
2721.67194	18313.05357
2724.27206	18324.76786
2726.87057	18316.19643
2729.46747	18299.33929
2732.06276	18348.05357
2734.65644	18281.19643
2737.24852	18330.48214
2739.83899	18242.05357
2742.42786	18282.76786
2745.01513	18228.05357
2747.60079	18194.76786
2750.18486	18236.33929
2752.76733	18191.48214
2755.3482	18201.05357
2757.92747	18191.19643
2760.50515	18200.91071
2763.08123	18171.76786
2765.65573	18146.48214
2768.22863	18176.19643
2770.79994	18141.19643
2773.36967	18104.625
2775.9378	18111.19643
2778.50435	18090.76786
2781.06932	18083.33929
2783.6327	18072.33929
2786.1945	18049.76786
2788.75471	18024.33929
2791.31335	17986.33929
2793.87041	17980.05357
2796.42589	17952.33929
2798.97979	17914.48214
2801.53212	17900.91071
2804.08288	17874.76786
2806.63206	17875.48214
2809.17967	17835.48214
2811.72571	17775.91071
2814.27018	17808.91071
2816.81308	17778.48214
2819.35442	17676.05357
2821.89419	17641.48214
2824.43239	17659.76786
2826.96904	17646.33929
2829.50412	17685.91071
2832.03763	17618.33929
2834.56959	17659.05357
2837.1	17607.91071
2839.62884	17604.19643
2842.15613	17568.05357
2844.68186	17581.19643
2847.20604	17537.76786
2849.72867	17552.19643
2852.24974	17558.48214
2854.76927	17542.91071
2857.28724	17561.76786
2859.80367	17536.91071
2862.31855	17492.625
2864.83189	17487.48214
2867.34368	17454.76786
2869.85393	17502.91071
2872.36264	17475.625
2874.8698	17463.625
2877.37543	17459.625
2879.87952	17462.19643
2882.38207	17422.19643
2884.88308	17395.33929
2887.38256	17490.19643
2889.88051	17474.33929
2892.37692	17486.625
2894.8718	17496.05357
2897.36515	17504.48214
2899.85698	17531.48214
2902.34727	17543.76786
2904.83604	17551.76786
2907.32328	17597.05357
2909.809	17578.91071
2912.29319	17576.625
2914.77587	17592.05357
2917.25702	17609.625
2919.73665	17581.19643
2922.21476	17568.76786
2924.69136	17632.625
2927.16644	17583.625
2929.64	17544.33929
2932.11205	17561.19643
2934.58258	17487.625
2937.05161	17534.48214
2939.51912	17537.76786
2941.98513	17529.48214
2944.44962	17542.91071
2946.91261	17452.91071
2949.37409	17502.05357
2951.83407	17502.91071
2954.29254	17465.48214
2956.74951	17446.91071
2959.20498	17466.48214
2961.65895	17429.33929
2964.11142	17409.76786
2966.56239	17376.76786
2969.01186	17378.91071
2971.45984	17343.76786
2973.90632	17343.91071
2976.35131	17273.33929
2978.7948	17278.48214
2981.23681	17240.91071
2983.67732	17211.48214
2986.11635	17184.91071
2988.55388	17136.05357
2990.98993	17139.91071
2993.4245	17123.19643
2995.85758	17065.48214
2998.28917	17073.19643
3000.71928	17024.19643
3003.14791	16971.91071
3005.57506	16974.05357
3008.00073	16968.33929
3010.42493	16943.33929
3012.84764	16887.19643
3015.26888	16923.625
3017.68865	16919.48214
3020.10694	16856.91071
3022.52376	16825.33929
3024.9391	16827.48214
3027.35298	16778.48214
3029.76539	16797.91071
3032.17632	16778.05357
3034.5858	16741.19643
3036.9938	16749.05357
3039.40034	16751.91071
3041.80542	16718.625
3044.20903	16693.48214
3046.61118	16682.19643
3049.01187	16626.48214
3051.4111	16641.76786
3053.80888	16646.05357
3056.20519	16559.76786
3058.60005	16526.19643
3060.99345	16506.76786
3063.3854	16492.19643
3065.7759	16452.625
3068.16494	16434.19643
3070.55254	16391.05357
3072.93868	16356.05357
3075.32338	16328.91071
3077.70662	16306.91071
3080.08842	16292.05357
3082.46878	16255.33929
3084.84769	16211.05357
3087.22515	16259.48214
3089.60118	16268.05357
3091.97576	16278.76786
3094.3489	16266.625
3096.72061	16263.76786
3099.09087	16237.625
3101.4597	16223.05357
3103.82709	16274.76786
3106.19305	16226.76786
3108.55757	16252.05357
3110.92066	16227.48214
3113.28232	16248.48214
3115.64255	16178.48214
3118.00134	16149.48214
3120.35871	16125.33929
3122.71466	16097.91071
3125.06917	16056.625
3127.42226	16065.33929
3129.77393	16080.05357
3132.12417	16024.625
3134.47299	16074.19643
3136.82039	16021.48214
3139.16636	16045.76786
3141.51092	16067.19643
3143.85406	16073.48214
3146.19579	16065.76786
3148.53609	16023.19643
3150.87499	16082.625
3153.21246	16091.05357
3155.54853	16118.19643
3157.88318	16121.76786
3160.21642	16129.625
3162.54826	16161.05357
3164.87868	16168.625
3167.2077	16131.48214
3169.5353	16188.05357
3171.86151	16149.91071
3174.18631	16119.76786
3176.5097	16136.48214
3178.83169	16129.48214
3181.15228	16114.625
3183.47147	16110.625
3185.78926	16085.33929
3188.10565	16075.48214
3190.42065	16085.05357
3192.73424	16125.625
3195.04645	16037.48214
3197.35725	16057.91071
3199.66667	16060.33929
3201.97469	16057.19643
3204.28132	16054.19643
3206.58656	16103.91071
3208.8904	16129.625
3211.19287	16075.48214
3213.49394	16133.625
3215.79363	16104.33929
3218.09193	16134.91071
3220.38884	16141.76786
3222.68438	16175.05357
3224.97853	16185.625
3227.2713	16146.48214
3229.56269	16121.76786
3231.8527	16142.05357
3234.14133	16109.33929
3236.42858	16080.19643
3238.71446	16099.625
3240.99896	16025.91071
3243.28209	15993.625
3245.56384	15968.625
3247.84423	15984.76786
3250.12324	15956.625
3252.40088	16037.91071
3254.67715	15942.33929
3256.95205	15978.76786
3259.22558	15998.76786
3261.49775	15980.19643
3263.76855	16002.19643
3266.03799	15968.91071
3268.30606	15947.91071
3270.57277	15912.625
3272.83812	15894.91071
3275.10211	15867.76786
3277.36474	15835.05357
3279.62601	15851.33929
3281.88593	15832.19643
3284.14448	15838.76786
3286.40168	15835.48214
3288.65753	15787.48214
3290.91202	15782.33929
3293.16516	15767.91071
3295.41695	15735.33929
3297.66738	15672.48214
3299.91647	15640.91071
3302.16421	15517.76786
3304.4106	15458.76786
3306.65564	15400.05357
3308.89933	15247.76786
3311.14169	15165.76786
3313.38269	15042.19643
3315.62236	15019.05357
3317.86068	14898.33929
3320.09766	14763.19643
3322.3333	14693.19643
3324.5676	14631.91071
3326.80056	14397.625
3329.03219	14353.625
3331.26248	2.05357
3333.49143	0.05357
3335.71905	-1.80357
