Data from AgNPs_FTO_APTES_UA_20uM_CRN_100uM_R6G_10uM_NaF_0.1M_Addition_RamanShift__18__17-39-34-887.txt Node

Date: Thu Feb 17 17:39:34 GMT 2022
User: TCL
Spectrometer: QEP01345
Trigger mode: 4
Integration Time (sec): 1.000000E1
Scans to average: 7
Electric dark correction enabled: true
Nonlinearity correction enabled: false
Boxcar width: 0
XAxis mode: Raman Shifts
Number of Pixels in Spectrum: 1044
>>>>>Begin Spectral Data<<<<<
46.04893	-0.125
50.45542	-2.125
54.85868	0.01786
59.25871	-1.26786
63.6555	77.73214
68.04907	82.16071
72.43941	85.30357
76.82654	89.01786
81.21044	94.44643
85.59113	93.01786
89.96862	106.01786
94.34289	98.875
98.71396	112.01786
103.08183	110.16071
107.4465	117.01786
111.80798	116.44643
116.16626	122.01786
120.52136	120.73214
124.87327	124.875
129.222	128.73214
133.56755	134.01786
137.90993	145.58929
142.24913	160.16071
146.58517	175.44643
150.91804	199.58929
155.24774	238.16071
159.57429	282.73214
163.89768	367.16071
168.21792	480.73214
172.53501	666.875
176.84895	924.30357
181.15975	1299.16071
185.46741	1846.30357
189.77193	2551.58929
194.07331	3438.44643
198.37157	4467.44643
202.6667	5572.73214
206.9587	6646.58929
211.24758	7702.01786
215.53334	8791.16071
219.81599	9911.875
224.09553	11147.58929
228.37195	12539.44643
232.64527	14086.44643
236.91549	15696.30357
241.18261	17323.16071
245.44663	18787.58929
249.70755	20144.01786
253.96539	21296.01786
258.22014	22243.58929
262.4718	23013.01786
266.72039	23579.875
270.96589	23810.73214
275.20832	23741.16071
279.44768	23518.30357
283.68397	23183.30357
287.91719	22774.73214
292.14735	22544.30357
296.37445	22551.875
300.59849	22818.58929
304.81948	23062.58929
309.03742	23218.73214
313.25231	23147.16071
317.46415	22684.73214
321.67296	22113.58929
325.87872	21580.30357
330.08145	21374.58929
334.28114	21457.30357
338.47781	21721.16071
342.67145	22072.58929
346.86207	22533.01786
351.04966	23178.875
355.23424	23836.73214
359.4158	24512.73214
363.59435	24939.16071
367.76989	25250.01786
371.94243	25417.73214
376.11196	25572.875
380.27849	25629.58929
384.44203	25686.01786
388.60257	25689.16071
392.76012	25768.58929
396.91468	25943.16071
401.06626	26240.44643
405.21485	26515.30357
409.36047	26487.44643
413.50311	26014.44643
417.64277	25567.01786
421.77947	25312.44643
425.9132	25241.44643
430.04396	25346.875
434.17176	25536.16071
438.2966	25819.44643
442.41849	26331.16071
446.53742	26874.58929
450.6534	27466.01786
454.76644	27930.875
458.87653	28152.875
462.98368	28056.875
467.08789	27783.44643
471.18916	27419.30357
475.2875	27007.30357
479.38291	26709.73214
483.4754	26475.58929
487.56496	26261.44643
491.6516	26197.16071
495.73531	26083.16071
499.81612	26030.16071
503.89401	26219.73214
507.96899	26390.16071
512.04106	26554.01786
516.11023	26763.01786
520.1765	26865.58929
524.23987	26935.16071
528.30034	26904.16071
532.35792	26781.16071
536.41261	26693.01786
540.46441	26480.44643
544.51333	26303.73214
548.55936	26329.875
552.60252	26491.58929
556.64279	26753.73214
560.6802	26906.73214
564.71473	26959.16071
568.7464	27142.58929
572.7752	27364.73214
576.80114	27224.875
580.82422	27091.16071
584.84444	27114.01786
588.86181	27423.73214
592.87633	27923.44643
596.888	28342.30357
600.89682	28615.58929
604.9028	29753.58929
608.90594	33014.16071
612.90624	37085.01786
616.90371	36066.73214
620.89834	30579.875
624.89015	28006.01786
628.87913	27609.01786
632.86528	27574.875
636.84862	27579.44643
640.82913	27417.58929
644.80683	26902.01786
648.78172	26473.58929
652.75379	26418.01786
656.72306	26790.44643
660.68952	27288.44643
664.65319	27286.58929
668.61405	26909.875
672.57211	26852.16071
676.52738	26933.30357
680.47986	26978.875
684.42955	26868.73214
688.37646	26750.73214
692.32058	26786.73214
696.26192	26817.16071
700.20048	27021.73214
704.13626	27040.73214
708.06928	26892.30357
711.99952	26705.44643
715.927	26686.44643
719.85171	26705.44643
723.77365	26687.16071
727.69284	26687.44643
731.60928	26642.44643
735.52295	26688.875
739.43388	26716.01786
743.34206	26771.30357
747.24749	26844.30357
751.15017	26867.01786
755.05012	26995.01786
758.94733	27412.44643
762.8418	28403.58929
766.73354	30210.44643
770.62254	32300.30357
774.50882	33456.875
778.39237	32836.73214
782.27321	30753.58929
786.15132	28676.16071
790.02671	27383.01786
793.89938	26760.875
797.76935	26578.73214
801.6366	26498.01786
805.50115	26466.44643
809.36299	26371.16071
813.22213	26293.16071
817.07857	26235.58929
820.93231	26228.16071
824.78336	26234.44643
828.63172	26332.44643
832.47738	26332.30357
836.32036	26391.30357
840.16066	26442.73214
843.99827	26476.01786
847.8332	26477.73214
851.66546	26462.16071
855.49504	26440.875
859.32195	26536.30357
863.1462	26570.73214
866.96777	26555.30357
870.78668	26552.16071
874.60293	26547.16071
878.41652	26506.01786
882.22745	26598.01786
886.03573	26642.30357
889.84136	26599.44643
893.64433	26514.58929
897.44466	26400.58929
901.24235	26289.16071
905.0374	26171.16071
908.8298	26163.01786
912.61957	26042.16071
916.40671	26133.44643
920.19121	26286.30357
923.97308	26469.875
927.75233	26666.44643
931.52895	26811.58929
935.30295	26716.30357
939.07433	26432.01786
942.84309	26150.875
946.60924	26025.73214
950.37278	25846.16071
954.13371	25753.73214
957.89203	25590.58929
961.64774	25501.01786
965.40086	25358.44643
969.15137	25286.01786
972.89929	25194.30357
976.64461	25257.73214
980.38733	25305.58929
984.12747	25401.16071
987.86502	25558.16071
991.59999	25871.875
995.33237	26243.30357
999.06217	26803.73214
1002.78939	27405.30357
1006.51404	27780.16071
1010.23611	27888.01786
1013.95561	28032.01786
1017.67255	28131.875
1021.38692	28022.44643
1025.09872	27839.01786
1028.80796	28129.73214
1032.51465	28807.875
1036.21877	29396.58929
1039.92035	29483.30357
1043.61937	29141.01786
1047.31584	28580.44643
1051.00976	27907.44643
1054.70114	27460.30357
1058.38998	27280.73214
1062.07627	27244.16071
1065.76003	27226.73214
1069.44126	27141.73214
1073.11995	27189.44643
1076.79611	27420.58929
1080.46974	27597.16071
1084.14085	27818.01786
1087.80943	28056.875
1091.47549	28153.73214
1095.13903	27999.73214
1098.80005	27648.16071
1102.45857	27415.01786
1106.11456	27322.44643
1109.76805	27511.30357
1113.41903	27809.58929
1117.06751	28099.73214
1120.71348	28548.58929
1124.35696	28956.73214
1127.99793	29386.73214
1131.63641	29397.44643
1135.2724	28972.44643
1138.90589	28493.01786
1142.5369	28082.44643
1146.16542	27698.73214
1149.79145	27502.875
1153.415	27419.44643
1157.03607	27444.73214
1160.65467	27702.16071
1164.27079	28268.875
1167.88443	29091.16071
1171.49561	30196.01786
1175.10432	31847.58929
1178.71056	34027.58929
1182.31434	36205.58929
1185.91565	37239.58929
1189.51451	36963.44643
1193.11091	35618.01786
1196.70485	33921.16071
1200.29634	32722.73214
1203.88538	31755.73214
1207.47197	30998.16071
1211.05612	30196.73214
1214.63782	29776.875
1218.21708	29728.16071
1221.79391	29905.30357
1225.36829	30080.01786
1228.94024	29975.73214
1232.50976	29583.44643
1236.07685	29304.16071
1239.6415	29206.73214
1243.20374	29285.44643
1246.76355	29523.30357
1250.32093	29831.73214
1253.8759	30324.16071
1257.42845	30854.58929
1260.97859	31424.16071
1264.52631	31895.30357
1268.07163	32426.875
1271.61453	33026.44643
1275.15503	33674.16071
1278.69312	34312.01786
1282.22882	34748.58929
1285.76211	35196.73214
1289.29301	35618.16071
1292.82151	36133.58929
1296.34761	36891.73214
1299.87133	38211.73214
1303.39266	40205.01786
1306.9116	42954.30357
1310.42815	45776.16071
1313.94233	47210.44643
1317.45412	46357.01786
1320.96354	44261.01786
1324.47058	41860.30357
1327.97525	39939.44643
1331.47754	38605.16071
1334.97747	38064.73214
1338.47502	38371.875
1341.97022	39009.16071
1345.46305	39765.875
1348.95352	40770.44643
1352.44163	42117.73214
1355.92738	44325.44643
1359.41078	47605.01786
1362.89183	50412.875
1366.37053	49185.44643
1369.84688	44185.44643
1373.32088	39149.58929
1376.79254	35900.30357
1380.26186	34199.58929
1383.72883	33384.16071
1387.19347	32793.30357
1390.65578	32119.16071
1394.11575	31699.73214
1397.57339	31612.58929
1401.0287	31880.16071
1404.48168	32190.58929
1407.93234	32442.58929
1411.38068	32811.01786
1414.82669	32975.58929
1418.27039	32835.16071
1421.71177	32378.875
1425.15083	31861.58929
1428.58758	31524.875
1432.02203	31641.16071
1435.45416	31907.875
1438.88399	32136.16071
1442.31151	32209.01786
1445.73673	32298.16071
1449.15965	32445.73214
1452.58027	32464.73214
1455.9986	32276.01786
1459.41463	32263.16071
1462.82837	32444.875
1466.23982	32916.16071
1469.64898	33487.16071
1473.05586	33960.30357
1476.46045	34227.875
1479.86276	34477.01786
1483.26279	34663.30357
1486.66054	34963.16071
1490.05602	35311.875
1493.44922	35886.73214
1496.84016	36532.73214
1500.22882	37652.30357
1503.61521	39388.58929
1506.99934	41759.44643
1510.38121	43585.73214
1513.76081	43909.875
1517.13816	42102.16071
1520.51324	39319.58929
1523.88607	36766.58929
1527.25665	35068.58929
1530.62498	34195.58929
1533.99105	33671.16071
1537.35488	33414.30357
1540.71647	33345.73214
1544.07581	33284.58929
1547.4329	33266.16071
1550.78776	33181.44643
1554.14038	33116.01786
1557.49077	33143.16071
1560.83892	33164.01786
1564.18484	33354.30357
1567.52853	33597.44643
1570.86999	33815.73214
1574.20922	33955.01786
1577.54624	33896.58929
1580.88103	33358.30357
1584.2136	32684.875
1587.54395	32673.01786
1590.87208	33430.01786
1594.19801	34997.44643
1597.52172	36992.73214
1600.84321	38026.73214
1604.16251	37416.875
1607.47959	35649.16071
1610.79447	33588.16071
1614.10715	31646.73214
1617.41763	30194.58929
1620.7259	29240.01786
1624.03199	28763.30357
1627.33587	28764.58929
1630.63757	29298.58929
1633.93707	30198.01786
1637.23439	31597.01786
1640.52951	33305.30357
1643.82246	35491.875
1647.11321	37591.58929
1650.40179	38440.01786
1653.68819	36956.73214
1656.97241	33789.30357
1660.25446	30590.875
1663.53433	28439.73214
1666.81203	27112.01786
1670.08756	26306.44643
1673.36092	25763.16071
1676.63211	25392.73214
1679.90115	25097.01786
1683.16801	24929.16071
1686.43272	24792.73214
1689.69527	24655.16071
1692.95567	24561.30357
1696.2139	24510.30357
1699.46999	24470.16071
1702.72392	24409.30357
1705.97571	24394.30357
1709.22535	24364.875
1712.47284	24379.58929
1715.71819	24371.58929
1718.96139	24351.58929
1722.20246	24270.30357
1725.44139	24186.01786
1728.67818	24177.44643
1731.91284	24043.73214
1735.14537	23968.16071
1738.37576	23916.875
1741.60403	23859.875
1744.83017	23795.73214
1748.05418	23776.73214
1751.27607	23807.58929
1754.49584	23736.30357
1757.71349	23728.58929
1760.92903	23696.73214
1764.14244	23698.01786
1767.35375	23696.30357
1770.56294	23560.58929
1773.77002	23574.44643
1776.97499	23567.01786
1780.17785	23544.16071
1783.37861	23524.875
1786.57727	23481.58929
1789.77382	23423.16071
1792.96828	23405.16071
1796.16064	23388.875
1799.3509	23371.44643
1802.53907	23307.01786
1805.72514	23314.30357
1808.90913	23267.30357
1812.09102	23266.44643
1815.27083	23169.58929
1818.44856	23172.16071
1821.6242	23137.01786
1824.79776	23112.875
1827.96924	23036.58929
1831.13864	23032.01786
1834.30597	23051.01786
1837.47122	23049.01786
1840.6344	23004.73214
1843.7955	23056.875
1846.95454	23001.16071
1850.11151	22975.16071
1853.26642	22975.58929
1856.41926	22961.58929
1859.57004	22922.58929
1862.71876	22929.16071
1865.86542	22911.58929
1869.01003	22966.16071
1872.15258	22940.30357
1875.29308	22954.16071
1878.43152	22876.30357
1881.56792	22904.44643
1884.70227	22908.58929
1887.83457	22864.16071
1890.96482	22876.01786
1894.09304	22800.16071
1897.21921	22825.01786
1900.34335	22833.73214
1903.46544	22829.73214
1906.58551	22754.16071
1909.70353	22748.58929
1912.81953	22704.44643
1915.93349	22664.875
1919.04543	22712.875
1922.15534	22686.30357
1925.26322	22618.30357
1928.36908	22606.875
1931.47292	22535.01786
1934.57473	22520.875
1937.67453	22471.73214
1940.77232	22429.875
1943.86808	22394.73214
1946.96184	22282.875
1950.05358	22266.73214
1953.14331	22236.58929
1956.23103	22195.73214
1959.31675	22200.58929
1962.40046	22052.01786
1965.48217	22074.73214
1968.56188	21986.30357
1971.63959	21926.01786
1974.7153	21903.875
1977.78901	21789.44643
1980.86073	21742.16071
1983.93046	21692.58929
1986.99819	21602.58929
1990.06394	21562.01786
1993.1277	21529.58929
1996.18947	21411.30357
1999.24925	21386.44643
2002.30706	21293.58929
2005.36288	21263.01786
2008.41672	21226.58929
2011.46859	21160.30357
2014.51848	21123.16071
2017.56639	21059.01786
2020.61233	21026.44643
2023.6563	20960.30357
2026.6983	20888.58929
2029.73833	20923.44643
2032.7764	20873.73214
2035.8125	20886.875
2038.84664	20813.01786
2041.87881	20771.73214
2044.90903	20720.01786
2047.93729	20701.44643
2050.96359	20708.30357
2053.98794	20708.58929
2057.01034	20662.30357
2060.03078	20635.01786
2063.04927	20583.30357
2066.06582	20589.58929
2069.08042	20605.58929
2072.09307	20630.16071
2075.10378	20572.01786
2078.11255	20580.875
2081.11938	20601.73214
2084.12426	20558.01786
2087.12722	20560.875
2090.12824	20555.01786
2093.12732	20526.30357
2096.12447	20546.44643
2099.11969	20540.73214
2102.11299	20601.73214
2105.10435	20593.01786
2108.09379	20584.44643
2111.08131	20620.16071
2114.0669	20603.44643
2117.05057	20648.73214
2120.03233	20650.44643
2123.01216	20694.01786
2125.99008	20692.58929
2128.96609	20769.73214
2131.94018	20765.16071
2134.91236	20807.01786
2137.88263	20792.875
2140.851	20788.73214
2143.81746	20810.44643
2146.78201	20903.73214
2149.74466	20831.58929
2152.7054	20883.58929
2155.66425	20881.16071
2158.6212	20840.875
2161.57625	20828.16071
2164.52941	20825.58929
2167.48067	20802.73214
2170.43004	20777.73214
2173.37752	20829.73214
2176.32311	20813.73214
2179.26681	20798.01786
2182.20863	20857.30357
2185.14856	20898.30357
2188.08661	20872.16071
2191.02278	20862.73214
2193.95707	20868.58929
2196.88948	20867.58929
2199.82001	20856.875
2202.74867	20876.01786
2205.67545	20876.875
2208.60037	20819.875
2211.52341	20772.16071
2214.44458	20769.16071
2217.36388	20733.44643
2220.28132	20754.44643
2223.1969	20677.30357
2226.11061	20661.16071
2229.02246	20614.44643
2231.93245	20595.73214
2234.84058	20545.73214
2237.74686	20479.73214
2240.65128	20502.58929
2243.55385	20503.16071
2246.45456	20509.58929
2249.35343	20489.01786
2252.25044	20445.73214
2255.14561	20427.30357
2258.03893	20387.73214
2260.93041	20376.30357
2263.82004	20296.44643
2266.70783	20231.44643
2269.59378	20226.875
2272.4779	20203.16071
2275.36017	20180.16071
2278.24061	20121.16071
2281.11922	20050.44643
2283.996	20100.16071
2286.87094	20085.30357
2289.74405	20027.875
2292.61534	20028.01786
2295.4848	20013.875
2298.35243	20012.73214
2301.21824	20028.01786
2304.08223	20025.73214
2306.94439	20005.01786
2309.80474	19999.73214
2312.66327	20068.58929
2315.51999	20048.16071
2318.37489	20053.73214
2321.22797	20037.58929
2324.07925	19994.44643
2326.92871	19968.01786
2329.77637	19925.58929
2332.62222	19931.30357
2335.46626	19927.44643
2338.3085	19916.875
2341.14893	19934.16071
2343.98756	19908.16071
2346.8244	19925.58929
2349.65943	19904.30357
2352.49267	19886.01786
2355.32411	19932.30357
2358.15376	19912.16071
2360.98161	19846.58929
2363.80768	19850.875
2366.63195	19771.875
2369.45444	19767.73214
2372.27514	19756.875
2375.09405	19692.44643
2377.91118	19665.875
2380.72652	19650.44643
2383.54009	19561.44643
2386.35187	19578.01786
2389.16188	19530.73214
2391.97011	19513.58929
2394.77657	19459.58929
2397.58125	19471.73214
2400.38416	19455.875
2403.18529	19407.73214
2405.98466	19360.44643
2408.78226	19349.16071
2411.57809	19294.73214
2414.37216	19254.73214
2417.16446	19289.73214
2419.955	19260.30357
2422.74378	19238.58929
2425.5308	19177.30357
2428.31606	19171.01786
2431.09956	19161.01786
2433.88131	19171.73214
2436.6613	19157.16071
2439.43954	19120.73214
2442.21603	19173.875
2444.99077	19150.30357
2447.76377	19141.44643
2450.53501	19143.01786
2453.30451	19118.44643
2456.07226	19104.44643
2458.83827	19087.30357
2461.60254	19024.73214
2464.36507	19038.30357
2467.12586	19013.875
2469.88492	19001.16071
2472.64224	19017.16071
2475.39782	19045.73214
2478.15167	19076.16071
2480.90379	19078.16071
2483.65417	19071.875
2486.40283	19117.16071
2489.14976	19115.30357
2491.89497	19132.875
2494.63845	19119.30357
2497.3802	19121.30357
2500.12024	19075.44643
2502.85855	19078.01786
2505.59514	19076.16071
2508.33002	19017.30357
2511.06318	18954.44643
2513.79462	18958.30357
2516.52435	18914.30357
2519.25237	18927.16071
2521.97867	18880.58929
2524.70327	18887.16071
2527.42616	18872.30357
2530.14734	18855.30357
2532.86681	18792.16071
2535.58458	18835.73214
2538.30065	18803.01786
2541.01501	18818.16071
2543.72768	18792.58929
2546.43864	18766.30357
2549.14791	18756.30357
2551.85548	18752.16071
2554.56136	18754.73214
2557.26554	18653.73214
2559.96803	18662.44643
2562.66883	18650.01786
2565.36794	18616.01786
2568.06536	18580.875
2570.7611	18545.44643
2573.45514	18537.30357
2576.14751	18527.01786
2578.83819	18521.875
2581.52719	18526.44643
2584.21451	18461.16071
2586.90015	18461.16071
2589.58411	18452.44643
2592.2664	18457.44643
2594.94701	18395.875
2597.62594	18382.16071
2600.30321	18356.16071
2602.9788	18366.16071
2605.65273	18363.58929
2608.32498	18384.16071
2610.99557	18323.30357
2613.66449	18331.30357
2616.33175	18307.01786
2618.99734	18342.01786
2621.66128	18320.30357
2624.32355	18281.875
2626.98416	18306.01786
2629.64311	18242.16071
2632.30041	18262.16071
2634.95605	18254.875
2637.61004	18221.875
2640.26238	18226.44643
2642.91306	18166.73214
2645.56209	18205.58929
2648.20948	18192.01786
2650.85521	18143.01786
2653.4993	18127.16071
2656.14175	18105.73214
2658.78255	18090.875
2661.42171	18117.875
2664.05923	18141.58929
2666.6951	18153.30357
2669.32934	18157.875
2671.96194	18213.30357
2674.59291	18199.44643
2677.22224	18170.58929
2679.84993	18174.875
2682.476	18112.73214
2685.10043	18161.73214
2687.72324	18095.30357
2690.34441	18097.30357
2692.96396	18074.73214
2695.58188	18134.875
2698.19818	18077.01786
2700.81285	18038.30357
2703.4259	18033.30357
2706.03733	18092.01786
2708.64714	18090.58929
2711.25533	18125.44643
2713.86191	18099.73214
2716.46687	18132.875
2719.07021	18130.875
2721.67194	18103.58929
2724.27206	18128.44643
2726.87057	18182.875
2729.46747	18176.30357
2732.06276	18129.16071
2734.65644	18114.16071
2737.24852	18109.73214
2739.83899	18075.73214
2742.42786	18099.30357
2745.01513	18024.73214
2747.60079	18034.16071
2750.18486	18000.30357
2752.76733	18013.73214
2755.3482	17990.44643
2757.92747	18034.875
2760.50515	18040.58929
2763.08123	18040.44643
2765.65573	18003.16071
2768.22863	17955.73214
2770.79994	17968.58929
2773.36967	17932.58929
2775.9378	17904.58929
2778.50435	17896.01786
2781.06932	17883.58929
2783.6327	17907.73214
2786.1945	17862.16071
2788.75471	17866.875
2791.31335	17835.01786
2793.87041	17792.73214
2796.42589	17772.16071
2798.97979	17774.875
2801.53212	17750.16071
2804.08288	17729.58929
2806.63206	17709.01786
2809.17967	17650.875
2811.72571	17612.875
2814.27018	17634.01786
2816.81308	17588.875
2819.35442	17582.73214
2821.89419	17516.30357
2824.43239	17481.58929
2826.96904	17499.44643
2829.50412	17494.16071
2832.03763	17439.30357
2834.56959	17453.30357
2837.1	17454.01786
2839.62884	17441.30357
2842.15613	17396.875
2844.68186	17390.16071
2847.20604	17414.01786
2849.72867	17426.44643
2852.24974	17399.01786
2854.76927	17387.16071
2857.28724	17395.01786
2859.80367	17380.44643
2862.31855	17313.73214
2864.83189	17339.44643
2867.34368	17266.01786
2869.85393	17302.58929
2872.36264	17302.16071
2874.8698	17315.01786
2877.37543	17305.01786
2879.87952	17289.44643
2882.38207	17306.01786
2884.88308	17276.58929
2887.38256	17296.875
2889.88051	17363.30357
2892.37692	17324.73214
2894.8718	17334.58929
2897.36515	17348.73214
2899.85698	17375.44643
2902.34727	17419.58929
2904.83604	17424.58929
2907.32328	17431.44643
2909.809	17447.44643
2912.29319	17446.58929
2914.77587	17443.16071
2917.25702	17450.875
2919.73665	17433.30357
2922.21476	17476.58929
2924.69136	17404.875
2927.16644	17433.01786
2929.64	17410.01786
2932.11205	17396.875
2934.58258	17333.73214
2937.05161	17377.58929
2939.51912	17393.58929
2941.98513	17382.875
2944.44962	17376.875
2946.91261	17274.73214
2949.37409	17335.44643
2951.83407	17340.01786
2954.29254	17334.875
2956.74951	17297.16071
2959.20498	17318.01786
2961.65895	17267.58929
2964.11142	17243.44643
2966.56239	17222.44643
2969.01186	17230.875
2971.45984	17172.58929
2973.90632	17143.16071
2976.35131	17106.73214
2978.7948	17062.01786
2981.23681	17048.16071
2983.67732	17048.58929
2986.11635	17003.44643
2988.55388	16980.58929
2990.98993	16952.30357
2993.4245	16955.30357
2995.85758	16926.44643
2998.28917	16871.875
3000.71928	16883.875
3003.14791	16882.16071
3005.57506	16829.875
3008.00073	16794.73214
3010.42493	16790.73214
3012.84764	16767.58929
3015.26888	16728.01786
3017.68865	16723.875
3020.10694	16689.875
3022.52376	16683.30357
3024.9391	16674.30357
3027.35298	16619.44643
3029.76539	16626.875
3032.17632	16610.73214
3034.5858	16556.875
3036.9938	16567.16071
3039.40034	16555.01786
3041.80542	16545.16071
3044.20903	16517.44643
3046.61118	16478.875
3049.01187	16470.30357
3051.4111	16494.01786
3053.80888	16422.30357
3056.20519	16409.16071
3058.60005	16403.16071
3060.99345	16394.73214
3063.3854	16335.01786
3065.7759	16251.875
3068.16494	16210.44643
3070.55254	16216.875
3072.93868	16198.73214
3075.32338	16147.875
3077.70662	16155.30357
3080.08842	16100.01786
3082.46878	16092.44643
3084.84769	16036.875
3087.22515	16077.875
3089.60118	16051.875
3091.97576	16093.16071
3094.3489	16128.73214
3096.72061	16084.30357
3099.09087	16068.73214
3101.4597	16089.30357
3103.82709	16087.30357
3106.19305	16056.01786
3108.55757	16115.01786
3110.92066	16069.30357
3113.28232	16051.875
3115.64255	16013.01786
3118.00134	15977.58929
3120.35871	15976.73214
3122.71466	15906.73214
3125.06917	15937.73214
3127.42226	15852.875
3129.77393	15875.58929
3132.12417	15861.44643
3134.47299	15846.875
3136.82039	15868.58929
3139.16636	15885.875
3141.51092	15857.16071
3143.85406	15870.30357
3146.19579	15900.44643
3148.53609	15887.73214
3150.87499	15910.58929
3153.21246	15896.44643
3155.54853	15950.875
3157.88318	15947.58929
3160.21642	15938.58929
3162.54826	15964.58929
3164.87868	15966.01786
3167.2077	15962.30357
3169.5353	15949.16071
3171.86151	16000.16071
3174.18631	15980.01786
3176.5097	15948.875
3178.83169	15915.16071
3181.15228	15956.73214
3183.47147	15893.16071
3185.78926	15905.875
3188.10565	15899.01786
3190.42065	15901.875
3192.73424	15893.875
3195.04645	15863.73214
3197.35725	15888.875
3199.66667	15873.16071
3201.97469	15878.44643
3204.28132	15904.30357
3206.58656	15906.44643
3208.8904	15914.73214
3211.19287	15930.16071
3213.49394	15940.30357
3215.79363	15976.30357
3218.09193	15967.16071
3220.38884	15966.58929
3222.68438	15996.58929
3224.97853	15994.16071
3227.2713	16005.58929
3229.56269	15943.44643
3231.8527	15972.30357
3234.14133	15966.01786
3236.42858	15908.58929
3238.71446	15864.01786
3240.99896	15852.44643
3243.28209	15854.58929
3245.56384	15830.73214
3247.84423	15860.01786
3250.12324	15827.73214
3252.40088	15824.30357
3254.67715	15821.58929
3256.95205	15801.16071
3259.22558	15845.875
3261.49775	15785.16071
3263.76855	15825.16071
3266.03799	15759.44643
3268.30606	15793.44643
3270.57277	15789.58929
3272.83812	15743.16071
3275.10211	15686.875
3277.36474	15680.58929
3279.62601	15670.16071
3281.88593	15667.73214
3284.14448	15633.58929
3286.40168	15667.01786
3288.65753	15650.73214
3290.91202	15635.73214
3293.16516	15602.16071
3295.41695	15572.875
3297.66738	15513.30357
3299.91647	15435.16071
3302.16421	15375.44643
3304.4106	15288.58929
3306.65564	15201.875
3308.89933	15110.44643
3311.14169	15009.44643
3313.38269	14919.44643
3315.62236	14809.875
3317.86068	14709.58929
3320.09766	14602.875
3322.3333	14515.44643
3324.5676	14469.73214
3326.80056	14263.30357
3329.03219	14201.16071
3331.26248	3.30357
3333.49143	-1.125
3335.71905	-1.125
