Data from AgNPs_FTO_APTES_UA_10uM_CRN_50uM_R6G_10uM_NaF_0.1M_Addition_RamanShift__1__16-36-34-807.txt Node

Date: Thu Feb 17 16:36:34 GMT 2022
User: TCL
Spectrometer: QEP01345
Trigger mode: 4
Integration Time (sec): 1.000000E1
Scans to average: 7
Electric dark correction enabled: true
Nonlinearity correction enabled: false
Boxcar width: 0
XAxis mode: Raman Shifts
Number of Pixels in Spectrum: 1044
>>>>>Begin Spectral Data<<<<<
46.04893	-1.01786
50.45542	-0.44643
54.85868	0.83929
59.25871	-1.44643
63.6555	83.26786
68.04907	88.69643
72.43941	93.41071
76.82654	92.41071
81.21044	100.69643
85.59113	104.55357
89.96862	109.26786
94.34289	109.26786
98.71396	115.41071
103.08183	121.98214
107.4465	129.125
111.80798	122.55357
116.16626	130.55357
120.52136	132.98214
124.87327	142.41071
129.222	145.98214
133.56755	150.55357
137.90993	166.41071
142.24913	181.98214
146.58517	209.125
150.91804	236.125
155.24774	277.98214
159.57429	344.26786
163.89768	441.125
168.21792	590.26786
172.53501	820.55357
176.84895	1148.125
181.15975	1626.26786
185.46741	2289.83929
189.77193	3183.41071
194.07331	4290.26786
198.37157	5552.98214
202.6667	6899.98214
206.9587	8235.125
211.24758	9579.98214
215.53334	10901.55357
219.81599	12338.55357
224.09553	13958.69643
228.37195	15659.98214
232.64527	17591.26786
236.91549	19557.26786
241.18261	21420.26786
245.44663	22957.83929
249.70755	24338.98214
253.96539	25530.69643
258.22014	26511.55357
262.4718	27410.26786
266.72039	27962.98214
270.96589	28213.41071
275.20832	28095.41071
279.44768	27726.125
283.68397	27241.41071
287.91719	26885.125
292.14735	26728.26786
296.37445	26944.125
300.59849	27539.55357
304.81948	28342.41071
309.03742	28947.83929
313.25231	29149.83929
317.46415	28568.41071
321.67296	27453.69643
325.87872	26388.26786
330.08145	25830.83929
334.28114	25816.125
338.47781	26134.125
342.67145	26674.125
346.86207	27416.41071
351.04966	28393.41071
355.23424	29412.83929
359.4158	30148.55357
363.59435	30591.26786
367.76989	30686.83929
371.94243	30597.83929
376.11196	30512.55357
380.27849	30353.98214
384.44203	30314.55357
388.60257	30305.125
392.76012	30397.55357
396.91468	30773.125
401.06626	31265.98214
405.21485	31641.55357
409.36047	31256.83929
413.50311	30319.98214
417.64277	29446.83929
421.77947	28911.69643
425.9132	28728.41071
430.04396	28667.125
434.17176	28713.41071
438.2966	28958.69643
442.41849	29423.83929
446.53742	30142.26786
450.6534	30862.41071
454.76644	31216.83929
458.87653	31313.69643
462.98368	31063.98214
467.08789	30750.98214
471.18916	30317.98214
475.2875	29734.83929
479.38291	29201.55357
483.4754	28904.98214
487.56496	28614.98214
491.6516	28569.26786
495.73531	28552.55357
499.81612	28694.69643
503.89401	28852.125
507.96899	29054.125
512.04106	29100.55357
516.11023	29315.55357
520.1765	29529.98214
524.23987	29628.41071
528.30034	29579.83929
532.35792	29436.41071
536.41261	29169.125
540.46441	28702.98214
544.51333	28481.26786
548.55936	28538.55357
552.60252	28942.98214
556.64279	29471.98214
560.6802	29738.98214
564.71473	29804.98214
568.7464	30206.69643
572.7752	30441.26786
576.80114	30093.69643
580.82422	29968.98214
584.84444	30374.125
588.86181	31058.83929
592.87633	31599.98214
596.888	31951.26786
600.89682	32186.55357
604.9028	33923.41071
608.90594	39596.55357
612.90624	46771.55357
616.90371	44873.41071
620.89834	35077.26786
624.89015	30467.26786
628.87913	29716.125
632.86528	29975.26786
636.84862	30203.69643
640.82913	29815.69643
644.80683	28904.83929
648.78172	28237.69643
652.75379	28247.98214
656.72306	28932.26786
660.68952	29801.26786
664.65319	29590.26786
668.61405	28799.55357
672.57211	28575.98214
676.52738	28658.26786
680.47986	28529.83929
684.42955	28264.83929
688.37646	28122.26786
692.32058	28267.83929
696.26192	28539.41071
700.20048	28863.98214
704.13626	28986.125
708.06928	28846.83929
711.99952	28622.41071
715.927	28559.83929
719.85171	28710.125
723.77365	28754.125
727.69284	28540.41071
731.60928	28362.55357
735.52295	28265.26786
739.43388	28340.26786
743.34206	28432.55357
747.24749	28412.98214
751.15017	28448.69643
755.05012	28753.83929
758.94733	29510.41071
762.8418	31508.69643
766.73354	34972.125
770.62254	38346.98214
774.50882	39631.55357
778.39237	38205.98214
782.27321	35000.125
786.15132	31749.26786
790.02671	29749.125
793.89938	28810.125
797.76935	28452.125
801.6366	28247.83929
805.50115	28129.125
809.36299	27985.69643
813.22213	27809.98214
817.07857	27805.125
820.93231	27727.98214
824.78336	27763.26786
828.63172	27860.69643
832.47738	27833.69643
836.32036	27893.125
840.16066	27858.41071
843.99827	27915.98214
847.8332	27877.98214
851.66546	27791.69643
855.49504	27771.55357
859.32195	27811.26786
863.1462	27754.26786
866.96777	27756.55357
870.78668	27719.55357
874.60293	27776.41071
878.41652	27859.125
882.22745	27979.98214
886.03573	28132.26786
889.84136	28107.69643
893.64433	27993.41071
897.44466	27831.41071
901.24235	27726.41071
905.0374	27650.98214
908.8298	27463.69643
912.61957	27387.41071
916.40671	27492.41071
920.19121	27609.55357
923.97308	27909.26786
927.75233	28278.55357
931.52895	28501.41071
935.30295	28351.125
939.07433	27803.41071
942.84309	27308.55357
946.60924	27083.55357
950.37278	26987.83929
954.13371	26896.55357
957.89203	26783.55357
961.64774	26706.98214
965.40086	26684.26786
969.15137	26612.26786
972.89929	26621.83929
976.64461	26695.26786
980.38733	26702.41071
984.12747	26778.98214
987.86502	26996.98214
991.59999	27252.98214
995.33237	27568.41071
999.06217	28122.125
1002.78939	28688.98214
1006.51404	29135.41071
1010.23611	29430.69643
1013.95561	29592.55357
1017.67255	29576.125
1021.38692	29437.41071
1025.09872	29168.98214
1028.80796	29258.69643
1032.51465	29724.98214
1036.21877	30354.69643
1039.92035	30544.83929
1043.61937	30433.55357
1047.31584	30009.69643
1051.00976	29488.41071
1054.70114	29094.55357
1058.38998	28968.41071
1062.07627	28915.125
1065.76003	28978.69643
1069.44126	29168.55357
1073.11995	29525.98214
1076.79611	30012.55357
1080.46974	30471.125
1084.14085	30944.125
1087.80943	31275.41071
1091.47549	31355.69643
1095.13903	31051.125
1098.80005	30378.69643
1102.45857	29887.83929
1106.11456	29605.69643
1109.76805	29693.83929
1113.41903	29944.98214
1117.06751	30387.41071
1120.71348	31003.26786
1124.35696	31734.83929
1127.99793	32449.98214
1131.63641	32440.69643
1135.2724	31632.125
1138.90589	30829.26786
1142.5369	30329.125
1146.16542	29969.55357
1149.79145	29668.125
1153.415	29581.83929
1157.03607	29622.69643
1160.65467	29999.125
1164.27079	30823.98214
1167.88443	31994.26786
1171.49561	33808.98214
1175.10432	36452.125
1178.71056	39961.69643
1182.31434	42971.55357
1185.91565	44139.125
1189.51451	43584.26786
1193.11091	41793.83929
1196.70485	39622.125
1200.29634	37798.98214
1203.88538	36227.83929
1207.47197	34690.125
1211.05612	33191.83929
1214.63782	32354.41071
1218.21708	31971.83929
1221.79391	31984.26786
1225.36829	32138.125
1228.94024	32103.69643
1232.50976	31831.98214
1236.07685	31547.26786
1239.6415	31447.125
1243.20374	31448.69643
1246.76355	31718.41071
1250.32093	32133.125
1253.8759	32672.55357
1257.42845	33375.83929
1260.97859	34255.69643
1264.52631	35195.41071
1268.07163	36174.98214
1271.61453	37106.69643
1275.15503	37987.83929
1278.69312	38523.98214
1282.22882	38938.98214
1285.76211	39567.125
1289.29301	40337.125
1292.82151	41396.41071
1296.34761	42538.83929
1299.87133	44324.83929
1303.39266	47240.55357
1306.9116	51207.26786
1310.42815	55407.69643
1313.94233	57445.41071
1317.45412	55875.98214
1320.96354	52508.98214
1324.47058	48981.98214
1327.97525	45928.26786
1331.47754	43863.83929
1334.97747	42825.41071
1338.47502	42590.41071
1341.97022	42879.98214
1345.46305	44108.69643
1348.95352	46319.98214
1352.44163	49411.83929
1355.92738	53371.98214
1359.41078	58717.83929
1362.89183	63496.55357
1366.37053	61842.55357
1369.84688	53983.69643
1373.32088	45980.55357
1376.79254	41110.125
1380.26186	38820.26786
1383.72883	37566.26786
1387.19347	36569.26786
1390.65578	35396.55357
1394.11575	34360.83929
1397.57339	33888.41071
1401.0287	33692.55357
1404.48168	33552.98214
1407.93234	33497.55357
1411.38068	33659.41071
1414.82669	33844.41071
1418.27039	33911.83929
1421.71177	33708.69643
1425.15083	33332.125
1428.58758	33018.69643
1432.02203	33294.125
1435.45416	33800.41071
1438.88399	34181.125
1442.31151	34120.26786
1445.73673	34202.125
1449.15965	34199.55357
1452.58027	34058.26786
1455.9986	33849.41071
1459.41463	33780.41071
1462.82837	34081.69643
1466.23982	34691.41071
1469.64898	35366.41071
1473.05586	35967.41071
1476.46045	36397.41071
1479.86276	36843.55357
1483.26279	37347.83929
1486.66054	38080.83929
1490.05602	39191.41071
1493.44922	40687.83929
1496.84016	42841.69643
1500.22882	46235.55357
1503.61521	50869.41071
1506.99934	55987.69643
1510.38121	59867.98214
1513.76081	60187.83929
1517.13816	56136.55357
1520.51324	49906.41071
1523.88607	44464.41071
1527.25665	41031.55357
1530.62498	39241.98214
1533.99105	38134.98214
1537.35488	37383.98214
1540.71647	36802.125
1544.07581	36385.26786
1547.4329	35997.55357
1550.78776	35742.41071
1554.14038	35726.83929
1557.49077	35928.41071
1560.83892	36333.98214
1564.18484	37064.83929
1567.52853	37959.83929
1570.86999	38798.69643
1574.20922	39283.83929
1577.54624	39165.26786
1580.88103	37864.125
1584.2136	36198.125
1587.54395	35420.69643
1590.87208	35887.26786
1594.19801	37463.83929
1597.52172	39630.69643
1600.84321	40657.125
1604.16251	39897.41071
1607.47959	38141.26786
1610.79447	36062.26786
1614.10715	33893.69643
1617.41763	32135.41071
1620.7259	30943.26786
1624.03199	30410.98214
1627.33587	30427.41071
1630.63757	31034.26786
1633.93707	32107.55357
1637.23439	34024.69643
1640.52951	37084.55357
1643.82246	41470.26786
1647.11321	46240.125
1650.40179	48860.26786
1653.68819	46910.83929
1656.97241	41430.55357
1660.25446	35708.55357
1663.53433	31844.98214
1666.81203	29556.55357
1670.08756	28290.26786
1673.36092	27445.26786
1676.63211	26966.26786
1679.90115	26596.41071
1683.16801	26305.55357
1686.43272	26011.98214
1689.69527	25928.55357
1692.95567	25804.98214
1696.2139	25748.125
1699.46999	25652.69643
1702.72392	25638.26786
1705.97571	25584.83929
1709.22535	25668.69643
1712.47284	25658.98214
1715.71819	25611.26786
1718.96139	25552.26786
1722.20246	25538.55357
1725.44139	25417.69643
1728.67818	25326.83929
1731.91284	25206.69643
1735.14537	25117.83929
1738.37576	25003.98214
1741.60403	24889.55357
1744.83017	24837.26786
1748.05418	24840.69643
1751.27607	24801.69643
1754.49584	24724.125
1757.71349	24720.83929
1760.92903	24680.26786
1764.14244	24683.125
1767.35375	24665.98214
1770.56294	24623.26786
1773.77002	24547.69643
1776.97499	24495.26786
1780.17785	24537.98214
1783.37861	24459.41071
1786.57727	24403.125
1789.77382	24373.69643
1792.96828	24357.125
1796.16064	24312.69643
1799.3509	24214.55357
1802.53907	24219.41071
1805.72514	24154.55357
1808.90913	24122.125
1812.09102	24054.69643
1815.27083	24020.55357
1818.44856	24055.55357
1821.6242	23991.69643
1824.79776	23923.98214
1827.96924	23898.83929
1831.13864	23884.69643
1834.30597	23828.55357
1837.47122	23875.26786
1840.6344	23828.69643
1843.7955	23842.41071
1846.95454	23848.83929
1850.11151	23789.69643
1853.26642	23783.125
1856.41926	23749.69643
1859.57004	23757.83929
1862.71876	23727.98214
1865.86542	23758.26786
1869.01003	23699.125
1872.15258	23735.69643
1875.29308	23711.125
1878.43152	23706.83929
1881.56792	23694.98214
1884.70227	23693.69643
1887.83457	23667.98214
1890.96482	23587.83929
1894.09304	23565.98214
1897.21921	23553.69643
1900.34335	23541.125
1903.46544	23513.26786
1906.58551	23529.41071
1909.70353	23478.83929
1912.81953	23508.26786
1915.93349	23443.69643
1919.04543	23380.55357
1922.15534	23370.55357
1925.26322	23316.69643
1928.36908	23336.41071
1931.47292	23231.55357
1934.57473	23201.69643
1937.67453	23169.98214
1940.77232	23114.69643
1943.86808	23045.41071
1946.96184	22972.41071
1950.05358	22961.26786
1953.14331	22915.69643
1956.23103	22838.98214
1959.31675	22818.98214
1962.40046	22741.55357
1965.48217	22741.98214
1968.56188	22677.41071
1971.63959	22620.41071
1974.7153	22561.83929
1977.78901	22507.69643
1980.86073	22432.98214
1983.93046	22340.55357
1986.99819	22281.125
1990.06394	22203.98214
1993.1277	22167.55357
1996.18947	22074.41071
1999.24925	22003.69643
2002.30706	21942.55357
2005.36288	21899.41071
2008.41672	21813.98214
2011.46859	21779.26786
2014.51848	21729.125
2017.56639	21722.41071
2020.61233	21599.98214
2023.6563	21595.41071
2026.6983	21531.55357
2029.73833	21538.41071
2032.7764	21477.55357
2035.8125	21418.41071
2038.84664	21370.125
2041.87881	21343.98214
2044.90903	21308.83929
2047.93729	21259.98214
2050.96359	21275.125
2053.98794	21257.55357
2057.01034	21259.26786
2060.03078	21247.69643
2063.04927	21245.69643
2066.06582	21239.41071
2069.08042	21179.41071
2072.09307	21180.98214
2075.10378	21152.98214
2078.11255	21169.69643
2081.11938	21192.69643
2084.12426	21139.26786
2087.12722	21223.83929
2090.12824	21131.69643
2093.12732	21158.26786
2096.12447	21141.55357
2099.11969	21178.83929
2102.11299	21174.69643
2105.10435	21214.125
2108.09379	21218.83929
2111.08131	21285.83929
2114.0669	21281.125
2117.05057	21314.98214
2120.03233	21342.83929
2123.01216	21380.98214
2125.99008	21395.26786
2128.96609	21421.125
2131.94018	21460.55357
2134.91236	21498.55357
2137.88263	21479.125
2140.851	21432.69643
2143.81746	21478.69643
2146.78201	21478.26786
2149.74466	21480.26786
2152.7054	21533.26786
2155.66425	21493.83929
2158.6212	21539.69643
2161.57625	21507.41071
2164.52941	21477.83929
2167.48067	21473.83929
2170.43004	21483.26786
2173.37752	21470.98214
2176.32311	21548.26786
2179.26681	21490.55357
2182.20863	21480.69643
2185.14856	21521.41071
2188.08661	21539.55357
2191.02278	21547.83929
2193.95707	21513.55357
2196.88948	21517.41071
2199.82001	21506.55357
2202.74867	21471.69643
2205.67545	21473.83929
2208.60037	21442.98214
2211.52341	21397.98214
2214.44458	21425.98214
2217.36388	21408.125
2220.28132	21400.125
2223.1969	21307.69643
2226.11061	21303.26786
2229.02246	21288.98214
2231.93245	21239.83929
2234.84058	21209.26786
2237.74686	21155.41071
2240.65128	21183.125
2243.55385	21164.41071
2246.45456	21167.83929
2249.35343	21118.83929
2252.25044	21114.125
2255.14561	21089.55357
2258.03893	21123.98214
2260.93041	21063.69643
2263.82004	20986.83929
2266.70783	20986.125
2269.59378	20933.41071
2272.4779	20887.125
2275.36017	20852.69643
2278.24061	20785.125
2281.11922	20734.83929
2283.996	20744.125
2286.87094	20752.83929
2289.74405	20723.83929
2292.61534	20697.83929
2295.4848	20709.26786
2298.35243	20757.41071
2301.21824	20746.41071
2304.08223	20688.41071
2306.94439	20795.125
2309.80474	20758.55357
2312.66327	20732.69643
2315.51999	20722.69643
2318.37489	20700.55357
2321.22797	20702.125
2324.07925	20676.26786
2326.92871	20654.69643
2329.77637	20648.69643
2332.62222	20593.55357
2335.46626	20583.83929
2338.3085	20568.41071
2341.14893	20587.83929
2343.98756	20594.125
2346.8244	20576.98214
2349.65943	20593.26786
2352.49267	20578.98214
2355.32411	20594.69643
2358.15376	20572.55357
2360.98161	20597.41071
2363.80768	20581.41071
2366.63195	20576.98214
2369.45444	20536.69643
2372.27514	20532.41071
2375.09405	20478.26786
2377.91118	20425.55357
2380.72652	20392.41071
2383.54009	20367.125
2386.35187	20311.69643
2389.16188	20227.26786
2391.97011	20202.125
2394.77657	20181.69643
2397.58125	20183.83929
2400.38416	20167.41071
2403.18529	20113.83929
2405.98466	20109.125
2408.78226	20072.83929
2411.57809	20037.26786
2414.37216	20028.55357
2417.16446	20015.55357
2419.955	20013.83929
2422.74378	19981.83929
2425.5308	19969.125
2428.31606	19989.69643
2431.09956	19936.83929
2433.88131	19973.98214
2436.6613	19995.26786
2439.43954	19928.69643
2442.21603	19959.26786
2444.99077	19929.83929
2447.76377	19960.41071
2450.53501	19967.83929
2453.30451	19953.26786
2456.07226	19953.55357
2458.83827	19908.41071
2461.60254	19945.83929
2464.36507	19891.83929
2467.12586	19859.98214
2469.88492	19854.125
2472.64224	19906.125
2475.39782	19880.98214
2478.15167	19931.26786
2480.90379	19949.55357
2483.65417	19983.26786
2486.40283	20008.98214
2489.14976	20017.26786
2491.89497	19998.69643
2494.63845	20039.83929
2497.3802	20044.98214
2500.12024	19994.98214
2502.85855	19939.98214
2505.59514	19926.69643
2508.33002	19841.69643
2511.06318	19837.125
2513.79462	19789.98214
2516.52435	19733.41071
2519.25237	19736.69643
2521.97867	19678.69643
2524.70327	19671.125
2527.42616	19654.83929
2530.14734	19636.55357
2532.86681	19641.83929
2535.58458	19635.26786
2538.30065	19655.55357
2541.01501	19628.26786
2543.72768	19629.69643
2546.43864	19661.26786
2549.14791	19588.98214
2551.85548	19591.55357
2554.56136	19553.83929
2557.26554	19557.98214
2559.96803	19508.98214
2562.66883	19508.26786
2565.36794	19460.41071
2568.06536	19422.55357
2570.7611	19473.26786
2573.45514	19428.41071
2576.14751	19419.41071
2578.83819	19383.69643
2581.52719	19344.98214
2584.21451	19341.55357
2586.90015	19325.26786
2589.58411	19329.83929
2592.2664	19311.98214
2594.94701	19271.26786
2597.62594	19285.41071
2600.30321	19217.125
2602.9788	19209.55357
2605.65273	19172.125
2608.32498	19192.26786
2610.99557	19159.55357
2613.66449	19130.69643
2616.33175	19138.98214
2618.99734	19177.83929
2621.66128	19157.98214
2624.32355	19103.98214
2626.98416	19099.55357
2629.64311	19075.98214
2632.30041	19047.26786
2634.95605	19023.69643
2637.61004	19011.55357
2640.26238	19017.41071
2642.91306	18956.69643
2645.56209	18956.125
2648.20948	18936.98214
2650.85521	18908.26786
2653.4993	18936.125
2656.14175	18947.83929
2658.78255	18950.98214
2661.42171	18974.55357
2664.05923	18990.98214
2666.6951	19021.83929
2669.32934	19080.55357
2671.96194	19053.55357
2674.59291	19058.98214
2677.22224	19017.26786
2679.84993	19006.26786
2682.476	18971.125
2685.10043	18968.55357
2687.72324	18974.98214
2690.34441	18958.41071
2692.96396	19018.69643
2695.58188	18991.83929
2698.19818	18954.98214
2700.81285	18957.55357
2703.4259	18956.98214
2706.03733	19007.41071
2708.64714	18979.125
2711.25533	19019.69643
2713.86191	19012.41071
2716.46687	19034.125
2719.07021	19053.26786
2721.67194	19074.41071
2724.27206	19060.69643
2726.87057	19099.55357
2729.46747	19084.125
2732.06276	19064.83929
2734.65644	19032.83929
2737.24852	19048.125
2739.83899	18997.41071
2742.42786	19031.26786
2745.01513	18961.125
2747.60079	18977.69643
2750.18486	18980.55357
2752.76733	18949.98214
2755.3482	18984.69643
2757.92747	18932.125
2760.50515	18893.125
2763.08123	18914.41071
2765.65573	18891.69643
2768.22863	18846.26786
2770.79994	18887.125
2773.36967	18855.125
2775.9378	18821.26786
2778.50435	18793.69643
2781.06932	18802.125
2783.6327	18792.125
2786.1945	18799.41071
2788.75471	18737.55357
2791.31335	18675.69643
2793.87041	18724.125
2796.42589	18682.69643
2798.97979	18695.125
2801.53212	18615.98214
2804.08288	18641.26786
2806.63206	18579.41071
2809.17967	18546.83929
2811.72571	18532.55357
2814.27018	18532.83929
2816.81308	18495.41071
2819.35442	18452.55357
2821.89419	18386.26786
2824.43239	18437.69643
2826.96904	18436.41071
2829.50412	18434.83929
2832.03763	18384.98214
2834.56959	18438.55357
2837.1	18408.69643
2839.62884	18415.55357
2842.15613	18368.69643
2844.68186	18395.83929
2847.20604	18375.83929
2849.72867	18364.83929
2852.24974	18382.98214
2854.76927	18380.26786
2857.28724	18387.98214
2859.80367	18396.125
2862.31855	18300.41071
2864.83189	18352.98214
2867.34368	18342.55357
2869.85393	18357.41071
2872.36264	18313.69643
2874.8698	18312.26786
2877.37543	18300.41071
2879.87952	18309.125
2882.38207	18299.98214
2884.88308	18284.125
2887.38256	18277.41071
2889.88051	18262.69643
2892.37692	18271.125
2894.8718	18269.98214
2897.36515	18323.26786
2899.85698	18306.69643
2902.34727	18349.83929
2904.83604	18356.41071
2907.32328	18416.69643
2909.809	18383.55357
2912.29319	18453.125
2914.77587	18427.83929
2917.25702	18426.83929
2919.73665	18440.125
2922.21476	18368.125
2924.69136	18389.26786
2927.16644	18405.69643
2929.64	18369.26786
2932.11205	18334.69643
2934.58258	18214.26786
2937.05161	18273.83929
2939.51912	18300.69643
2941.98513	18290.83929
2944.44962	18283.41071
2946.91261	18208.83929
2949.37409	18246.98214
2951.83407	18214.83929
2954.29254	18210.26786
2956.74951	18251.98214
2959.20498	18217.69643
2961.65895	18241.125
2964.11142	18235.83929
2966.56239	18170.98214
2969.01186	18218.69643
2971.45984	18173.41071
2973.90632	18199.98214
2976.35131	18142.69643
2978.7948	18111.55357
2981.23681	18086.83929
2983.67732	18045.69643
2986.11635	18024.55357
2988.55388	18016.98214
2990.98993	18019.55357
2993.4245	17937.41071
2995.85758	17900.83929
2998.28917	17914.69643
3000.71928	17876.26786
3003.14791	17824.125
3005.57506	17808.41071
3008.00073	17818.41071
3010.42493	17777.26786
3012.84764	17755.69643
3015.26888	17758.69643
3017.68865	17693.83929
3020.10694	17687.41071
3022.52376	17686.83929
3024.9391	17688.83929
3027.35298	17665.125
3029.76539	17659.83929
3032.17632	17601.98214
3034.5858	17623.69643
3036.9938	17531.125
3039.40034	17570.69643
3041.80542	17563.41071
3044.20903	17475.98214
3046.61118	17487.55357
3049.01187	17450.83929
3051.4111	17450.83929
3053.80888	17419.98214
3056.20519	17370.41071
3058.60005	17305.69643
3060.99345	17327.83929
3063.3854	17291.125
3065.7759	17283.125
3068.16494	17255.125
3070.55254	17222.41071
3072.93868	17203.98214
3075.32338	17164.55357
3077.70662	17115.55357
3080.08842	17081.55357
3082.46878	17075.83929
3084.84769	17037.55357
3087.22515	17041.55357
3089.60118	17070.98214
3091.97576	17103.55357
3094.3489	17089.69643
3096.72061	17111.83929
3099.09087	17113.125
3101.4597	17108.41071
3103.82709	17099.83929
3106.19305	17110.98214
3108.55757	17049.26786
3110.92066	17074.41071
3113.28232	17040.98214
3115.64255	17007.55357
3118.00134	16937.26786
3120.35871	16927.26786
3122.71466	16917.98214
3125.06917	16912.83929
3127.42226	16899.26786
3129.77393	16932.55357
3132.12417	16891.69643
3134.47299	16874.98214
3136.82039	16918.69643
3139.16636	16878.69643
3141.51092	16878.26786
3143.85406	16873.98214
3146.19579	16907.83929
3148.53609	16910.55357
3150.87499	16917.98214
3153.21246	16934.55357
3155.54853	16965.125
3157.88318	16971.83929
3160.21642	16997.26786
3162.54826	16961.69643
3164.87868	16989.83929
3167.2077	16954.69643
3169.5353	16985.98214
3171.86151	16976.26786
3174.18631	16975.41071
3176.5097	16952.41071
3178.83169	16914.26786
3181.15228	16919.98214
3183.47147	16876.83929
3185.78926	16832.69643
3188.10565	16852.125
3190.42065	16862.98214
3192.73424	16885.55357
3195.04645	16862.26786
3197.35725	16827.83929
3199.66667	16837.41071
3201.97469	16807.83929
3204.28132	16806.26786
3206.58656	16894.98214
3208.8904	16917.98214
3211.19287	16912.26786
3213.49394	16891.98214
3215.79363	16910.98214
3218.09193	16934.26786
3220.38884	16966.26786
3222.68438	16956.55357
3224.97853	16968.55357
3227.2713	16943.125
3229.56269	16939.125
3231.8527	16906.26786
3234.14133	16863.125
3236.42858	16833.83929
3238.71446	16827.83929
3240.99896	16772.41071
3243.28209	16759.55357
3245.56384	16752.69643
3247.84423	16786.83929
3250.12324	16753.26786
3252.40088	16743.26786
3254.67715	16703.98214
3256.95205	16687.55357
3259.22558	16751.26786
3261.49775	16672.69643
3263.76855	16731.125
3266.03799	16708.69643
3268.30606	16648.55357
3270.57277	16649.55357
3272.83812	16600.125
3275.10211	16590.26786
3277.36474	16567.26786
3279.62601	16562.125
3281.88593	16534.41071
3284.14448	16561.98214
3286.40168	16580.41071
3288.65753	16581.69643
3290.91202	16537.98214
3293.16516	16514.41071
3295.41695	16523.26786
3297.66738	16419.98214
3299.91647	16366.125
3302.16421	16277.26786
3304.4106	16240.125
3306.65564	16130.55357
3308.89933	16006.55357
3311.14169	15935.83929
3313.38269	15782.41071
3315.62236	15700.41071
3317.86068	15611.98214
3320.09766	15456.98214
3322.3333	15374.41071
3324.5676	15307.83929
3326.80056	15083.83929
3329.03219	15027.69643
3331.26248	1.83929
3333.49143	-0.16071
3335.71905	0.26786
