Data from AgNPs_FTO_APTES_UA_20uM_CRN_200uM_R6G_10uM_NaF_0.1M_Addition_RamanShift__21__18-16-54-934.txt Node

Date: Thu Feb 17 18:16:54 GMT 2022
User: TCL
Spectrometer: QEP01345
Trigger mode: 4
Integration Time (sec): 1.000000E1
Scans to average: 7
Electric dark correction enabled: true
Nonlinearity correction enabled: false
Boxcar width: 0
XAxis mode: Raman Shifts
Number of Pixels in Spectrum: 1044
>>>>>Begin Spectral Data<<<<<
46.04893	-0.94643
50.45542	-1.23214
54.85868	0.48214
59.25871	-2.23214
63.6555	83.19643
68.04907	76.19643
72.43941	89.76786
76.82654	91.625
81.21044	96.05357
85.59113	100.76786
89.96862	104.91071
94.34289	103.625
98.71396	113.91071
103.08183	111.05357
107.4465	120.625
111.80798	113.19643
116.16626	119.05357
120.52136	128.48214
124.87327	130.48214
129.222	136.91071
133.56755	137.05357
137.90993	156.76786
142.24913	168.48214
146.58517	188.05357
150.91804	217.91071
155.24774	255.33929
159.57429	314.625
163.89768	398.76786
168.21792	526.76786
172.53501	723.76786
176.84895	1010.91071
181.15975	1434.625
185.46741	2017.48214
189.77193	2803.19643
194.07331	3775.19643
198.37157	4909.625
202.6667	6131.625
206.9587	7329.19643
211.24758	8477.625
215.53334	9666.625
219.81599	10899.48214
224.09553	12241.76786
228.37195	13737.91071
232.64527	15415.33929
236.91549	17192.625
241.18261	18954.33929
245.44663	20609.19643
249.70755	22068.91071
253.96539	23318.91071
258.22014	24413.33929
262.4718	25256.19643
266.72039	25800.33929
270.96589	26093.33929
275.20832	26134.625
279.44768	25836.19643
283.68397	25477.91071
287.91719	25114.05357
292.14735	24869.19643
296.37445	24817.05357
300.59849	24962.48214
304.81948	25212.48214
309.03742	25352.33929
313.25231	25298.33929
317.46415	24899.76786
321.67296	24253.48214
325.87872	23755.91071
330.08145	23602.05357
334.28114	23643.19643
338.47781	23922.76786
342.67145	24257.76786
346.86207	24694.33929
351.04966	25285.48214
355.23424	25993.76786
359.4158	26689.48214
363.59435	27094.48214
367.76989	27396.05357
371.94243	27646.76786
376.11196	27776.48214
380.27849	27933.625
384.44203	28023.19643
388.60257	28029.91071
392.76012	28065.05357
396.91468	28245.76786
401.06626	28649.05357
405.21485	28974.625
409.36047	28872.76786
413.50311	28467.33929
417.64277	28072.48214
421.77947	27823.48214
425.9132	27814.76786
430.04396	27904.48214
434.17176	28105.05357
438.2966	28432.625
442.41849	28970.05357
446.53742	29592.19643
450.6534	30239.91071
454.76644	30744.625
458.87653	30967.48214
462.98368	30846.33929
467.08789	30441.19643
471.18916	30050.91071
475.2875	29688.48214
479.38291	29353.19643
483.4754	29126.76786
487.56496	28857.33929
491.6516	28771.76786
495.73531	28681.19643
499.81612	28659.91071
503.89401	28806.19643
507.96899	29002.48214
512.04106	29116.33929
516.11023	29228.05357
520.1765	29315.625
524.23987	29368.33929
528.30034	29344.19643
532.35792	29216.91071
536.41261	29087.91071
540.46441	28854.33929
544.51333	28707.19643
548.55936	28744.48214
552.60252	29012.76786
556.64279	29343.33929
560.6802	29491.48214
564.71473	29594.48214
568.7464	29816.625
572.7752	30079.91071
576.80114	30084.76786
580.82422	29927.19643
584.84444	30059.76786
588.86181	30483.91071
592.87633	31124.48214
596.888	31562.76786
600.89682	31736.19643
604.9028	32711.91071
608.90594	35757.76786
612.90624	39620.33929
616.90371	38462.76786
620.89834	32955.76786
624.89015	30276.05357
628.87913	29888.48214
632.86528	29915.33929
636.84862	29907.76786
640.82913	29729.625
644.80683	29223.76786
648.78172	28772.91071
652.75379	28858.33929
656.72306	29173.48214
660.68952	29663.76786
664.65319	29641.19643
668.61405	29229.19643
672.57211	29159.33929
676.52738	29373.91071
680.47986	29456.33929
684.42955	29317.19643
688.37646	29149.33929
692.32058	29109.33929
696.26192	29188.05357
700.20048	29370.48214
704.13626	29521.91071
708.06928	29417.48214
711.99952	29169.91071
715.927	29112.91071
719.85171	29118.33929
723.77365	29135.76786
727.69284	29050.91071
731.60928	28965.76786
735.52295	29049.05357
739.43388	29010.76786
743.34206	29143.05357
747.24749	29210.19643
751.15017	29268.19643
755.05012	29404.625
758.94733	29867.625
762.8418	30904.05357
766.73354	32746.625
770.62254	34843.76786
774.50882	35905.91071
778.39237	35159.625
782.27321	33033.48214
786.15132	30979.33929
790.02671	29705.05357
793.89938	29034.625
797.76935	28852.05357
801.6366	28750.76786
805.50115	28664.05357
809.36299	28542.625
813.22213	28493.76786
817.07857	28393.33929
820.93231	28352.33929
824.78336	28358.19643
828.63172	28398.625
832.47738	28421.19643
836.32036	28452.625
840.16066	28512.48214
843.99827	28593.91071
847.8332	28562.91071
851.66546	28579.91071
855.49504	28625.19643
859.32195	28671.19643
863.1462	28648.48214
866.96777	28655.76786
870.78668	28673.625
874.60293	28613.48214
878.41652	28628.625
882.22745	28694.76786
886.03573	28714.48214
889.84136	28636.48214
893.64433	28581.05357
897.44466	28500.33929
901.24235	28356.33929
905.0374	28253.76786
908.8298	28159.625
912.61957	28045.33929
916.40671	28159.48214
920.19121	28381.76786
923.97308	28557.19643
927.75233	28685.19643
931.52895	28822.05357
935.30295	28728.33929
939.07433	28372.625
942.84309	28138.76786
946.60924	27880.48214
950.37278	27816.91071
954.13371	27702.33929
957.89203	27562.33929
961.64774	27483.19643
965.40086	27392.05357
969.15137	27256.625
972.89929	27200.91071
976.64461	27258.48214
980.38733	27263.19643
984.12747	27346.76786
987.86502	27553.05357
991.59999	27765.48214
995.33237	28119.76786
999.06217	28642.19643
1002.78939	29235.76786
1006.51404	29596.625
1010.23611	29760.33929
1013.95561	29963.625
1017.67255	30027.91071
1021.38692	29857.76786
1025.09872	29717.76786
1028.80796	29833.91071
1032.51465	30354.33929
1036.21877	30831.76786
1039.92035	30921.05357
1043.61937	30654.33929
1047.31584	30185.05357
1051.00976	29641.76786
1054.70114	29286.19643
1058.38998	29165.625
1062.07627	29129.91071
1065.76003	29143.19643
1069.44126	29207.05357
1073.11995	29276.76786
1076.79611	29399.48214
1080.46974	29557.625
1084.14085	29836.91071
1087.80943	30089.91071
1091.47549	30183.76786
1095.13903	30015.76786
1098.80005	29724.76786
1102.45857	29472.05357
1106.11456	29384.91071
1109.76805	29558.76786
1113.41903	29761.91071
1117.06751	30022.76786
1120.71348	30474.33929
1124.35696	30846.19643
1127.99793	31159.76786
1131.63641	31270.91071
1135.2724	30904.48214
1138.90589	30441.33929
1142.5369	30123.48214
1146.16542	29827.91071
1149.79145	29651.91071
1153.415	29563.76786
1157.03607	29656.48214
1160.65467	29986.05357
1164.27079	30609.19643
1167.88443	31561.625
1171.49561	32766.05357
1175.10432	34404.19643
1178.71056	36701.33929
1182.31434	38972.91071
1185.91565	39969.76786
1189.51451	39679.625
1193.11091	38388.33929
1196.70485	36842.33929
1200.29634	35605.91071
1203.88538	34679.91071
1207.47197	33767.05357
1211.05612	32950.76786
1214.63782	32422.91071
1218.21708	32335.33929
1221.79391	32444.19643
1225.36829	32580.33929
1228.94024	32437.33929
1232.50976	32054.91071
1236.07685	31698.91071
1239.6415	31548.48214
1243.20374	31635.48214
1246.76355	31799.91071
1250.32093	32102.33929
1253.8759	32582.625
1257.42845	33131.76786
1260.97859	33649.19643
1264.52631	34185.33929
1268.07163	34701.05357
1271.61453	35363.625
1275.15503	36053.48214
1278.69312	36656.33929
1282.22882	37158.76786
1285.76211	37615.19643
1289.29301	38175.33929
1292.82151	38779.76786
1296.34761	39690.76786
1299.87133	41160.76786
1303.39266	43144.76786
1306.9116	45807.91071
1310.42815	48640.19643
1313.94233	50192.76786
1317.45412	49571.91071
1320.96354	47695.33929
1324.47058	45610.05357
1327.97525	43821.33929
1331.47754	42735.91071
1334.97747	42270.91071
1338.47502	42386.33929
1341.97022	42888.91071
1345.46305	43477.33929
1348.95352	44256.33929
1352.44163	45406.05357
1355.92738	47331.19643
1359.41078	50249.91071
1362.89183	53049.91071
1366.37053	51920.33929
1369.84688	47203.05357
1373.32088	42058.33929
1376.79254	38656.625
1380.26186	36981.33929
1383.72883	36168.91071
1387.19347	35636.05357
1390.65578	35043.48214
1394.11575	34683.625
1397.57339	34634.625
1401.0287	34946.76786
1404.48168	35424.33929
1407.93234	35787.625
1411.38068	36099.33929
1414.82669	36062.48214
1418.27039	35760.91071
1421.71177	35159.76786
1425.15083	34514.76786
1428.58758	34107.05357
1432.02203	34129.625
1435.45416	34430.625
1438.88399	34750.48214
1442.31151	34927.91071
1445.73673	35130.19643
1449.15965	35249.05357
1452.58027	35272.91071
1455.9986	35141.48214
1459.41463	35071.76786
1462.82837	35343.33929
1466.23982	35892.91071
1469.64898	36480.76786
1473.05586	37006.91071
1476.46045	37309.33929
1479.86276	37493.48214
1483.26279	37644.33929
1486.66054	37781.19643
1490.05602	38014.48214
1493.44922	38443.625
1496.84016	38884.19643
1500.22882	39848.48214
1503.61521	41440.625
1506.99934	43558.19643
1510.38121	45259.05357
1513.76081	45616.76786
1517.13816	43994.48214
1520.51324	41431.33929
1523.88607	39023.91071
1527.25665	37502.76786
1530.62498	36734.05357
1533.99105	36277.05357
1537.35488	36142.19643
1540.71647	36035.625
1544.07581	35899.625
1547.4329	35798.19643
1550.78776	35586.05357
1554.14038	35438.91071
1557.49077	35365.33929
1560.83892	35456.48214
1564.18484	35529.48214
1567.52853	35718.33929
1570.86999	35910.625
1574.20922	36135.91071
1577.54624	36092.625
1580.88103	35670.48214
1584.2136	35066.05357
1587.54395	35024.05357
1590.87208	35847.91071
1594.19801	37534.05357
1597.52172	39572.625
1600.84321	40757.19643
1604.16251	40154.48214
1607.47959	38326.19643
1610.79447	36150.19643
1614.10715	34102.05357
1617.41763	32450.33929
1620.7259	31302.48214
1624.03199	30658.91071
1627.33587	30606.33929
1630.63757	31096.19643
1633.93707	32010.19643
1637.23439	33603.91071
1640.52951	35671.05357
1643.82246	38316.48214
1647.11321	40576.48214
1650.40179	41507.76786
1653.68819	39911.19643
1656.97241	36425.625
1660.25446	32850.91071
1663.53433	30441.05357
1666.81203	28891.33929
1670.08756	27919.48214
1673.36092	27321.33929
1676.63211	26954.625
1679.90115	26577.33929
1683.16801	26278.48214
1686.43272	26127.19643
1689.69527	25976.05357
1692.95567	25845.91071
1696.2139	25778.76786
1699.46999	25713.48214
1702.72392	25690.76786
1705.97571	25694.625
1709.22535	25678.05357
1712.47284	25637.48214
1715.71819	25635.76786
1718.96139	25604.48214
1722.20246	25515.625
1725.44139	25441.76786
1728.67818	25377.625
1731.91284	25306.05357
1735.14537	25199.76786
1738.37576	25159.19643
1741.60403	25094.19643
1744.83017	25004.625
1748.05418	24983.91071
1751.27607	24995.625
1754.49584	24936.33929
1757.71349	24900.91071
1760.92903	24938.05357
1764.14244	24857.91071
1767.35375	24825.48214
1770.56294	24753.76786
1773.77002	24690.91071
1776.97499	24698.91071
1780.17785	24637.91071
1783.37861	24604.33929
1786.57727	24555.33929
1789.77382	24517.76786
1792.96828	24487.625
1796.16064	24471.05357
1799.3509	24383.76786
1802.53907	24382.76786
1805.72514	24322.05357
1808.90913	24293.91071
1812.09102	24227.76786
1815.27083	24181.76786
1818.44856	24198.76786
1821.6242	24162.91071
1824.79776	24155.48214
1827.96924	24133.91071
1831.13864	24077.48214
1834.30597	24097.48214
1837.47122	24048.19643
1840.6344	24014.91071
1843.7955	24014.19643
1846.95454	24022.48214
1850.11151	23992.625
1853.26642	23973.91071
1856.41926	23960.33929
1859.57004	24021.33929
1862.71876	23979.05357
1865.86542	23962.76786
1869.01003	23965.76786
1872.15258	23913.48214
1875.29308	23938.48214
1878.43152	23893.19643
1881.56792	23882.625
1884.70227	23906.05357
1887.83457	23892.76786
1890.96482	23868.76786
1894.09304	23829.19643
1897.21921	23811.91071
1900.34335	23754.91071
1903.46544	23734.48214
1906.58551	23747.05357
1909.70353	23710.76786
1912.81953	23689.625
1915.93349	23587.91071
1919.04543	23595.625
1922.15534	23585.76786
1925.26322	23511.19643
1928.36908	23495.91071
1931.47292	23506.625
1934.57473	23481.76786
1937.67453	23438.91071
1940.77232	23369.19643
1943.86808	23274.76786
1946.96184	23165.625
1950.05358	23119.19643
1953.14331	23075.76786
1956.23103	23036.19643
1959.31675	22963.05357
1962.40046	22917.91071
1965.48217	22864.48214
1968.56188	22793.33929
1971.63959	22751.05357
1974.7153	22691.19643
1977.78901	22646.19643
1980.86073	22544.91071
1983.93046	22509.05357
1986.99819	22396.625
1990.06394	22346.91071
1993.1277	22306.19643
1996.18947	22232.05357
1999.24925	22144.33929
2002.30706	22088.91071
2005.36288	22027.625
2008.41672	21967.625
2011.46859	21919.05357
2014.51848	21907.48214
2017.56639	21819.05357
2020.61233	21771.48214
2023.6563	21715.91071
2026.6983	21635.76786
2029.73833	21624.76786
2032.7764	21631.91071
2035.8125	21540.33929
2038.84664	21474.19643
2041.87881	21471.625
2044.90903	21472.19643
2047.93729	21437.76786
2050.96359	21435.91071
2053.98794	21419.91071
2057.01034	21351.05357
2060.03078	21380.91071
2063.04927	21303.625
2066.06582	21350.33929
2069.08042	21339.05357
2072.09307	21258.625
2075.10378	21254.33929
2078.11255	21324.76786
2081.11938	21274.33929
2084.12426	21266.625
2087.12722	21274.48214
2090.12824	21287.91071
2093.12732	21249.33929
2096.12447	21280.625
2099.11969	21234.05357
2102.11299	21205.76786
2105.10435	21223.48214
2108.09379	21287.48214
2111.08131	21295.48214
2114.0669	21298.19643
2117.05057	21346.625
2120.03233	21332.19643
2123.01216	21334.33929
2125.99008	21395.05357
2128.96609	21410.91071
2131.94018	21458.33929
2134.91236	21428.91071
2137.88263	21471.48214
2140.851	21475.48214
2143.81746	21480.19643
2146.78201	21431.05357
2149.74466	21518.625
2152.7054	21508.33929
2155.66425	21457.05357
2158.6212	21485.91071
2161.57625	21458.625
2164.52941	21493.48214
2167.48067	21434.625
2170.43004	21432.48214
2173.37752	21444.91071
2176.32311	21475.19643
2179.26681	21475.19643
2182.20863	21448.48214
2185.14856	21510.05357
2188.08661	21452.76786
2191.02278	21462.91071
2193.95707	21454.91071
2196.88948	21454.48214
2199.82001	21459.48214
2202.74867	21434.19643
2205.67545	21421.625
2208.60037	21411.625
2211.52341	21439.19643
2214.44458	21365.33929
2217.36388	21357.48214
2220.28132	21302.76786
2223.1969	21266.76786
2226.11061	21258.91071
2229.02246	21179.19643
2231.93245	21089.05357
2234.84058	21078.33929
2237.74686	21076.76786
2240.65128	21065.91071
2243.55385	21071.33929
2246.45456	21011.625
2249.35343	21006.05357
2252.25044	20989.19643
2255.14561	20901.05357
2258.03893	20957.33929
2260.93041	20922.48214
2263.82004	20845.91071
2266.70783	20792.91071
2269.59378	20705.625
2272.4779	20674.91071
2275.36017	20637.91071
2278.24061	20604.48214
2281.11922	20566.48214
2283.996	20584.625
2286.87094	20589.625
2289.74405	20522.48214
2292.61534	20491.05357
2295.4848	20474.91071
2298.35243	20528.625
2301.21824	20510.19643
2304.08223	20469.76786
2306.94439	20473.91071
2309.80474	20472.05357
2312.66327	20472.33929
2315.51999	20467.19643
2318.37489	20483.19643
2321.22797	20443.33929
2324.07925	20421.19643
2326.92871	20364.19643
2329.77637	20319.625
2332.62222	20325.33929
2335.46626	20321.76786
2338.3085	20339.05357
2341.14893	20335.05357
2343.98756	20345.625
2346.8244	20346.91071
2349.65943	20292.05357
2352.49267	20251.48214
2355.32411	20295.48214
2358.15376	20261.625
2360.98161	20241.19643
2363.80768	20254.33929
2366.63195	20202.33929
2369.45444	20184.76786
2372.27514	20107.625
2375.09405	20078.19643
2377.91118	20078.33929
2380.72652	20048.625
2383.54009	19986.33929
2386.35187	19986.05357
2389.16188	19900.19643
2391.97011	19871.76786
2394.77657	19885.91071
2397.58125	19872.76786
2400.38416	19807.76786
2403.18529	19745.19643
2405.98466	19750.05357
2408.78226	19723.33929
2411.57809	19654.625
2414.37216	19616.76786
2417.16446	19618.19643
2419.955	19579.33929
2422.74378	19579.91071
2425.5308	19597.33929
2428.31606	19537.91071
2431.09956	19567.48214
2433.88131	19502.91071
2436.6613	19537.76786
2439.43954	19505.91071
2442.21603	19547.05357
2444.99077	19464.48214
2447.76377	19516.48214
2450.53501	19472.33929
2453.30451	19487.76786
2456.07226	19469.33929
2458.83827	19416.625
2461.60254	19408.76786
2464.36507	19386.91071
2467.12586	19343.19643
2469.88492	19363.05357
2472.64224	19372.91071
2475.39782	19344.33929
2478.15167	19383.05357
2480.90379	19382.625
2483.65417	19409.19643
2486.40283	19402.05357
2489.14976	19437.48214
2491.89497	19469.91071
2494.63845	19434.625
2497.3802	19413.76786
2500.12024	19424.76786
2502.85855	19329.33929
2505.59514	19339.91071
2508.33002	19299.76786
2511.06318	19280.625
2513.79462	19254.33929
2516.52435	19207.76786
2519.25237	19180.91071
2521.97867	19167.33929
2524.70327	19188.05357
2527.42616	19100.91071
2530.14734	19150.33929
2532.86681	19108.76786
2535.58458	19149.05357
2538.30065	19111.05357
2541.01501	19084.48214
2543.72768	19074.76786
2546.43864	19038.05357
2549.14791	19019.19643
2551.85548	19015.19643
2554.56136	18970.91071
2557.26554	18961.625
2559.96803	18888.76786
2562.66883	18889.05357
2565.36794	18839.76786
2568.06536	18830.19643
2570.7611	18790.33929
2573.45514	18792.76786
2576.14751	18770.05357
2578.83819	18723.05357
2581.52719	18764.05357
2584.21451	18692.48214
2586.90015	18713.76786
2589.58411	18674.91071
2592.2664	18677.91071
2594.94701	18611.33929
2597.62594	18654.48214
2600.30321	18585.05357
2602.9788	18576.48214
2605.65273	18564.625
2608.32498	18572.19643
2610.99557	18600.19643
2613.66449	18557.33929
2616.33175	18532.19643
2618.99734	18550.19643
2621.66128	18499.625
2624.32355	18518.33929
2626.98416	18541.05357
2629.64311	18472.33929
2632.30041	18454.05357
2634.95605	18445.05357
2637.61004	18426.05357
2640.26238	18371.625
2642.91306	18385.48214
2645.56209	18368.19643
2648.20948	18362.33929
2650.85521	18331.91071
2653.4993	18313.625
2656.14175	18339.05357
2658.78255	18376.91071
2661.42171	18343.05357
2664.05923	18380.33929
2666.6951	18369.48214
2669.32934	18369.33929
2671.96194	18398.76786
2674.59291	18362.48214
2677.22224	18377.76786
2679.84993	18341.91071
2682.476	18324.05357
2685.10043	18373.05357
2687.72324	18318.05357
2690.34441	18304.625
2692.96396	18347.91071
2695.58188	18342.76786
2698.19818	18291.76786
2700.81285	18338.48214
2703.4259	18322.625
2706.03733	18310.625
2708.64714	18316.19643
2711.25533	18347.48214
2713.86191	18340.48214
2716.46687	18350.05357
2719.07021	18330.48214
2721.67194	18324.625
2724.27206	18311.91071
2726.87057	18351.05357
2729.46747	18321.19643
2732.06276	18366.33929
2734.65644	18329.33929
2737.24852	18302.33929
2739.83899	18319.05357
2742.42786	18340.19643
2745.01513	18272.33929
2747.60079	18234.19643
2750.18486	18242.33929
2752.76733	18234.76786
2755.3482	18250.19643
2757.92747	18276.33929
2760.50515	18210.76786
2763.08123	18196.91071
2765.65573	18166.33929
2768.22863	18150.05357
2770.79994	18148.19643
2773.36967	18156.48214
2775.9378	18157.625
2778.50435	18089.19643
2781.06932	18149.625
2783.6327	18106.625
2786.1945	18057.48214
2788.75471	18048.91071
2791.31335	18001.91071
2793.87041	17992.91071
2796.42589	17964.33929
2798.97979	17958.05357
2801.53212	17924.48214
2804.08288	17936.19643
2806.63206	17801.625
2809.17967	17805.05357
2811.72571	17820.33929
2814.27018	17789.33929
2816.81308	17752.76786
2819.35442	17723.91071
2821.89419	17660.625
2824.43239	17662.625
2826.96904	17699.76786
2829.50412	17652.48214
2832.03763	17625.19643
2834.56959	17643.91071
2837.1	17611.48214
2839.62884	17583.625
2842.15613	17532.19643
2844.68186	17589.625
2847.20604	17525.05357
2849.72867	17567.625
2852.24974	17514.48214
2854.76927	17502.625
2857.28724	17499.05357
2859.80367	17480.91071
2862.31855	17506.33929
2864.83189	17464.05357
2867.34368	17434.76786
2869.85393	17418.33929
2872.36264	17387.76786
2874.8698	17404.19643
2877.37543	17392.91071
2879.87952	17425.91071
2882.38207	17409.76786
2884.88308	17381.05357
2887.38256	17422.48214
2889.88051	17411.05357
2892.37692	17422.05357
2894.8718	17423.33929
2897.36515	17459.76786
2899.85698	17457.33929
2902.34727	17469.19643
2904.83604	17468.625
2907.32328	17522.33929
2909.809	17542.625
2912.29319	17557.19643
2914.77587	17561.05357
2917.25702	17565.05357
2919.73665	17536.48214
2922.21476	17542.625
2924.69136	17524.05357
2927.16644	17580.48214
2929.64	17511.91071
2932.11205	17525.05357
2934.58258	17456.76786
2937.05161	17515.48214
2939.51912	17530.05357
2941.98513	17480.48214
2944.44962	17463.625
2946.91261	17420.76786
2949.37409	17460.33929
2951.83407	17436.625
2954.29254	17407.33929
2956.74951	17383.19643
2959.20498	17383.33929
2961.65895	17403.76786
2964.11142	17385.33929
2966.56239	17314.05357
2969.01186	17332.19643
2971.45984	17293.05357
2973.90632	17246.48214
2976.35131	17201.48214
2978.7948	17216.05357
2981.23681	17191.91071
2983.67732	17141.05357
2986.11635	17089.48214
2988.55388	17043.48214
2990.98993	17023.76786
2993.4245	16989.91071
2995.85758	16989.625
2998.28917	16961.76786
3000.71928	16950.76786
3003.14791	16918.33929
3005.57506	16910.76786
3008.00073	16872.19643
3010.42493	16844.48214
3012.84764	16832.19643
3015.26888	16814.91071
3017.68865	16774.33929
3020.10694	16717.19643
3022.52376	16714.91071
3024.9391	16698.76786
3027.35298	16700.91071
3029.76539	16670.625
3032.17632	16634.33929
3034.5858	16622.33929
3036.9938	16656.33929
3039.40034	16629.05357
3041.80542	16624.76786
3044.20903	16585.48214
3046.61118	16580.625
3049.01187	16555.48214
3051.4111	16539.05357
3053.80888	16517.05357
3056.20519	16506.33929
3058.60005	16440.48214
3060.99345	16436.19643
3063.3854	16385.05357
3065.7759	16320.19643
3068.16494	16351.33929
3070.55254	16281.76786
3072.93868	16238.33929
3075.32338	16195.33929
3077.70662	16181.625
3080.08842	16155.625
3082.46878	16145.05357
3084.84769	16087.33929
3087.22515	16089.76786
3089.60118	16145.19643
3091.97576	16162.91071
3094.3489	16156.91071
3096.72061	16131.76786
3099.09087	16127.91071
3101.4597	16113.625
3103.82709	16127.76786
3106.19305	16096.91071
3108.55757	16096.05357
3110.92066	16080.19643
3113.28232	16030.19643
3115.64255	16037.05357
3118.00134	15986.48214
3120.35871	15938.91071
3122.71466	15935.91071
3125.06917	15927.05357
3127.42226	15904.48214
3129.77393	15903.76786
3132.12417	15919.33929
3134.47299	15891.625
3136.82039	15880.05357
3139.16636	15862.05357
3141.51092	15870.19643
3143.85406	15864.76786
3146.19579	15895.76786
3148.53609	15896.05357
3150.87499	15876.625
3153.21246	15904.625
3155.54853	15962.91071
3157.88318	15914.625
3160.21642	15953.91071
3162.54826	15959.19643
3164.87868	15949.48214
3167.2077	15951.48214
3169.5353	15921.19643
3171.86151	15948.625
3174.18631	15952.76786
3176.5097	15957.48214
3178.83169	15920.625
3181.15228	15930.91071
3183.47147	15850.625
3185.78926	15857.91071
3188.10565	15873.91071
3190.42065	15820.76786
3192.73424	15862.19643
3195.04645	15853.05357
3197.35725	15867.19643
3199.66667	15852.76786
3201.97469	15847.625
3204.28132	15840.76786
3206.58656	15853.91071
3208.8904	15895.91071
3211.19287	15873.05357
3213.49394	15902.625
3215.79363	15911.19643
3218.09193	15946.33929
3220.38884	15926.76786
3222.68438	15946.625
3224.97853	15939.76786
3227.2713	15906.33929
3229.56269	15925.48214
3231.8527	15934.91071
3234.14133	15873.48214
3236.42858	15820.19643
3238.71446	15820.33929
3240.99896	15778.19643
3243.28209	15756.48214
3245.56384	15771.76786
3247.84423	15744.05357
3250.12324	15747.48214
3252.40088	15729.33929
3254.67715	15751.33929
3256.95205	15723.76786
3259.22558	15735.76786
3261.49775	15738.48214
3263.76855	15701.33929
3266.03799	15695.48214
3268.30606	15687.05357
3270.57277	15668.33929
3272.83812	15633.48214
3275.10211	15634.76786
3277.36474	15595.19643
3279.62601	15603.76786
3281.88593	15564.76786
3284.14448	15566.76786
3286.40168	15528.76786
3288.65753	15539.33929
3290.91202	15578.625
3293.16516	15508.05357
3295.41695	15461.48214
3297.66738	15414.33929
3299.91647	15348.05357
3302.16421	15244.91071
3304.4106	15214.76786
3306.65564	15095.91071
3308.89933	15040.76786
3311.14169	14905.19643
3313.38269	14793.33929
3315.62236	14694.625
3317.86068	14546.48214
3320.09766	14505.625
3322.3333	14403.625
3324.5676	14357.48214
3326.80056	14124.19643
3329.03219	14056.48214
3331.26248	2.48214
3333.49143	-0.51786
3335.71905	0.48214
