Data from AgNPs_FTO_APTES_UA_20uM_CRN_100uM_R6G_10uM_NaF_0.1M_Addition_RamanShift__11__17-31-24-877.txt Node

Date: Thu Feb 17 17:31:24 GMT 2022
User: TCL
Spectrometer: QEP01345
Trigger mode: 4
Integration Time (sec): 1.000000E1
Scans to average: 7
Electric dark correction enabled: true
Nonlinearity correction enabled: false
Boxcar width: 0
XAxis mode: Raman Shifts
Number of Pixels in Spectrum: 1044
>>>>>Begin Spectral Data<<<<<
46.04893	0.83929
50.45542	-1.58929
54.85868	-0.16071
59.25871	-2.73214
63.6555	80.125
68.04907	81.69643
72.43941	87.41071
76.82654	90.26786
81.21044	95.83929
85.59113	95.55357
89.96862	106.98214
94.34289	102.125
98.71396	112.125
103.08183	109.125
107.4465	114.26786
111.80798	112.83929
116.16626	118.26786
120.52136	121.26786
124.87327	126.98214
129.222	133.55357
133.56755	133.83929
137.90993	148.98214
142.24913	163.125
146.58517	177.55357
150.91804	205.83929
155.24774	244.41071
159.57429	292.83929
163.89768	382.26786
168.21792	496.69643
172.53501	680.125
176.84895	943.41071
181.15975	1346.41071
185.46741	1896.55357
189.77193	2638.125
194.07331	3543.125
198.37157	4615.26786
202.6667	5741.26786
206.9587	6843.125
211.24758	7925.55357
215.53334	9000.125
219.81599	10120.41071
224.09553	11332.55357
228.37195	12659.26786
232.64527	14124.83929
236.91549	15691.98214
241.18261	17336.98214
245.44663	18955.41071
249.70755	20382.26786
253.96539	21650.125
258.22014	22706.41071
262.4718	23523.83929
266.72039	24195.69643
270.96589	24502.41071
275.20832	24480.26786
279.44768	24287.55357
283.68397	23959.26786
287.91719	23619.41071
292.14735	23339.55357
296.37445	23207.55357
300.59849	23233.83929
304.81948	23266.55357
309.03742	23285.41071
313.25231	23195.125
317.46415	22915.125
321.67296	22555.55357
325.87872	22344.41071
330.08145	22272.125
334.28114	22316.41071
338.47781	22551.83929
342.67145	22833.83929
346.86207	23249.83929
351.04966	23674.26786
355.23424	24175.26786
359.4158	24564.98214
363.59435	24973.41071
367.76989	25250.55357
371.94243	25516.125
376.11196	25693.69643
380.27849	25825.69643
384.44203	25940.98214
388.60257	26105.125
392.76012	26267.69643
396.91468	26422.41071
401.06626	26713.83929
405.21485	26902.41071
409.36047	26927.41071
413.50311	26654.69643
417.64277	26408.26786
421.77947	26280.69643
425.9132	26249.26786
430.04396	26336.98214
434.17176	26473.98214
438.2966	26730.98214
442.41849	27047.125
446.53742	27407.98214
450.6534	27779.41071
454.76644	28137.55357
458.87653	28337.83929
462.98368	28313.83929
467.08789	28260.125
471.18916	28161.125
475.2875	27948.41071
479.38291	27759.83929
483.4754	27626.83929
487.56496	27513.26786
491.6516	27471.69643
495.73531	27483.125
499.81612	27505.83929
503.89401	27635.55357
507.96899	27792.41071
512.04106	27908.55357
516.11023	27972.69643
520.1765	28124.26786
524.23987	28097.83929
528.30034	28049.55357
532.35792	28010.41071
536.41261	27914.125
540.46441	27804.98214
544.51333	27757.69643
548.55936	27814.83929
552.60252	27966.55357
556.64279	28144.41071
560.6802	28261.83929
564.71473	28272.55357
568.7464	28318.125
572.7752	28433.125
576.80114	28440.55357
580.82422	28329.26786
584.84444	28420.83929
588.86181	28615.55357
592.87633	28839.69643
596.888	29050.125
600.89682	29317.41071
604.9028	30213.69643
608.90594	32355.26786
612.90624	34939.98214
616.90371	34175.69643
620.89834	30626.55357
624.89015	29028.26786
628.87913	28796.83929
632.86528	28875.83929
636.84862	28924.41071
640.82913	28854.125
644.80683	28542.83929
648.78172	28298.41071
652.75379	28276.41071
656.72306	28509.98214
660.68952	28908.83929
664.65319	28837.125
668.61405	28684.55357
672.57211	28704.41071
676.52738	28891.125
680.47986	28953.26786
684.42955	28879.26786
688.37646	28829.69643
692.32058	28788.83929
696.26192	28843.83929
700.20048	28991.55357
704.13626	29149.98214
708.06928	28988.69643
711.99952	28838.98214
715.927	28764.26786
719.85171	28799.41071
723.77365	28891.98214
727.69284	28762.98214
731.60928	28775.83929
735.52295	28714.83929
739.43388	28735.55357
743.34206	28803.26786
747.24749	28777.41071
751.15017	28818.55357
755.05012	28874.41071
758.94733	29093.83929
762.8418	29702.83929
766.73354	30895.125
770.62254	32256.83929
774.50882	33031.98214
778.39237	32696.26786
782.27321	31378.41071
786.15132	30130.125
790.02671	29227.69643
793.89938	28811.41071
797.76935	28631.125
801.6366	28556.69643
805.50115	28546.26786
809.36299	28487.83929
813.22213	28417.41071
817.07857	28388.26786
820.93231	28359.69643
824.78336	28338.69643
828.63172	28448.55357
832.47738	28441.98214
836.32036	28454.83929
840.16066	28521.41071
843.99827	28543.69643
847.8332	28545.83929
851.66546	28537.83929
855.49504	28596.55357
859.32195	28628.98214
863.1462	28647.26786
866.96777	28679.26786
870.78668	28727.26786
874.60293	28720.125
878.41652	28808.98214
882.22745	28842.26786
886.03573	28840.26786
889.84136	28876.83929
893.64433	28762.26786
897.44466	28688.69643
901.24235	28600.26786
905.0374	28492.55357
908.8298	28468.41071
912.61957	28344.41071
916.40671	28390.83929
920.19121	28449.55357
923.97308	28571.55357
927.75233	28673.55357
931.52895	28689.55357
935.30295	28671.26786
939.07433	28479.125
942.84309	28294.125
946.60924	28173.41071
950.37278	28117.26786
954.13371	28026.41071
957.89203	27920.55357
961.64774	27919.98214
965.40086	27785.83929
969.15137	27787.55357
972.89929	27768.55357
976.64461	27800.125
980.38733	27813.69643
984.12747	27823.69643
987.86502	27962.55357
991.59999	28179.55357
995.33237	28346.98214
999.06217	28655.98214
1002.78939	28942.83929
1006.51404	29149.26786
1010.23611	29211.98214
1013.95561	29326.26786
1017.67255	29388.55357
1021.38692	29345.98214
1025.09872	29256.41071
1028.80796	29228.26786
1032.51465	29491.26786
1036.21877	29816.125
1039.92035	29925.69643
1043.61937	29738.69643
1047.31584	29529.41071
1051.00976	29315.69643
1054.70114	29138.69643
1058.38998	29174.55357
1062.07627	29232.55357
1065.76003	29267.69643
1069.44126	29282.41071
1073.11995	29423.98214
1076.79611	29624.125
1080.46974	29765.83929
1084.14085	29914.125
1087.80943	29963.69643
1091.47549	30124.83929
1095.13903	30001.69643
1098.80005	29825.55357
1102.45857	29695.69643
1106.11456	29571.41071
1109.76805	29644.55357
1113.41903	29678.98214
1117.06751	29756.125
1120.71348	29993.41071
1124.35696	30161.69643
1127.99793	30377.55357
1131.63641	30477.69643
1135.2724	30209.98214
1138.90589	29985.26786
1142.5369	29741.41071
1146.16542	29487.69643
1149.79145	29363.125
1153.415	29206.41071
1157.03607	29192.125
1160.65467	29363.69643
1164.27079	29723.83929
1167.88443	30249.98214
1171.49561	31032.83929
1175.10432	32068.83929
1178.71056	33388.41071
1182.31434	34738.41071
1185.91565	35508.69643
1189.51451	35488.26786
1193.11091	34781.98214
1196.70485	33867.55357
1200.29634	33098.41071
1203.88538	32461.98214
1207.47197	31801.69643
1211.05612	31202.98214
1214.63782	30794.55357
1218.21708	30680.125
1221.79391	30632.83929
1225.36829	30655.98214
1228.94024	30674.125
1232.50976	30536.83929
1236.07685	30326.125
1239.6415	30258.26786
1243.20374	30315.125
1246.76355	30477.26786
1250.32093	30658.41071
1253.8759	30928.69643
1257.42845	31242.26786
1260.97859	31592.26786
1264.52631	31989.83929
1268.07163	32373.26786
1271.61453	32742.26786
1275.15503	33079.125
1278.69312	33496.69643
1282.22882	33676.55357
1285.76211	33848.55357
1289.29301	34032.55357
1292.82151	34341.26786
1296.34761	34704.125
1299.87133	35469.125
1303.39266	36484.55357
1306.9116	38005.69643
1310.42815	39622.98214
1313.94233	40527.98214
1317.45412	40305.41071
1320.96354	39247.125
1324.47058	38027.98214
1327.97525	36875.83929
1331.47754	35978.83929
1334.97747	35633.83929
1338.47502	35592.26786
1341.97022	35929.125
1345.46305	36447.98214
1348.95352	37263.125
1352.44163	38213.83929
1355.92738	39553.83929
1359.41078	41311.125
1362.89183	42811.55357
1366.37053	42146.98214
1369.84688	39245.125
1373.32088	36157.83929
1376.79254	34071.83929
1380.26186	32915.69643
1383.72883	32350.98214
1387.19347	31836.69643
1390.65578	31375.69643
1394.11575	30923.55357
1397.57339	30697.83929
1401.0287	30609.83929
1404.48168	30615.98214
1407.93234	30638.55357
1411.38068	30672.83929
1414.82669	30726.83929
1418.27039	30685.26786
1421.71177	30565.125
1425.15083	30331.41071
1428.58758	30146.98214
1432.02203	30120.98214
1435.45416	30345.69643
1438.88399	30442.41071
1442.31151	30498.83929
1445.73673	30541.69643
1449.15965	30629.41071
1452.58027	30629.98214
1455.9986	30527.83929
1459.41463	30617.69643
1462.82837	30807.69643
1466.23982	31116.41071
1469.64898	31482.26786
1473.05586	31781.83929
1476.46045	31955.69643
1479.86276	32120.125
1483.26279	32265.69643
1486.66054	32398.69643
1490.05602	32605.69643
1493.44922	32953.26786
1496.84016	33509.98214
1500.22882	34388.125
1503.61521	35666.98214
1506.99934	37090.41071
1510.38121	38313.26786
1513.76081	38523.55357
1517.13816	37527.26786
1520.51324	35879.125
1523.88607	34222.26786
1527.25665	33120.125
1530.62498	32553.69643
1533.99105	32164.98214
1537.35488	31983.26786
1540.71647	31856.41071
1544.07581	31816.26786
1547.4329	31782.125
1550.78776	31660.125
1554.14038	31586.41071
1557.49077	31704.69643
1560.83892	31770.98214
1564.18484	31931.83929
1567.52853	32128.55357
1570.86999	32296.83929
1574.20922	32435.55357
1577.54624	32482.125
1580.88103	32093.26786
1584.2136	31556.26786
1587.54395	31317.69643
1590.87208	31562.69643
1594.19801	32355.69643
1597.52172	33494.125
1600.84321	34049.26786
1604.16251	33699.41071
1607.47959	32853.26786
1610.79447	31965.69643
1614.10715	30880.125
1617.41763	29931.125
1620.7259	29280.69643
1624.03199	28854.41071
1627.33587	28775.125
1630.63757	28953.98214
1633.93707	29397.69643
1637.23439	30219.41071
1640.52951	31368.26786
1643.82246	32861.98214
1647.11321	34272.98214
1650.40179	34954.98214
1653.68819	34211.83929
1656.97241	32209.125
1660.25446	30182.83929
1663.53433	28771.69643
1666.81203	27868.55357
1670.08756	27288.125
1673.36092	26912.55357
1676.63211	26674.41071
1679.90115	26484.98214
1683.16801	26325.69643
1686.43272	26180.26786
1689.69527	26102.125
1692.95567	26014.41071
1696.2139	26001.69643
1699.46999	25940.98214
1702.72392	25908.41071
1705.97571	25887.26786
1709.22535	25863.26786
1712.47284	25920.41071
1715.71819	25898.26786
1718.96139	25818.83929
1722.20246	25800.41071
1725.44139	25755.83929
1728.67818	25653.41071
1731.91284	25579.125
1735.14537	25547.125
1738.37576	25496.125
1741.60403	25405.69643
1744.83017	25322.98214
1748.05418	25315.55357
1751.27607	25323.41071
1754.49584	25279.69643
1757.71349	25310.41071
1760.92903	25278.98214
1764.14244	25283.125
1767.35375	25244.69643
1770.56294	25164.125
1773.77002	25124.125
1776.97499	25050.41071
1780.17785	25077.26786
1783.37861	25085.26786
1786.57727	25030.98214
1789.77382	24960.69643
1792.96828	24941.55357
1796.16064	24898.41071
1799.3509	24815.41071
1802.53907	24766.125
1805.72514	24763.83929
1808.90913	24712.26786
1812.09102	24648.98214
1815.27083	24592.69643
1818.44856	24558.69643
1821.6242	24564.41071
1824.79776	24541.55357
1827.96924	24468.55357
1831.13864	24428.26786
1834.30597	24438.83929
1837.47122	24486.83929
1840.6344	24402.125
1843.7955	24425.55357
1846.95454	24382.26786
1850.11151	24403.26786
1853.26642	24379.69643
1856.41926	24307.83929
1859.57004	24268.55357
1862.71876	24265.55357
1865.86542	24313.83929
1869.01003	24286.125
1872.15258	24264.98214
1875.29308	24205.41071
1878.43152	24170.69643
1881.56792	24209.55357
1884.70227	24173.98214
1887.83457	24136.26786
1890.96482	24089.125
1894.09304	24050.98214
1897.21921	24078.83929
1900.34335	24048.55357
1903.46544	24007.55357
1906.58551	23969.69643
1909.70353	23950.69643
1912.81953	23920.98214
1915.93349	23885.125
1919.04543	23876.83929
1922.15534	23869.41071
1925.26322	23777.125
1928.36908	23746.41071
1931.47292	23757.69643
1934.57473	23692.69643
1937.67453	23668.26786
1940.77232	23576.69643
1943.86808	23528.26786
1946.96184	23506.55357
1950.05358	23419.69643
1953.14331	23380.98214
1956.23103	23317.125
1959.31675	23261.41071
1962.40046	23187.26786
1965.48217	23155.83929
1968.56188	23057.41071
1971.63959	22966.83929
1974.7153	22977.69643
1977.78901	22875.26786
1980.86073	22866.41071
1983.93046	22752.55357
1986.99819	22676.98214
1990.06394	22634.55357
1993.1277	22601.125
1996.18947	22438.98214
1999.24925	22412.69643
2002.30706	22365.41071
2005.36288	22244.69643
2008.41672	22240.69643
2011.46859	22207.125
2014.51848	22137.26786
2017.56639	22065.83929
2020.61233	21995.26786
2023.6563	21968.26786
2026.6983	21895.69643
2029.73833	21838.83929
2032.7764	21844.83929
2035.8125	21827.41071
2038.84664	21752.69643
2041.87881	21695.69643
2044.90903	21648.69643
2047.93729	21597.26786
2050.96359	21612.26786
2053.98794	21593.26786
2057.01034	21572.83929
2060.03078	21541.83929
2063.04927	21524.125
2066.06582	21512.55357
2069.08042	21480.26786
2072.09307	21497.98214
2075.10378	21546.125
2078.11255	21497.41071
2081.11938	21508.98214
2084.12426	21505.26786
2087.12722	21483.41071
2090.12824	21485.41071
2093.12732	21434.26786
2096.12447	21446.26786
2099.11969	21502.26786
2102.11299	21428.83929
2105.10435	21478.41071
2108.09379	21502.69643
2111.08131	21529.69643
2114.0669	21554.83929
2117.05057	21542.69643
2120.03233	21562.55357
2123.01216	21560.41071
2125.99008	21612.26786
2128.96609	21707.55357
2131.94018	21676.41071
2134.91236	21681.55357
2137.88263	21687.98214
2140.851	21687.41071
2143.81746	21736.98214
2146.78201	21722.26786
2149.74466	21745.26786
2152.7054	21798.125
2155.66425	21740.69643
2158.6212	21681.98214
2161.57625	21729.41071
2164.52941	21681.41071
2167.48067	21690.69643
2170.43004	21683.69643
2173.37752	21711.41071
2176.32311	21689.98214
2179.26681	21659.125
2182.20863	21677.98214
2185.14856	21688.98214
2188.08661	21676.55357
2191.02278	21709.83929
2193.95707	21692.125
2196.88948	21674.98214
2199.82001	21673.26786
2202.74867	21674.41071
2205.67545	21624.125
2208.60037	21626.98214
2211.52341	21557.55357
2214.44458	21540.83929
2217.36388	21514.55357
2220.28132	21440.55357
2223.1969	21429.98214
2226.11061	21366.26786
2229.02246	21320.125
2231.93245	21330.83929
2234.84058	21228.26786
2237.74686	21182.83929
2240.65128	21216.83929
2243.55385	21218.55357
2246.45456	21242.41071
2249.35343	21153.55357
2252.25044	21136.125
2255.14561	21075.41071
2258.03893	21063.98214
2260.93041	21025.55357
2263.82004	21003.125
2266.70783	20952.125
2269.59378	20873.98214
2272.4779	20874.125
2275.36017	20845.98214
2278.24061	20752.55357
2281.11922	20747.125
2283.996	20760.98214
2286.87094	20752.125
2289.74405	20674.69643
2292.61534	20645.26786
2295.4848	20670.55357
2298.35243	20670.41071
2301.21824	20649.26786
2304.08223	20617.125
2306.94439	20601.69643
2309.80474	20588.125
2312.66327	20594.55357
2315.51999	20584.55357
2318.37489	20592.125
2321.22797	20536.125
2324.07925	20495.41071
2326.92871	20452.98214
2329.77637	20438.125
2332.62222	20365.83929
2335.46626	20354.125
2338.3085	20350.26786
2341.14893	20338.26786
2343.98756	20286.69643
2346.8244	20299.26786
2349.65943	20290.26786
2352.49267	20287.41071
2355.32411	20305.69643
2358.15376	20268.26786
2360.98161	20224.41071
2363.80768	20156.98214
2366.63195	20201.69643
2369.45444	20137.69643
2372.27514	20137.69643
2375.09405	20110.41071
2377.91118	20097.98214
2380.72652	20037.83929
2383.54009	19971.125
2386.35187	19952.69643
2389.16188	19919.69643
2391.97011	19924.125
2394.77657	19836.69643
2397.58125	19854.69643
2400.38416	19817.55357
2403.18529	19806.26786
2405.98466	19830.41071
2408.78226	19705.26786
2411.57809	19674.55357
2414.37216	19644.26786
2417.16446	19696.125
2419.955	19646.125
2422.74378	19598.98214
2425.5308	19555.83929
2428.31606	19557.98214
2431.09956	19542.83929
2433.88131	19565.41071
2436.6613	19547.41071
2439.43954	19520.26786
2442.21603	19500.125
2444.99077	19475.125
2447.76377	19511.98214
2450.53501	19464.69643
2453.30451	19460.26786
2456.07226	19420.26786
2458.83827	19397.55357
2461.60254	19386.55357
2464.36507	19320.26786
2467.12586	19285.69643
2469.88492	19278.55357
2472.64224	19288.125
2475.39782	19258.98214
2478.15167	19293.69643
2480.90379	19276.41071
2483.65417	19367.125
2486.40283	19328.83929
2489.14976	19289.98214
2491.89497	19304.125
2494.63845	19294.41071
2497.3802	19259.69643
2500.12024	19228.69643
2502.85855	19256.125
2505.59514	19182.125
2508.33002	19176.125
2511.06318	19132.125
2513.79462	19084.69643
2516.52435	19124.55357
2519.25237	19086.55357
2521.97867	19037.125
2524.70327	19027.125
2527.42616	18993.125
2530.14734	18967.69643
2532.86681	18942.26786
2535.58458	18941.55357
2538.30065	18912.69643
2541.01501	18916.83929
2543.72768	18858.69643
2546.43864	18869.125
2549.14791	18859.41071
2551.85548	18811.83929
2554.56136	18785.26786
2557.26554	18744.41071
2559.96803	18696.55357
2562.66883	18689.69643
2565.36794	18645.125
2568.06536	18622.26786
2570.7611	18550.26786
2573.45514	18609.55357
2576.14751	18525.55357
2578.83819	18516.41071
2581.52719	18454.41071
2584.21451	18487.26786
2586.90015	18376.55357
2589.58411	18372.41071
2592.2664	18361.98214
2594.94701	18291.125
2597.62594	18303.98214
2600.30321	18262.69643
2602.9788	18220.98214
2605.65273	18210.83929
2608.32498	18229.69643
2610.99557	18197.41071
2613.66449	18152.83929
2616.33175	18156.41071
2618.99734	18166.55357
2621.66128	18120.125
2624.32355	18116.125
2626.98416	18062.26786
2629.64311	18077.125
2632.30041	18045.83929
2634.95605	18012.55357
2637.61004	18001.26786
2640.26238	17961.83929
2642.91306	17968.125
2645.56209	17962.69643
2648.20948	17929.125
2650.85521	17937.55357
2653.4993	17927.125
2656.14175	17868.83929
2658.78255	17870.83929
2661.42171	17885.41071
2664.05923	17911.98214
2666.6951	17894.41071
2669.32934	17894.69643
2671.96194	17901.55357
2674.59291	17880.98214
2677.22224	17899.83929
2679.84993	17885.125
2682.476	17866.41071
2685.10043	17851.83929
2687.72324	17810.55357
2690.34441	17777.69643
2692.96396	17793.41071
2695.58188	17832.125
2698.19818	17797.125
2700.81285	17783.69643
2703.4259	17788.98214
2706.03733	17789.69643
2708.64714	17796.26786
2711.25533	17833.98214
2713.86191	17812.55357
2716.46687	17843.83929
2719.07021	17857.69643
2721.67194	17809.41071
2724.27206	17821.55357
2726.87057	17885.55357
2729.46747	17845.83929
2732.06276	17798.98214
2734.65644	17798.26786
2737.24852	17770.55357
2739.83899	17768.26786
2742.42786	17775.26786
2745.01513	17729.55357
2747.60079	17699.69643
2750.18486	17686.41071
2752.76733	17670.69643
2755.3482	17622.98214
2757.92747	17652.26786
2760.50515	17604.83929
2763.08123	17618.41071
2765.65573	17618.55357
2768.22863	17579.26786
2770.79994	17536.55357
2773.36967	17504.26786
2775.9378	17523.98214
2778.50435	17464.41071
2781.06932	17462.125
2783.6327	17461.98214
2786.1945	17407.55357
2788.75471	17374.98214
2791.31335	17330.125
2793.87041	17320.69643
2796.42589	17287.55357
2798.97979	17253.26786
2801.53212	17262.83929
2804.08288	17189.83929
2806.63206	17220.69643
2809.17967	17187.98214
2811.72571	17121.41071
2814.27018	17092.69643
2816.81308	17061.69643
2819.35442	16999.98214
2821.89419	16950.69643
2824.43239	16958.26786
2826.96904	16915.55357
2829.50412	16887.69643
2832.03763	16888.83929
2834.56959	16891.69643
2837.1	16871.98214
2839.62884	16841.26786
2842.15613	16813.41071
2844.68186	16825.55357
2847.20604	16757.26786
2849.72867	16830.98214
2852.24974	16787.69643
2854.76927	16781.41071
2857.28724	16749.41071
2859.80367	16702.41071
2862.31855	16727.83929
2864.83189	16713.26786
2867.34368	16672.55357
2869.85393	16632.98214
2872.36264	16639.26786
2874.8698	16666.83929
2877.37543	16627.98214
2879.87952	16600.69643
2882.38207	16599.41071
2884.88308	16562.125
2887.38256	16625.83929
2889.88051	16648.83929
2892.37692	16633.98214
2894.8718	16626.41071
2897.36515	16641.69643
2899.85698	16641.125
2902.34727	16653.98214
2904.83604	16653.41071
2907.32328	16711.26786
2909.809	16710.55357
2912.29319	16674.41071
2914.77587	16683.98214
2917.25702	16672.83929
2919.73665	16660.41071
2922.21476	16712.69643
2924.69136	16659.41071
2927.16644	16674.98214
2929.64	16635.125
2932.11205	16630.83929
2934.58258	16583.69643
2937.05161	16623.55357
2939.51912	16624.69643
2941.98513	16618.98214
2944.44962	16593.55357
2946.91261	16589.26786
2949.37409	16582.83929
2951.83407	16580.83929
2954.29254	16572.26786
2956.74951	16556.83929
2959.20498	16580.69643
2961.65895	16509.69643
2964.11142	16504.69643
2966.56239	16493.69643
2969.01186	16514.83929
2971.45984	16458.98214
2973.90632	16452.55357
2976.35131	16398.55357
2978.7948	16414.69643
2981.23681	16391.98214
2983.67732	16359.98214
2986.11635	16312.125
2988.55388	16288.41071
2990.98993	16262.55357
2993.4245	16273.83929
2995.85758	16233.83929
2998.28917	16190.83929
3000.71928	16201.98214
3003.14791	16156.55357
3005.57506	16143.55357
3008.00073	16120.69643
3010.42493	16112.26786
3012.84764	16056.41071
3015.26888	16063.125
3017.68865	16017.125
3020.10694	16034.41071
3022.52376	15996.41071
3024.9391	16002.26786
3027.35298	15938.125
3029.76539	15938.125
3032.17632	15964.83929
3034.5858	15893.125
3036.9938	15903.125
3039.40034	15896.55357
3041.80542	15881.69643
3044.20903	15816.41071
3046.61118	15854.26786
3049.01187	15785.98214
3051.4111	15827.125
3053.80888	15763.26786
3056.20519	15727.83929
3058.60005	15698.41071
3060.99345	15657.26786
3063.3854	15653.83929
3065.7759	15615.125
3068.16494	15566.83929
3070.55254	15579.83929
3072.93868	15564.55357
3075.32338	15503.55357
3077.70662	15495.69643
3080.08842	15467.69643
3082.46878	15436.125
3084.84769	15441.83929
3087.22515	15420.41071
3089.60118	15453.55357
3091.97576	15437.69643
3094.3489	15459.26786
3096.72061	15453.98214
3099.09087	15427.69643
3101.4597	15414.69643
3103.82709	15454.55357
3106.19305	15405.98214
3108.55757	15442.55357
3110.92066	15448.41071
3113.28232	15366.125
3115.64255	15396.41071
3118.00134	15341.98214
3120.35871	15322.41071
3122.71466	15310.26786
3125.06917	15241.98214
3127.42226	15227.98214
3129.77393	15247.69643
3132.12417	15219.69643
3134.47299	15212.41071
3136.82039	15198.55357
3139.16636	15227.69643
3141.51092	15197.69643
3143.85406	15273.26786
3146.19579	15229.41071
3148.53609	15204.41071
3150.87499	15258.125
3153.21246	15275.41071
3155.54853	15308.125
3157.88318	15268.69643
3160.21642	15301.55357
3162.54826	15326.98214
3164.87868	15325.83929
3167.2077	15337.98214
3169.5353	15335.26786
3171.86151	15303.69643
3174.18631	15310.41071
3176.5097	15287.69643
3178.83169	15279.83929
3181.15228	15293.83929
3183.47147	15275.55357
3185.78926	15240.69643
3188.10565	15227.41071
3190.42065	15231.55357
3192.73424	15210.41071
3195.04645	15223.55357
3197.35725	15185.26786
3199.66667	15208.41071
3201.97469	15192.83929
3204.28132	15178.125
3206.58656	15194.125
3208.8904	15247.41071
3211.19287	15234.26786
3213.49394	15257.83929
3215.79363	15233.41071
3218.09193	15266.69643
3220.38884	15236.41071
3222.68438	15289.55357
3224.97853	15272.69643
3227.2713	15286.41071
3229.56269	15230.26786
3231.8527	15229.83929
3234.14133	15199.55357
3236.42858	15163.55357
3238.71446	15147.26786
3240.99896	15079.125
3243.28209	15088.98214
3245.56384	15089.55357
3247.84423	15093.41071
3250.12324	15076.83929
3252.40088	15070.41071
3254.67715	15071.83929
3256.95205	15044.98214
3259.22558	15075.69643
3261.49775	15056.26786
3263.76855	15077.98214
3266.03799	15002.26786
3268.30606	15035.98214
3270.57277	14990.55357
3272.83812	14988.41071
3275.10211	14959.55357
3277.36474	14929.69643
3279.62601	14921.125
3281.88593	14908.125
3284.14448	14908.41071
3286.40168	14907.83929
3288.65753	14848.55357
3290.91202	14873.26786
3293.16516	14842.55357
3295.41695	14836.125
3297.66738	14753.41071
3299.91647	14645.125
3302.16421	14559.41071
3304.4106	14513.69643
3306.65564	14430.98214
3308.89933	14344.69643
3311.14169	14234.125
3313.38269	14164.69643
3315.62236	14073.98214
3317.86068	13935.98214
3320.09766	13877.98214
3322.3333	13795.41071
3324.5676	13732.98214
3326.80056	13553.69643
3329.03219	13444.69643
3331.26248	3.83929
3333.49143	-0.01786
3335.71905	-2.30357
