Data from AgNPs_FTO_APTES_UA_10uM_CRN_50uM_R6G_10uM_NaF_0.1M_Addition_RamanShift__7__16-43-34-817.txt Node

Date: Thu Feb 17 16:43:34 GMT 2022
User: TCL
Spectrometer: QEP01345
Trigger mode: 4
Integration Time (sec): 1.000000E1
Scans to average: 7
Electric dark correction enabled: true
Nonlinearity correction enabled: false
Boxcar width: 0
XAxis mode: Raman Shifts
Number of Pixels in Spectrum: 1044
>>>>>Begin Spectral Data<<<<<
46.04893	0.41071
50.45542	-1.58929
54.85868	-0.875
59.25871	-2.44643
63.6555	75.26786
68.04907	78.98214
72.43941	84.41071
76.82654	88.125
81.21044	88.83929
85.59113	93.26786
89.96862	96.83929
94.34289	98.98214
98.71396	104.98214
103.08183	105.55357
107.4465	109.26786
111.80798	111.83929
116.16626	113.83929
120.52136	120.83929
124.87327	126.69643
129.222	128.41071
133.56755	132.98214
137.90993	146.41071
142.24913	155.55357
146.58517	171.26786
150.91804	198.98214
155.24774	239.125
159.57429	291.125
163.89768	376.26786
168.21792	492.26786
172.53501	674.98214
176.84895	963.26786
181.15975	1345.26786
185.46741	1902.41071
189.77193	2625.26786
194.07331	3522.26786
198.37157	4570.41071
202.6667	5676.55357
206.9587	6765.55357
211.24758	7826.98214
215.53334	8912.26786
219.81599	10062.26786
224.09553	11325.125
228.37195	12727.98214
232.64527	14251.41071
236.91549	15844.26786
241.18261	17405.98214
245.44663	18829.55357
249.70755	20033.69643
253.96539	21098.41071
258.22014	21966.83929
262.4718	22715.41071
266.72039	23209.26786
270.96589	23433.83929
275.20832	23383.55357
279.44768	23127.55357
283.68397	22826.26786
287.91719	22539.41071
292.14735	22386.26786
296.37445	22441.55357
300.59849	22727.69643
304.81948	23098.125
309.03742	23422.69643
313.25231	23534.69643
317.46415	23164.55357
321.67296	22482.83929
325.87872	21856.98214
330.08145	21557.26786
334.28114	21569.98214
338.47781	21774.98214
342.67145	22090.69643
346.86207	22591.83929
351.04966	23142.26786
355.23424	23844.26786
359.4158	24298.41071
363.59435	24644.98214
367.76989	24735.98214
371.94243	24782.26786
376.11196	24759.69643
380.27849	24802.55357
384.44203	24859.41071
388.60257	24905.26786
392.76012	25059.26786
396.91468	25350.125
401.06626	25710.55357
405.21485	25983.98214
409.36047	25822.26786
413.50311	25191.98214
417.64277	24747.125
421.77947	24466.125
425.9132	24404.55357
430.04396	24430.26786
434.17176	24476.69643
438.2966	24617.69643
442.41849	24910.26786
446.53742	25288.98214
450.6534	25694.98214
454.76644	26053.125
458.87653	26110.98214
462.98368	26069.83929
467.08789	25892.125
471.18916	25677.125
475.2875	25293.125
479.38291	24958.69643
483.4754	24703.26786
487.56496	24580.125
491.6516	24525.26786
495.73531	24500.98214
499.81612	24544.69643
503.89401	24697.83929
507.96899	24866.83929
512.04106	24899.26786
516.11023	24987.41071
520.1765	25049.98214
524.23987	25104.55357
528.30034	25035.55357
532.35792	25012.83929
536.41261	24820.69643
540.46441	24544.55357
544.51333	24436.55357
548.55936	24503.26786
552.60252	24804.83929
556.64279	25182.83929
560.6802	25311.55357
564.71473	25377.55357
568.7464	25542.41071
572.7752	25730.55357
576.80114	25737.98214
580.82422	25890.125
584.84444	26390.55357
588.86181	26845.26786
592.87633	27185.26786
596.888	27370.55357
600.89682	27359.125
604.9028	28373.55357
608.90594	31771.69643
612.90624	36035.26786
616.90371	34618.98214
620.89834	28551.55357
624.89015	25653.41071
628.87913	25144.83929
632.86528	25378.98214
636.84862	25675.41071
640.82913	25484.26786
644.80683	24970.69643
648.78172	24497.55357
652.75379	24506.41071
656.72306	24914.26786
660.68952	25438.125
664.65319	25321.69643
668.61405	24881.55357
672.57211	24700.41071
676.52738	24781.41071
680.47986	24779.98214
684.42955	24601.125
688.37646	24448.55357
692.32058	24517.125
696.26192	24698.83929
700.20048	24935.41071
704.13626	25126.41071
708.06928	25123.69643
711.99952	24937.41071
715.927	24839.98214
719.85171	24956.41071
723.77365	24978.125
727.69284	24809.69643
731.60928	24625.69643
735.52295	24592.98214
739.43388	24614.83929
743.34206	24649.41071
747.24749	24677.41071
751.15017	24771.41071
755.05012	24948.69643
758.94733	25486.125
762.8418	26760.69643
766.73354	29011.26786
770.62254	31246.83929
774.50882	32053.125
778.39237	31035.83929
782.27321	28914.41071
786.15132	26835.41071
790.02671	25529.41071
793.89938	24898.55357
797.76935	24631.98214
801.6366	24477.125
805.50115	24380.125
809.36299	24329.26786
813.22213	24164.26786
817.07857	24125.125
820.93231	24137.69643
824.78336	24130.125
828.63172	24198.26786
832.47738	24159.125
836.32036	24150.98214
840.16066	24145.69643
843.99827	24103.83929
847.8332	24102.125
851.66546	24057.83929
855.49504	24145.69643
859.32195	24094.83929
863.1462	24145.26786
866.96777	24136.69643
870.78668	24197.83929
874.60293	24204.69643
878.41652	24226.41071
882.22745	24327.26786
886.03573	24408.41071
889.84136	24398.125
893.64433	24341.41071
897.44466	24258.125
901.24235	24222.69643
905.0374	24123.55357
908.8298	23999.55357
912.61957	23966.55357
916.40671	24030.55357
920.19121	24081.98214
923.97308	24301.41071
927.75233	24399.98214
931.52895	24492.125
935.30295	24348.125
939.07433	23999.98214
942.84309	23731.55357
946.60924	23544.98214
950.37278	23407.41071
954.13371	23421.125
957.89203	23349.98214
961.64774	23343.41071
965.40086	23346.55357
969.15137	23304.55357
972.89929	23233.69643
976.64461	23293.98214
980.38733	23271.41071
984.12747	23314.69643
987.86502	23398.98214
991.59999	23516.98214
995.33237	23630.41071
999.06217	23806.83929
1002.78939	24104.55357
1006.51404	24351.83929
1010.23611	24691.83929
1013.95561	24887.26786
1017.67255	24902.98214
1021.38692	24747.125
1025.09872	24555.55357
1028.80796	24384.125
1032.51465	24356.26786
1036.21877	24400.98214
1039.92035	24457.98214
1043.61937	24570.83929
1047.31584	24650.83929
1051.00976	24615.26786
1054.70114	24613.98214
1058.38998	24624.69643
1062.07627	24772.98214
1065.76003	24818.26786
1069.44126	25063.83929
1073.11995	25396.83929
1076.79611	25825.55357
1080.46974	26045.125
1084.14085	26269.41071
1087.80943	26429.55357
1091.47549	26532.26786
1095.13903	26378.26786
1098.80005	26004.98214
1102.45857	25631.69643
1106.11456	25386.83929
1109.76805	25245.83929
1113.41903	25370.55357
1117.06751	25644.83929
1120.71348	25997.26786
1124.35696	26482.83929
1127.99793	26926.98214
1131.63641	26990.83929
1135.2724	26566.69643
1138.90589	26134.83929
1142.5369	25782.98214
1146.16542	25614.69643
1149.79145	25421.125
1153.415	25354.41071
1157.03607	25382.98214
1160.65467	25627.26786
1164.27079	26217.55357
1167.88443	27038.55357
1171.49561	28242.41071
1175.10432	29932.125
1178.71056	32137.69643
1182.31434	34079.26786
1185.91565	34900.55357
1189.51451	34686.41071
1193.11091	33884.83929
1196.70485	32631.69643
1200.29634	31519.69643
1203.88538	30380.55357
1207.47197	29221.26786
1211.05612	28211.125
1214.63782	27506.125
1218.21708	27141.69643
1221.79391	26940.69643
1225.36829	26890.41071
1228.94024	26952.26786
1232.50976	26941.41071
1236.07685	26880.41071
1239.6415	26837.69643
1243.20374	26808.69643
1246.76355	26909.41071
1250.32093	27088.83929
1253.8759	27415.125
1257.42845	27819.83929
1260.97859	28415.83929
1264.52631	29026.125
1268.07163	29584.98214
1271.61453	30133.83929
1275.15503	30570.26786
1278.69312	30867.83929
1282.22882	31236.26786
1285.76211	31722.55357
1289.29301	32362.26786
1292.82151	33053.83929
1296.34761	33823.41071
1299.87133	34972.83929
1303.39266	36461.41071
1306.9116	38646.83929
1310.42815	40991.26786
1313.94233	42212.125
1317.45412	41612.55357
1320.96354	39886.83929
1324.47058	38162.69643
1327.97525	36630.55357
1331.47754	35560.41071
1334.97747	35057.26786
1338.47502	35090.125
1341.97022	35465.83929
1345.46305	36321.83929
1348.95352	37728.98214
1352.44163	39555.69643
1355.92738	41680.125
1359.41078	44512.41071
1362.89183	47091.83929
1366.37053	46326.83929
1369.84688	41604.98214
1373.32088	36558.55357
1376.79254	33230.98214
1380.26186	31554.98214
1383.72883	30662.69643
1387.19347	29908.41071
1390.65578	29130.125
1394.11575	28502.83929
1397.57339	28131.41071
1401.0287	28015.69643
1404.48168	27906.98214
1407.93234	27948.55357
1411.38068	27951.69643
1414.82669	27965.83929
1418.27039	27929.41071
1421.71177	27738.125
1425.15083	27404.55357
1428.58758	27255.83929
1432.02203	27314.83929
1435.45416	27571.69643
1438.88399	27771.41071
1442.31151	27824.83929
1445.73673	27857.26786
1449.15965	27879.55357
1452.58027	27898.26786
1455.9986	27783.55357
1459.41463	27821.125
1462.82837	28156.98214
1466.23982	28607.69643
1469.64898	29120.69643
1473.05586	29548.98214
1476.46045	29897.98214
1479.86276	30196.26786
1483.26279	30559.55357
1486.66054	31054.55357
1490.05602	31790.125
1493.44922	32816.125
1496.84016	34381.83929
1500.22882	36657.125
1503.61521	39712.41071
1506.99934	42970.125
1510.38121	45172.83929
1513.76081	44973.125
1517.13816	42360.125
1520.51324	38512.98214
1523.88607	35297.26786
1527.25665	33273.125
1530.62498	32178.41071
1533.99105	31473.41071
1537.35488	30943.55357
1540.71647	30531.98214
1544.07581	30148.98214
1547.4329	29730.69643
1550.78776	29507.41071
1554.14038	29364.41071
1557.49077	29399.98214
1560.83892	29621.125
1564.18484	30101.83929
1567.52853	30672.98214
1570.86999	31198.83929
1574.20922	31553.26786
1577.54624	31507.26786
1580.88103	30656.69643
1584.2136	29479.69643
1587.54395	28870.69643
1590.87208	29107.125
1594.19801	29964.55357
1597.52172	31290.98214
1600.84321	31945.69643
1604.16251	31445.125
1607.47959	30512.125
1610.79447	29269.69643
1614.10715	27899.98214
1617.41763	26707.125
1620.7259	25775.55357
1624.03199	25316.26786
1627.33587	25191.26786
1630.63757	25433.83929
1633.93707	26107.69643
1637.23439	27423.55357
1640.52951	29541.98214
1643.82246	32560.98214
1647.11321	35691.26786
1650.40179	37280.98214
1653.68819	36052.55357
1656.97241	32560.83929
1660.25446	28813.98214
1663.53433	26121.26786
1666.81203	24539.83929
1670.08756	23549.69643
1673.36092	23028.83929
1676.63211	22613.125
1679.90115	22323.83929
1683.16801	22122.83929
1686.43272	21954.125
1689.69527	21790.83929
1692.95567	21717.55357
1696.2139	21614.83929
1699.46999	21571.69643
1702.72392	21560.69643
1705.97571	21501.125
1709.22535	21521.69643
1712.47284	21485.83929
1715.71819	21496.55357
1718.96139	21463.98214
1722.20246	21449.69643
1725.44139	21352.55357
1728.67818	21271.41071
1731.91284	21194.98214
1735.14537	21068.69643
1738.37576	21029.26786
1741.60403	20926.26786
1744.83017	20869.69643
1748.05418	20826.125
1751.27607	20825.83929
1754.49584	20770.55357
1757.71349	20769.125
1760.92903	20763.69643
1764.14244	20760.125
1767.35375	20727.98214
1770.56294	20730.83929
1773.77002	20660.83929
1776.97499	20645.83929
1780.17785	20541.83929
1783.37861	20576.98214
1786.57727	20502.41071
1789.77382	20462.125
1792.96828	20438.41071
1796.16064	20410.98214
1799.3509	20347.125
1802.53907	20339.55357
1805.72514	20321.55357
1808.90913	20245.69643
1812.09102	20228.125
1815.27083	20163.26786
1818.44856	20163.69643
1821.6242	20136.98214
1824.79776	20064.125
1827.96924	20087.83929
1831.13864	20018.41071
1834.30597	20015.125
1837.47122	20032.26786
1840.6344	20014.26786
1843.7955	20013.125
1846.95454	20005.98214
1850.11151	19999.98214
1853.26642	19990.26786
1856.41926	19929.41071
1859.57004	19925.26786
1862.71876	19903.83929
1865.86542	19901.41071
1869.01003	19852.98214
1872.15258	19879.41071
1875.29308	19849.125
1878.43152	19799.83929
1881.56792	19775.98214
1884.70227	19773.55357
1887.83457	19775.69643
1890.96482	19720.98214
1894.09304	19686.41071
1897.21921	19702.55357
1900.34335	19674.125
1903.46544	19614.83929
1906.58551	19575.55357
1909.70353	19587.98214
1912.81953	19556.41071
1915.93349	19493.26786
1919.04543	19511.55357
1922.15534	19482.41071
1925.26322	19436.26786
1928.36908	19400.55357
1931.47292	19340.41071
1934.57473	19293.83929
1937.67453	19276.69643
1940.77232	19203.41071
1943.86808	19156.69643
1946.96184	19152.98214
1950.05358	19082.41071
1953.14331	19097.69643
1956.23103	19013.83929
1959.31675	18960.26786
1962.40046	18904.69643
1965.48217	18843.98214
1968.56188	18799.26786
1971.63959	18737.26786
1974.7153	18738.69643
1977.78901	18682.98214
1980.86073	18609.55357
1983.93046	18585.69643
1986.99819	18501.55357
1990.06394	18415.41071
1993.1277	18408.83929
1996.18947	18319.83929
1999.24925	18282.69643
2002.30706	18197.125
2005.36288	18129.125
2008.41672	18105.26786
2011.46859	18093.98214
2014.51848	18044.69643
2017.56639	17996.125
2020.61233	17913.55357
2023.6563	17875.55357
2026.6983	17830.69643
2029.73833	17762.41071
2032.7764	17724.55357
2035.8125	17698.69643
2038.84664	17650.41071
2041.87881	17638.55357
2044.90903	17595.69643
2047.93729	17586.125
2050.96359	17557.83929
2053.98794	17528.98214
2057.01034	17554.69643
2060.03078	17520.69643
2063.04927	17507.125
2066.06582	17515.26786
2069.08042	17518.125
2072.09307	17490.41071
2075.10378	17453.55357
2078.11255	17441.83929
2081.11938	17447.69643
2084.12426	17400.98214
2087.12722	17472.83929
2090.12824	17405.55357
2093.12732	17413.98214
2096.12447	17430.26786
2099.11969	17466.41071
2102.11299	17447.98214
2105.10435	17479.26786
2108.09379	17458.69643
2111.08131	17503.26786
2114.0669	17497.41071
2117.05057	17547.83929
2120.03233	17494.41071
2123.01216	17553.26786
2125.99008	17590.69643
2128.96609	17586.83929
2131.94018	17609.26786
2134.91236	17605.26786
2137.88263	17627.26786
2140.851	17642.26786
2143.81746	17659.41071
2146.78201	17650.26786
2149.74466	17640.98214
2152.7054	17691.41071
2155.66425	17633.83929
2158.6212	17607.41071
2161.57625	17636.83929
2164.52941	17628.55357
2167.48067	17591.69643
2170.43004	17618.55357
2173.37752	17653.83929
2176.32311	17623.125
2179.26681	17638.83929
2182.20863	17621.98214
2185.14856	17632.26786
2188.08661	17587.26786
2191.02278	17612.125
2193.95707	17614.98214
2196.88948	17588.83929
2199.82001	17561.83929
2202.74867	17561.26786
2205.67545	17539.41071
2208.60037	17521.69643
2211.52341	17478.69643
2214.44458	17455.41071
2217.36388	17397.55357
2220.28132	17394.41071
2223.1969	17344.98214
2226.11061	17329.41071
2229.02246	17295.98214
2231.93245	17271.55357
2234.84058	17253.69643
2237.74686	17256.26786
2240.65128	17250.55357
2243.55385	17227.98214
2246.45456	17204.125
2249.35343	17153.83929
2252.25044	17165.98214
2255.14561	17145.125
2258.03893	17144.98214
2260.93041	17118.125
2263.82004	17065.125
2266.70783	17010.41071
2269.59378	16961.55357
2272.4779	16968.26786
2275.36017	16928.125
2278.24061	16932.41071
2281.11922	16848.55357
2283.996	16870.83929
2286.87094	16809.98214
2289.74405	16819.125
2292.61534	16799.55357
2295.4848	16740.41071
2298.35243	16792.41071
2301.21824	16741.26786
2304.08223	16749.41071
2306.94439	16707.26786
2309.80474	16713.125
2312.66327	16692.41071
2315.51999	16691.41071
2318.37489	16647.98214
2321.22797	16626.125
2324.07925	16607.55357
2326.92871	16599.83929
2329.77637	16560.69643
2332.62222	16556.69643
2335.46626	16513.41071
2338.3085	16528.98214
2341.14893	16515.69643
2343.98756	16517.83929
2346.8244	16476.41071
2349.65943	16505.26786
2352.49267	16496.55357
2355.32411	16521.98214
2358.15376	16461.55357
2360.98161	16467.69643
2363.80768	16446.26786
2366.63195	16449.55357
2369.45444	16441.41071
2372.27514	16436.41071
2375.09405	16403.41071
2377.91118	16423.69643
2380.72652	16389.26786
2383.54009	16329.55357
2386.35187	16300.98214
2389.16188	16218.98214
2391.97011	16246.55357
2394.77657	16194.125
2397.58125	16171.55357
2400.38416	16126.98214
2403.18529	16089.83929
2405.98466	16089.26786
2408.78226	16061.41071
2411.57809	16061.83929
2414.37216	16043.55357
2417.16446	16057.125
2419.955	16002.98214
2422.74378	15999.98214
2425.5308	15986.69643
2428.31606	15988.41071
2431.09956	15971.83929
2433.88131	15993.55357
2436.6613	15986.125
2439.43954	16003.26786
2442.21603	15938.41071
2444.99077	15913.83929
2447.76377	15920.98214
2450.53501	15897.55357
2453.30451	15928.41071
2456.07226	15865.125
2458.83827	15896.98214
2461.60254	15844.55357
2464.36507	15857.69643
2467.12586	15841.98214
2469.88492	15834.125
2472.64224	15803.125
2475.39782	15823.55357
2478.15167	15816.41071
2480.90379	15849.125
2483.65417	15852.125
2486.40283	15837.125
2489.14976	15870.26786
2491.89497	15834.41071
2494.63845	15901.41071
2497.3802	15844.41071
2500.12024	15807.41071
2502.85855	15798.83929
2505.59514	15729.98214
2508.33002	15737.26786
2511.06318	15672.83929
2513.79462	15679.98214
2516.52435	15648.55357
2519.25237	15591.41071
2521.97867	15581.55357
2524.70327	15575.26786
2527.42616	15544.69643
2530.14734	15554.98214
2532.86681	15530.41071
2535.58458	15516.55357
2538.30065	15500.83929
2541.01501	15521.98214
2543.72768	15486.55357
2546.43864	15470.125
2549.14791	15443.98214
2551.85548	15412.98214
2554.56136	15377.69643
2557.26554	15379.83929
2559.96803	15371.69643
2562.66883	15353.55357
2565.36794	15337.125
2568.06536	15290.98214
2570.7611	15261.55357
2573.45514	15274.98214
2576.14751	15221.26786
2578.83819	15192.55357
2581.52719	15177.26786
2584.21451	15126.98214
2586.90015	15136.98214
2589.58411	15146.83929
2592.2664	15109.125
2594.94701	15073.55357
2597.62594	15038.55357
2600.30321	14993.125
2602.9788	14989.98214
2605.65273	14977.26786
2608.32498	14943.69643
2610.99557	14939.55357
2613.66449	14950.83929
2616.33175	14939.55357
2618.99734	14926.55357
2621.66128	14901.26786
2624.32355	14910.26786
2626.98416	14876.125
2629.64311	14842.83929
2632.30041	14844.83929
2634.95605	14785.55357
2637.61004	14758.98214
2640.26238	14740.125
2642.91306	14751.26786
2645.56209	14720.83929
2648.20948	14749.83929
2650.85521	14749.98214
2653.4993	14771.41071
2656.14175	14739.55357
2658.78255	14771.26786
2661.42171	14753.41071
2664.05923	14750.55357
2666.6951	14779.125
2669.32934	14807.125
2671.96194	14780.26786
2674.59291	14760.69643
2677.22224	14731.69643
2679.84993	14721.55357
2682.476	14732.26786
2685.10043	14739.69643
2687.72324	14728.69643
2690.34441	14735.69643
2692.96396	14786.55357
2695.58188	14770.55357
2698.19818	14707.41071
2700.81285	14739.26786
2703.4259	14706.55357
2706.03733	14742.125
2708.64714	14717.41071
2711.25533	14744.125
2713.86191	14742.26786
2716.46687	14732.83929
2719.07021	14767.41071
2721.67194	14773.41071
2724.27206	14767.125
2726.87057	14778.125
2729.46747	14787.41071
2732.06276	14788.98214
2734.65644	14740.125
2737.24852	14717.26786
2739.83899	14749.83929
2742.42786	14746.26786
2745.01513	14703.83929
2747.60079	14711.41071
2750.18486	14623.69643
2752.76733	14642.69643
2755.3482	14617.55357
2757.92747	14638.69643
2760.50515	14584.26786
2763.08123	14616.26786
2765.65573	14565.26786
2768.22863	14553.125
2770.79994	14564.69643
2773.36967	14522.83929
2775.9378	14527.41071
2778.50435	14489.69643
2781.06932	14448.125
2783.6327	14496.41071
2786.1945	14397.41071
2788.75471	14426.55357
2791.31335	14343.83929
2793.87041	14390.26786
2796.42589	14355.41071
2798.97979	14359.98214
2801.53212	14344.83929
2804.08288	14317.26786
2806.63206	14278.125
2809.17967	14258.125
2811.72571	14229.55357
2814.27018	14205.98214
2816.81308	14156.41071
2819.35442	14115.26786
2821.89419	14133.55357
2824.43239	14136.83929
2826.96904	14134.69643
2829.50412	14114.41071
2832.03763	14082.98214
2834.56959	14091.41071
2837.1	14080.98214
2839.62884	14065.125
2842.15613	14079.125
2844.68186	14103.98214
2847.20604	14074.98214
2849.72867	14091.69643
2852.24974	14093.26786
2854.76927	14072.125
2857.28724	14017.41071
2859.80367	14064.26786
2862.31855	14056.55357
2864.83189	13997.55357
2867.34368	14021.55357
2869.85393	14019.69643
2872.36264	14017.98214
2874.8698	13972.98214
2877.37543	13937.41071
2879.87952	13943.26786
2882.38207	13902.26786
2884.88308	13930.26786
2887.38256	13931.41071
2889.88051	13930.41071
2892.37692	13926.26786
2894.8718	13909.26786
2897.36515	13925.98214
2899.85698	13954.125
2902.34727	13949.41071
2904.83604	13960.83929
2907.32328	13962.41071
2909.809	13970.26786
2912.29319	13981.69643
2914.77587	13982.26786
2917.25702	13990.69643
2919.73665	13975.125
2922.21476	13968.41071
2924.69136	13929.55357
2927.16644	13960.55357
2929.64	13966.125
2932.11205	13940.55357
2934.58258	13911.125
2937.05161	13900.41071
2939.51912	13896.69643
2941.98513	13881.26786
2944.44962	13881.98214
2946.91261	13850.41071
2949.37409	13792.55357
2951.83407	13828.41071
2954.29254	13836.55357
2956.74951	13820.125
2959.20498	13787.55357
2961.65895	13785.26786
2964.11142	13780.26786
2966.56239	13778.98214
2969.01186	13766.55357
2971.45984	13719.41071
2973.90632	13697.125
2976.35131	13717.69643
2978.7948	13671.55357
2981.23681	13652.41071
2983.67732	13635.125
2986.11635	13622.83929
2988.55388	13608.26786
2990.98993	13560.83929
2993.4245	13570.83929
2995.85758	13572.83929
2998.28917	13512.125
3000.71928	13467.69643
3003.14791	13450.26786
3005.57506	13432.26786
3008.00073	13429.83929
3010.42493	13386.69643
3012.84764	13365.69643
3015.26888	13411.55357
3017.68865	13371.55357
3020.10694	13325.125
3022.52376	13308.83929
3024.9391	13286.125
3027.35298	13273.26786
3029.76539	13266.26786
3032.17632	13284.69643
3034.5858	13230.98214
3036.9938	13220.41071
3039.40034	13223.26786
3041.80542	13224.26786
3044.20903	13170.41071
3046.61118	13187.26786
3049.01187	13126.55357
3051.4111	13112.69643
3053.80888	13106.55357
3056.20519	13064.26786
3058.60005	13050.55357
3060.99345	13044.98214
3063.3854	13027.26786
3065.7759	13009.69643
3068.16494	12985.41071
3070.55254	12905.41071
3072.93868	12927.83929
3075.32338	12862.41071
3077.70662	12849.41071
3080.08842	12841.41071
3082.46878	12852.98214
3084.84769	12823.98214
3087.22515	12816.55357
3089.60118	12810.83929
3091.97576	12834.41071
3094.3489	12829.98214
3096.72061	12807.98214
3099.09087	12849.125
3101.4597	12824.26786
3103.82709	12828.41071
3106.19305	12852.26786
3108.55757	12837.125
3110.92066	12801.55357
3113.28232	12790.26786
3115.64255	12734.69643
3118.00134	12708.55357
3120.35871	12705.55357
3122.71466	12690.41071
3125.06917	12654.69643
3127.42226	12648.26786
3129.77393	12637.98214
3132.12417	12630.69643
3134.47299	12626.55357
3136.82039	12648.125
3139.16636	12607.26786
3141.51092	12623.26786
3143.85406	12625.98214
3146.19579	12623.125
3148.53609	12615.41071
3150.87499	12672.98214
3153.21246	12672.83929
3155.54853	12701.125
3157.88318	12718.26786
3160.21642	12721.55357
3162.54826	12687.41071
3164.87868	12725.69643
3167.2077	12731.125
3169.5353	12701.55357
3171.86151	12685.55357
3174.18631	12705.41071
3176.5097	12667.98214
3178.83169	12656.125
3181.15228	12709.69643
3183.47147	12646.125
3185.78926	12636.26786
3188.10565	12606.69643
3190.42065	12576.69643
3192.73424	12655.83929
3195.04645	12593.83929
3197.35725	12577.41071
3199.66667	12597.41071
3201.97469	12591.125
3204.28132	12566.69643
3206.58656	12614.69643
3208.8904	12676.55357
3211.19287	12609.69643
3213.49394	12631.26786
3215.79363	12612.69643
3218.09193	12652.26786
3220.38884	12644.26786
3222.68438	12675.83929
3224.97853	12647.83929
3227.2713	12645.69643
3229.56269	12647.26786
3231.8527	12618.125
3234.14133	12558.69643
3236.42858	12537.83929
3238.71446	12531.125
3240.99896	12471.125
3243.28209	12487.83929
3245.56384	12454.69643
3247.84423	12499.69643
3250.12324	12468.26786
3252.40088	12429.98214
3254.67715	12443.26786
3256.95205	12423.55357
3259.22558	12385.98214
3261.49775	12419.55357
3263.76855	12415.55357
3266.03799	12400.125
3268.30606	12390.125
3270.57277	12361.55357
3272.83812	12346.83929
3275.10211	12327.41071
3277.36474	12297.83929
3279.62601	12339.83929
3281.88593	12294.83929
3284.14448	12299.83929
3286.40168	12280.125
3288.65753	12264.55357
3290.91202	12274.125
3293.16516	12235.98214
3295.41695	12221.125
3297.66738	12146.41071
3299.91647	12117.125
3302.16421	12037.69643
3304.4106	11981.98214
3306.65564	11887.41071
3308.89933	11834.83929
3311.14169	11730.83929
3313.38269	11664.41071
3315.62236	11620.41071
3317.86068	11496.55357
3320.09766	11396.55357
3322.3333	11347.83929
3324.5676	11332.83929
3326.80056	11163.26786
3329.03219	11065.26786
3331.26248	2.125
3333.49143	0.125
3335.71905	1.55357
