Data from AgNPs_FTO_APTES_UA_20uM_CRN_2uM_R6G_10uM_NaF_0.1M_Addition_RamanShift__29__13-14-22-106.txt Node

Date: Thu Feb 17 13:14:22 GMT 2022
User: TCL
Spectrometer: QEP01345
Trigger mode: 4
Integration Time (sec): 7.000000E0
Scans to average: 10
Electric dark correction enabled: true
Nonlinearity correction enabled: false
Boxcar width: 0
XAxis mode: Raman Shifts
Number of Pixels in Spectrum: 1044
>>>>>Begin Spectral Data<<<<<
46.04893	-0.7375
50.45542	-0.9375
54.85868	-2.7375
59.25871	-0.9375
63.6555	97.7625
68.04907	99.5625
72.43941	103.9625
76.82654	103.2625
81.21044	109.8625
85.59113	112.5625
89.96862	115.4625
94.34289	120.5625
98.71396	122.5625
103.08183	127.9625
107.4465	128.0625
111.80798	131.5625
116.16626	137.8625
120.52136	145.7625
124.87327	149.7625
129.222	157.0625
133.56755	169.0625
137.90993	175.2625
142.24913	194.5625
146.58517	221.1625
150.91804	259.2625
155.24774	304.1625
159.57429	375.0625
163.89768	487.2625
168.21792	647.8625
172.53501	888.4625
176.84895	1237.2625
181.15975	1736.6625
185.46741	2435.2625
189.77193	3367.7625
194.07331	4527.0625
198.37157	5825.8625
202.6667	7216.9625
206.9587	8617.1625
211.24758	9980.3625
215.53334	11375.5625
219.81599	12885.7625
224.09553	14609.4625
228.37195	16513.5625
232.64527	18588.7625
236.91549	20813.9625
241.18261	22968.3625
245.44663	24900.4625
249.70755	26589.2625
253.96539	28089.5625
258.22014	29317.2625
262.4718	30344.5625
266.72039	31216.7625
270.96589	31694.8625
275.20832	31859.9625
279.44768	31750.2625
283.68397	31543.8625
287.91719	31395.0625
292.14735	31347.8625
296.37445	31543.7625
300.59849	32039.9625
304.81948	32628.2625
309.03742	32937.8625
313.25231	32719.6625
317.46415	31653.5625
321.67296	30261.3625
325.87872	29098.6625
330.08145	28595.2625
334.28114	28669.8625
338.47781	29021.9625
342.67145	29605.5625
346.86207	30446.2625
351.04966	31591.4625
355.23424	32860.0625
359.4158	33833.3625
363.59435	34460.0625
367.76989	34810.7625
371.94243	34925.6625
376.11196	35043.8625
380.27849	35072.6625
384.44203	35126.5625
388.60257	35035.5625
392.76012	35077.9625
396.91468	35439.0625
401.06626	36166.5625
405.21485	36862.0625
409.36047	36700.6625
413.50311	35864.6625
417.64277	34997.1625
421.77947	34647.2625
425.9132	34611.0625
430.04396	34844.3625
434.17176	35135.3625
438.2966	35571.5625
442.41849	36243.2625
446.53742	37175.0625
450.6534	38250.0625
454.76644	39077.4625
458.87653	39406.0625
462.98368	39232.5625
467.08789	38688.6625
471.18916	37900.2625
475.2875	37135.1625
479.38291	36464.6625
483.4754	36060.0625
487.56496	35661.6625
491.6516	35311.5625
495.73531	35022.1625
499.81612	35005.9625
503.89401	35210.3625
507.96899	35444.5625
512.04106	35580.2625
516.11023	35755.2625
520.1765	35909.9625
524.23987	35783.1625
528.30034	35445.5625
532.35792	35043.3625
536.41261	34650.4625
540.46441	34271.7625
544.51333	34205.6625
548.55936	34549.2625
552.60252	35264.4625
556.64279	36033.4625
560.6802	36425.3625
564.71473	36671.8625
568.7464	37540.2625
572.7752	38324.6625
576.80114	38290.2625
580.82422	38081.9625
584.84444	38146.4625
588.86181	38289.9625
592.87633	38560.1625
596.888	38860.6625
600.89682	39454.5625
604.9028	42099.6625
608.90594	48988.8625
612.90624	57145.3625
616.90371	54529.0625
620.89834	43263.6625
624.89015	38141.6625
628.87913	37294.7625
632.86528	37239.6625
636.84862	37182.8625
640.82913	36652.3625
644.80683	35549.3625
648.78172	34802.2625
652.75379	34913.0625
656.72306	35821.7625
660.68952	36993.2625
664.65319	36882.0625
668.61405	35908.4625
672.57211	35452.5625
676.52738	35384.2625
680.47986	35406.0625
684.42955	35301.5625
688.37646	35318.6625
692.32058	35574.5625
696.26192	35899.3625
700.20048	36268.6625
704.13626	36688.6625
708.06928	36680.1625
711.99952	36445.8625
715.927	36334.1625
719.85171	36316.8625
723.77365	36242.2625
727.69284	35967.7625
731.60928	35703.3625
735.52295	35733.9625
739.43388	35899.6625
743.34206	36156.8625
747.24749	36458.3625
751.15017	36898.1625
755.05012	37617.6625
758.94733	38884.8625
762.8418	41539.3625
766.73354	45684.1625
770.62254	49864.1625
774.50882	51408.6625
778.39237	49043.3625
782.27321	44295.9625
786.15132	40231.9625
790.02671	37979.3625
793.89938	36941.5625
797.76935	36512.0625
801.6366	36354.5625
805.50115	36260.7625
809.36299	36074.4625
813.22213	35980.2625
817.07857	35928.7625
820.93231	36024.1625
824.78336	36162.5625
828.63172	36229.1625
832.47738	36329.9625
836.32036	36426.5625
840.16066	36467.0625
843.99827	36586.1625
847.8332	36484.6625
851.66546	36352.8625
855.49504	36281.0625
859.32195	36281.8625
863.1462	36182.4625
866.96777	36080.1625
870.78668	36061.7625
874.60293	36108.7625
878.41652	36235.2625
882.22745	36393.4625
886.03573	36445.0625
889.84136	36446.4625
893.64433	36312.7625
897.44466	36260.2625
901.24235	36248.6625
905.0374	36198.9625
908.8298	36191.3625
912.61957	36263.9625
916.40671	36581.0625
920.19121	37054.8625
923.97308	37444.5625
927.75233	37614.3625
931.52895	37560.3625
935.30295	37198.5625
939.07433	36536.3625
942.84309	36111.5625
946.60924	35853.1625
950.37278	35694.2625
954.13371	35519.9625
957.89203	35377.8625
961.64774	35228.1625
965.40086	35154.2625
969.15137	35110.9625
972.89929	34985.9625
976.64461	34951.5625
980.38733	35001.3625
984.12747	35068.3625
987.86502	35294.6625
991.59999	35709.8625
995.33237	36401.1625
999.06217	37538.3625
1002.78939	38811.6625
1006.51404	39791.9625
1010.23611	40442.8625
1013.95561	40923.1625
1017.67255	40936.2625
1021.38692	40571.4625
1025.09872	40283.9625
1028.80796	40636.3625
1032.51465	41717.3625
1036.21877	42644.2625
1039.92035	42772.6625
1043.61937	42206.0625
1047.31584	41238.2625
1051.00976	40190.2625
1054.70114	39660.7625
1058.38998	39594.8625
1062.07627	39800.7625
1065.76003	39990.8625
1069.44126	40279.4625
1073.11995	40553.8625
1076.79611	40756.5625
1080.46974	41033.6625
1084.14085	41464.0625
1087.80943	42059.4625
1091.47549	42266.2625
1095.13903	41871.8625
1098.80005	41027.7625
1102.45857	40250.5625
1106.11456	39812.7625
1109.76805	39893.5625
1113.41903	40355.4625
1117.06751	41020.9625
1120.71348	41813.2625
1124.35696	42648.4625
1127.99793	43248.4625
1131.63641	43212.4625
1135.2724	42322.2625
1138.90589	41496.7625
1142.5369	40913.5625
1146.16542	40551.1625
1149.79145	40526.9625
1153.415	40744.8625
1157.03607	41164.6625
1160.65467	41820.0625
1164.27079	42851.3625
1167.88443	44509.3625
1171.49561	46962.9625
1175.10432	50817.2625
1178.71056	55779.9625
1182.31434	60082.8625
1185.91565	61865.5625
1189.51451	61241.0625
1193.11091	58709.2625
1196.70485	55481.4625
1200.29634	52947.4625
1203.88538	51062.0625
1207.47197	49237.3625
1211.05612	47723.3625
1214.63782	46924.8625
1218.21708	46889.5625
1221.79391	47121.6625
1225.36829	47203.5625
1228.94024	46999.0625
1232.50976	46644.1625
1236.07685	46416.3625
1239.6415	46499.4625
1243.20374	46705.5625
1246.76355	47116.2625
1250.32093	47776.4625
1253.8759	48865.5625
1257.42845	50212.5625
1260.97859	51418.4625
1264.52631	52265.5625
1268.07163	53120.4625
1271.61453	54210.9625
1275.15503	55392.3625
1278.69312	56597.2625
1282.22882	57542.7625
1285.76211	58687.7625
1289.29301	59888.3625
1292.82151	61228.9625
1296.34761	62978.7625
1299.87133	65511.3625
1303.39266	69401.1625
1306.9116	74697.0625
1310.42815	80260.2625
1313.94233	83375.8625
1317.45412	82664.2625
1320.96354	79584.5625
1324.47058	76183.9625
1327.97525	73087.0625
1331.47754	71391.6625
1334.97747	71298.8625
1338.47502	72618.4625
1341.97022	74338.6625
1345.46305	75480.6625
1348.95352	75988.3625
1352.44163	76528.7625
1355.92738	79220.7625
1359.41078	84887.1625
1362.89183	90266.9625
1366.37053	88164.8625
1369.84688	78685.5625
1373.32088	69284.3625
1376.79254	63033.5625
1380.26186	59986.8625
1383.72883	58405.0625
1387.19347	57510.0625
1390.65578	56803.7625
1394.11575	56401.1625
1397.57339	56543.8625
1401.0287	57349.8625
1404.48168	58593.9625
1407.93234	60064.9625
1411.38068	61298.8625
1414.82669	61491.0625
1418.27039	60321.6625
1421.71177	58270.1625
1425.15083	56490.1625
1428.58758	55523.0625
1432.02203	55513.8625
1435.45416	55870.3625
1438.88399	56057.7625
1442.31151	56352.1625
1445.73673	56784.8625
1449.15965	57171.9625
1452.58027	57224.6625
1455.9986	56948.2625
1459.41463	56853.1625
1462.82837	57194.8625
1466.23982	58103.3625
1469.64898	59291.4625
1473.05586	60130.4625
1476.46045	60772.9625
1479.86276	61612.2625
1483.26279	62510.2625
1486.66054	63527.1625
1490.05602	64996.8625
1493.44922	66777.3625
1496.84016	68803.3625
1500.22882	71712.0625
1503.61521	75555.9625
1506.99934	80030.4625
1510.38121	83898.8625
1513.76081	84541.3625
1517.13816	81237.0625
1520.51324	75512.9625
1523.88607	70268.4625
1527.25665	66685.9625
1530.62498	64663.2625
1533.99105	63417.4625
1537.35488	62651.8625
1540.71647	62155.6625
1544.07581	61777.6625
1547.4329	61333.3625
1550.78776	60572.2625
1554.14038	60094.9625
1557.49077	59977.7625
1560.83892	60340.1625
1564.18484	60776.3625
1567.52853	60997.0625
1570.86999	61104.4625
1574.20922	61205.8625
1577.54624	60884.1625
1580.88103	59597.2625
1584.2136	58253.6625
1587.54395	58527.7625
1590.87208	60875.2625
1594.19801	64904.1625
1597.52172	69491.5625
1600.84321	71628.3625
1604.16251	69637.8625
1607.47959	65207.0625
1610.79447	60171.3625
1614.10715	55638.8625
1617.41763	52150.6625
1620.7259	49892.6625
1624.03199	48854.4625
1627.33587	48939.1625
1630.63757	50109.8625
1633.93707	52356.5625
1637.23439	55531.9625
1640.52951	59484.1625
1643.82246	63975.0625
1647.11321	68212.5625
1650.40179	69994.2625
1653.68819	67192.7625
1656.97241	60350.7625
1660.25446	53242.6625
1663.53433	48013.0625
1666.81203	44762.6625
1670.08756	42757.6625
1673.36092	41481.9625
1676.63211	40658.4625
1679.90115	40047.9625
1683.16801	39570.5625
1686.43272	39286.2625
1689.69527	39035.3625
1692.95567	38858.5625
1696.2139	38828.2625
1699.46999	38767.5625
1702.72392	38726.0625
1705.97571	38694.0625
1709.22535	38605.2625
1712.47284	38629.3625
1715.71819	38680.0625
1718.96139	38639.9625
1722.20246	38525.7625
1725.44139	38400.9625
1728.67818	38296.3625
1731.91284	38087.1625
1735.14537	37915.0625
1738.37576	37793.0625
1741.60403	37728.4625
1744.83017	37594.1625
1748.05418	37564.9625
1751.27607	37482.9625
1754.49584	37435.0625
1757.71349	37497.4625
1760.92903	37491.2625
1764.14244	37440.5625
1767.35375	37423.4625
1770.56294	37410.9625
1773.77002	37374.0625
1776.97499	37411.5625
1780.17785	37338.1625
1783.37861	37309.3625
1786.57727	37218.1625
1789.77382	37220.7625
1792.96828	37207.6625
1796.16064	37257.6625
1799.3509	37204.0625
1802.53907	37172.7625
1805.72514	37088.7625
1808.90913	36992.8625
1812.09102	36990.3625
1815.27083	36903.1625
1818.44856	36891.2625
1821.6242	36861.5625
1824.79776	36844.6625
1827.96924	36816.3625
1831.13864	36795.8625
1834.30597	36809.5625
1837.47122	36734.9625
1840.6344	36690.4625
1843.7955	36760.1625
1846.95454	36756.6625
1850.11151	36769.3625
1853.26642	36805.1625
1856.41926	36784.3625
1859.57004	36810.2625
1862.71876	36777.6625
1865.86542	36822.1625
1869.01003	36788.2625
1872.15258	36764.5625
1875.29308	36819.7625
1878.43152	36825.7625
1881.56792	36860.0625
1884.70227	36894.0625
1887.83457	36868.1625
1890.96482	36899.7625
1894.09304	36864.9625
1897.21921	36824.3625
1900.34335	36841.5625
1903.46544	36827.8625
1906.58551	36880.1625
1909.70353	36882.2625
1912.81953	36866.6625
1915.93349	36920.5625
1919.04543	36857.5625
1922.15534	36824.4625
1925.26322	36750.3625
1928.36908	36711.6625
1931.47292	36684.0625
1934.57473	36535.5625
1937.67453	36512.2625
1940.77232	36409.2625
1943.86808	36234.6625
1946.96184	36155.0625
1950.05358	36041.3625
1953.14331	35923.7625
1956.23103	35821.9625
1959.31675	35723.1625
1962.40046	35604.8625
1965.48217	35450.7625
1968.56188	35451.7625
1971.63959	35348.1625
1974.7153	35301.4625
1977.78901	35219.2625
1980.86073	35046.8625
1983.93046	34989.2625
1986.99819	34862.5625
1990.06394	34809.2625
1993.1277	34727.4625
1996.18947	34581.3625
1999.24925	34544.3625
2002.30706	34476.8625
2005.36288	34388.8625
2008.41672	34305.4625
2011.46859	34213.7625
2014.51848	34069.0625
2017.56639	33986.3625
2020.61233	33909.8625
2023.6563	33873.2625
2026.6983	33806.9625
2029.73833	33745.9625
2032.7764	33674.0625
2035.8125	33637.1625
2038.84664	33565.5625
2041.87881	33534.4625
2044.90903	33498.0625
2047.93729	33467.9625
2050.96359	33398.4625
2053.98794	33405.1625
2057.01034	33385.2625
2060.03078	33350.7625
2063.04927	33382.9625
2066.06582	33323.5625
2069.08042	33328.0625
2072.09307	33229.9625
2075.10378	33212.6625
2078.11255	33244.5625
2081.11938	33215.3625
2084.12426	33152.1625
2087.12722	33115.1625
2090.12824	33180.1625
2093.12732	33162.7625
2096.12447	33100.7625
2099.11969	33106.8625
2102.11299	33100.8625
2105.10435	33152.2625
2108.09379	33163.8625
2111.08131	33201.8625
2114.0669	33205.0625
2117.05057	33204.9625
2120.03233	33257.0625
2123.01216	33287.3625
2125.99008	33310.2625
2128.96609	33362.4625
2131.94018	33386.1625
2134.91236	33449.5625
2137.88263	33502.2625
2140.851	33534.8625
2143.81746	33523.7625
2146.78201	33504.9625
2149.74466	33585.3625
2152.7054	33577.5625
2155.66425	33603.6625
2158.6212	33544.6625
2161.57625	33555.8625
2164.52941	33543.1625
2167.48067	33478.4625
2170.43004	33460.2625
2173.37752	33493.9625
2176.32311	33564.4625
2179.26681	33600.5625
2182.20863	33552.9625
2185.14856	33647.4625
2188.08661	33642.8625
2191.02278	33667.9625
2193.95707	33595.2625
2196.88948	33590.7625
2199.82001	33568.0625
2202.74867	33569.9625
2205.67545	33564.8625
2208.60037	33507.4625
2211.52341	33488.2625
2214.44458	33457.8625
2217.36388	33460.7625
2220.28132	33449.9625
2223.1969	33390.1625
2226.11061	33319.1625
2229.02246	33174.8625
2231.93245	33100.7625
2234.84058	33048.0625
2237.74686	33072.3625
2240.65128	33024.3625
2243.55385	32954.2625
2246.45456	32967.1625
2249.35343	32953.8625
2252.25044	32939.4625
2255.14561	32833.3625
2258.03893	32892.7625
2260.93041	32879.1625
2263.82004	32727.7625
2266.70783	32648.0625
2269.59378	32596.7625
2272.4779	32527.5625
2275.36017	32470.8625
2278.24061	32438.0625
2281.11922	32381.4625
2283.996	32322.8625
2286.87094	32321.5625
2289.74405	32280.9625
2292.61534	32264.5625
2295.4848	32221.8625
2298.35243	32242.6625
2301.21824	32267.8625
2304.08223	32176.9625
2306.94439	32226.6625
2309.80474	32266.5625
2312.66327	32276.7625
2315.51999	32227.9625
2318.37489	32238.7625
2321.22797	32202.1625
2324.07925	32203.9625
2326.92871	32145.9625
2329.77637	32107.3625
2332.62222	32104.2625
2335.46626	32119.4625
2338.3085	32069.9625
2341.14893	32104.2625
2343.98756	32132.1625
2346.8244	32170.3625
2349.65943	32202.8625
2352.49267	32223.6625
2355.32411	32254.6625
2358.15376	32193.6625
2360.98161	32182.4625
2363.80768	32126.1625
2366.63195	32106.4625
2369.45444	32078.7625
2372.27514	32013.1625
2375.09405	32001.6625
2377.91118	31903.3625
2380.72652	31839.2625
2383.54009	31718.8625
2386.35187	31620.1625
2389.16188	31568.7625
2391.97011	31510.4625
2394.77657	31479.8625
2397.58125	31449.1625
2400.38416	31406.7625
2403.18529	31324.0625
2405.98466	31309.7625
2408.78226	31188.8625
2411.57809	31165.1625
2414.37216	31096.4625
2417.16446	31096.0625
2419.955	31016.3625
2422.74378	31040.7625
2425.5308	30985.6625
2428.31606	31010.2625
2431.09956	30992.8625
2433.88131	30991.6625
2436.6613	31025.0625
2439.43954	30996.4625
2442.21603	30960.5625
2444.99077	30934.6625
2447.76377	30913.7625
2450.53501	30880.7625
2453.30451	30879.2625
2456.07226	30826.6625
2458.83827	30791.9625
2461.60254	30805.7625
2464.36507	30805.4625
2467.12586	30826.3625
2469.88492	30811.5625
2472.64224	30823.5625
2475.39782	30858.3625
2478.15167	30840.4625
2480.90379	30918.0625
2483.65417	30944.3625
2486.40283	30918.5625
2489.14976	30967.0625
2491.89497	30960.4625
2494.63845	31048.6625
2497.3802	30993.9625
2500.12024	31005.1625
2502.85855	30946.9625
2505.59514	30959.7625
2508.33002	30879.1625
2511.06318	30813.5625
2513.79462	30797.5625
2516.52435	30789.4625
2519.25237	30720.4625
2521.97867	30682.7625
2524.70327	30631.3625
2527.42616	30608.9625
2530.14734	30653.9625
2532.86681	30542.3625
2535.58458	30596.2625
2538.30065	30536.9625
2541.01501	30568.7625
2543.72768	30580.4625
2546.43864	30535.5625
2549.14791	30459.1625
2551.85548	30466.2625
2554.56136	30379.9625
2557.26554	30341.2625
2559.96803	30305.6625
2562.66883	30303.7625
2565.36794	30263.2625
2568.06536	30252.1625
2570.7611	30199.9625
2573.45514	30124.8625
2576.14751	30142.4625
2578.83819	30109.2625
2581.52719	30127.8625
2584.21451	30092.5625
2586.90015	30084.5625
2589.58411	30040.3625
2592.2664	30074.6625
2594.94701	30018.6625
2597.62594	30086.2625
2600.30321	30025.7625
2602.9788	30007.5625
2605.65273	30048.4625
2608.32498	30042.4625
2610.99557	30004.1625
2613.66449	30033.0625
2616.33175	30024.0625
2618.99734	30008.5625
2621.66128	29943.5625
2624.32355	29961.3625
2626.98416	29976.7625
2629.64311	29976.2625
2632.30041	29975.8625
2634.95605	29950.3625
2637.61004	29935.4625
2640.26238	29877.4625
2642.91306	29809.5625
2645.56209	29774.1625
2648.20948	29766.3625
2650.85521	29745.0625
2653.4993	29696.0625
2656.14175	29704.8625
2658.78255	29733.2625
2661.42171	29774.8625
2664.05923	29825.8625
2666.6951	29824.3625
2669.32934	29829.6625
2671.96194	29854.3625
2674.59291	29916.9625
2677.22224	29980.2625
2679.84993	29983.0625
2682.476	29907.5625
2685.10043	29890.3625
2687.72324	29880.7625
2690.34441	29877.8625
2692.96396	29885.7625
2695.58188	29882.2625
2698.19818	29848.1625
2700.81285	29809.4625
2703.4259	29801.6625
2706.03733	29878.3625
2708.64714	29814.5625
2711.25533	29822.9625
2713.86191	29819.9625
2716.46687	29894.2625
2719.07021	29890.2625
2721.67194	29892.8625
2724.27206	29840.6625
2726.87057	29893.3625
2729.46747	29935.9625
2732.06276	29945.5625
2734.65644	29934.8625
2737.24852	29945.1625
2739.83899	29890.1625
2742.42786	29907.0625
2745.01513	29894.9625
2747.60079	29896.8625
2750.18486	29883.0625
2752.76733	29865.7625
2755.3482	29819.0625
2757.92747	29856.3625
2760.50515	29783.0625
2763.08123	29821.1625
2765.65573	29782.9625
2768.22863	29736.4625
2770.79994	29693.6625
2773.36967	29720.4625
2775.9378	29739.1625
2778.50435	29708.3625
2781.06932	29721.4625
2783.6327	29680.3625
2786.1945	29682.4625
2788.75471	29646.7625
2791.31335	29601.2625
2793.87041	29589.6625
2796.42589	29502.7625
2798.97979	29490.1625
2801.53212	29371.1625
2804.08288	29363.7625
2806.63206	29273.1625
2809.17967	29298.7625
2811.72571	29231.2625
2814.27018	29159.0625
2816.81308	29128.8625
2819.35442	29060.5625
2821.89419	29059.0625
2824.43239	29059.8625
2826.96904	29069.1625
2829.50412	29097.3625
2832.03763	29052.9625
2834.56959	29054.1625
2837.1	29018.7625
2839.62884	29052.4625
2842.15613	28978.2625
2844.68186	28981.1625
2847.20604	28965.9625
2849.72867	28960.8625
2852.24974	28900.9625
2854.76927	28854.5625
2857.28724	28819.1625
2859.80367	28812.1625
2862.31855	28770.7625
2864.83189	28728.0625
2867.34368	28683.3625
2869.85393	28730.6625
2872.36264	28671.6625
2874.8698	28642.9625
2877.37543	28582.4625
2879.87952	28611.1625
2882.38207	28597.7625
2884.88308	28606.7625
2887.38256	28613.9625
2889.88051	28629.1625
2892.37692	28632.6625
2894.8718	28669.4625
2897.36515	28683.2625
2899.85698	28674.5625
2902.34727	28706.2625
2904.83604	28725.4625
2907.32328	28760.8625
2909.809	28740.4625
2912.29319	28756.8625
2914.77587	28769.2625
2917.25702	28747.5625
2919.73665	28663.7625
2922.21476	28716.8625
2924.69136	28674.2625
2927.16644	28666.2625
2929.64	28658.1625
2932.11205	28600.3625
2934.58258	28536.6625
2937.05161	28572.7625
2939.51912	28581.3625
2941.98513	28535.0625
2944.44962	28510.2625
2946.91261	28432.9625
2949.37409	28462.7625
2951.83407	28484.2625
2954.29254	28429.2625
2956.74951	28409.6625
2959.20498	28431.4625
2961.65895	28374.3625
2964.11142	28382.7625
2966.56239	28357.9625
2969.01186	28279.7625
2971.45984	28240.4625
2973.90632	28171.6625
2976.35131	28115.0625
2978.7948	28094.8625
2981.23681	28029.0625
2983.67732	28000.6625
2986.11635	27913.5625
2988.55388	27871.2625
2990.98993	27843.5625
2993.4245	27768.7625
2995.85758	27721.0625
2998.28917	27638.7625
3000.71928	27624.9625
3003.14791	27566.7625
3005.57506	27545.8625
3008.00073	27459.7625
3010.42493	27420.4625
3012.84764	27385.4625
3015.26888	27371.5625
3017.68865	27291.1625
3020.10694	27239.7625
3022.52376	27164.4625
3024.9391	27134.7625
3027.35298	27134.7625
3029.76539	27089.7625
3032.17632	27074.7625
3034.5858	26972.6625
3036.9938	26985.3625
3039.40034	27004.6625
3041.80542	26977.3625
3044.20903	26896.2625
3046.61118	26906.1625
3049.01187	26859.7625
3051.4111	26788.5625
3053.80888	26672.7625
3056.20519	26687.1625
3058.60005	26577.4625
3060.99345	26531.4625
3063.3854	26473.9625
3065.7759	26379.6625
3068.16494	26258.2625
3070.55254	26181.5625
3072.93868	26138.9625
3075.32338	26015.3625
3077.70662	25933.0625
3080.08842	25873.3625
3082.46878	25801.5625
3084.84769	25767.2625
3087.22515	25784.5625
3089.60118	25711.5625
3091.97576	25720.4625
3094.3489	25704.6625
3096.72061	25703.2625
3099.09087	25687.9625
3101.4597	25724.2625
3103.82709	25688.2625
3106.19305	25657.5625
3108.55757	25662.9625
3110.92066	25589.2625
3113.28232	25549.2625
3115.64255	25445.3625
3118.00134	25408.3625
3120.35871	25322.1625
3122.71466	25247.5625
3125.06917	25222.1625
3127.42226	25166.1625
3129.77393	25157.6625
3132.12417	25116.1625
3134.47299	25113.7625
3136.82039	25074.3625
3139.16636	25066.7625
3141.51092	25107.7625
3143.85406	25057.4625
3146.19579	25028.2625
3148.53609	25009.5625
3150.87499	25042.0625
3153.21246	25060.3625
3155.54853	25063.7625
3157.88318	24958.3625
3160.21642	25043.6625
3162.54826	25016.8625
3164.87868	24949.0625
3167.2077	24903.2625
3169.5353	24895.9625
3171.86151	24894.4625
3174.18631	24821.7625
3176.5097	24853.0625
3178.83169	24858.5625
3181.15228	24800.9625
3183.47147	24684.2625
3185.78926	24699.8625
3188.10565	24669.0625
3190.42065	24665.1625
3192.73424	24627.8625
3195.04645	24577.6625
3197.35725	24592.0625
3199.66667	24567.6625
3201.97469	24574.8625
3204.28132	24559.8625
3206.58656	24580.4625
3208.8904	24555.3625
3211.19287	24591.1625
3213.49394	24591.1625
3215.79363	24603.6625
3218.09193	24617.2625
3220.38884	24598.8625
3222.68438	24646.6625
3224.97853	24558.5625
3227.2713	24535.3625
3229.56269	24530.7625
3231.8527	24540.3625
3234.14133	24484.5625
3236.42858	24425.3625
3238.71446	24380.1625
3240.99896	24347.0625
3243.28209	24306.5625
3245.56384	24279.6625
3247.84423	24210.5625
3250.12324	24199.9625
3252.40088	24176.9625
3254.67715	24173.7625
3256.95205	24135.4625
3259.22558	24117.1625
3261.49775	24065.5625
3263.76855	24121.1625
3266.03799	24028.2625
3268.30606	23977.9625
3270.57277	23970.2625
3272.83812	23932.6625
3275.10211	23887.9625
3277.36474	23825.7625
3279.62601	23782.8625
3281.88593	23805.0625
3284.14448	23804.9625
3286.40168	23727.2625
3288.65753	23759.6625
3290.91202	23733.7625
3293.16516	23687.3625
3295.41695	23674.0625
3297.66738	23500.7625
3299.91647	23387.7625
3302.16421	23228.0625
3304.4106	23128.8625
3306.65564	22961.3625
3308.89933	22866.3625
3311.14169	22672.5625
3313.38269	22523.3625
3315.62236	22362.0625
3317.86068	22169.3625
3320.09766	21999.7625
3322.3333	21881.7625
3324.5676	21755.6625
3326.80056	21463.7625
3329.03219	21315.3625
3331.26248	5.6625
3333.49143	0.8625
3335.71905	-0.8375
