Data from AgNPs_FTO_APTES_UA_10uM_CRN_50uM_R6G_10uM_NaF_0.1M_Addition_RamanShift__20__16-58-44-836.txt Node

Date: Thu Feb 17 16:58:44 GMT 2022
User: TCL
Spectrometer: QEP01345
Trigger mode: 4
Integration Time (sec): 1.000000E1
Scans to average: 7
Electric dark correction enabled: true
Nonlinearity correction enabled: false
Boxcar width: 0
XAxis mode: Raman Shifts
Number of Pixels in Spectrum: 1044
>>>>>Begin Spectral Data<<<<<
46.04893	-0.71429
50.45542	-0.71429
54.85868	-0.28571
59.25871	-0.71429
63.6555	76.57143
68.04907	73.71429
72.43941	79
76.82654	81.42857
81.21044	85.42857
85.59113	91.14286
89.96862	93.85714
94.34289	93.28571
98.71396	98
103.08183	98.85714
107.4465	99.85714
111.80798	105
116.16626	106.57143
120.52136	109.28571
124.87327	120.71429
129.222	114.28571
133.56755	124.57143
137.90993	135.42857
142.24913	143
146.58517	158
150.91804	177.71429
155.24774	210.85714
159.57429	257.57143
163.89768	334.71429
168.21792	439.57143
172.53501	601.57143
176.84895	838
181.15975	1169.28571
185.46741	1672.14286
189.77193	2295.42857
194.07331	3106.42857
198.37157	4008.28571
202.6667	4979.42857
206.9587	5939.71429
211.24758	6874.85714
215.53334	7821.71429
219.81599	8869.85714
224.09553	9970.85714
228.37195	11179
232.64527	12549.14286
236.91549	13978.42857
241.18261	15435.14286
245.44663	16769.28571
249.70755	17996.42857
253.96539	19004
258.22014	19834
262.4718	20531.57143
266.72039	20986.85714
270.96589	21185.71429
275.20832	21158.85714
279.44768	20919.71429
283.68397	20587.28571
287.91719	20280.57143
292.14735	20094.71429
296.37445	20078.85714
300.59849	20239.57143
304.81948	20452.71429
309.03742	20560.28571
313.25231	20444.57143
317.46415	20058.57143
321.67296	19459.57143
325.87872	19060.14286
330.08145	18914.57143
334.28114	18995
338.47781	19209
342.67145	19559.14286
346.86207	19946.28571
351.04966	20514
355.23424	21098.85714
359.4158	21666.71429
363.59435	22067.42857
367.76989	22344.14286
371.94243	22429.42857
376.11196	22597.42857
380.27849	22710.28571
384.44203	22755.71429
388.60257	22744.14286
392.76012	22844
396.91468	22915.85714
401.06626	23233.42857
405.21485	23514.14286
409.36047	23402.71429
413.50311	22991.42857
417.64277	22673.28571
421.77947	22324
425.9132	22280.28571
430.04396	22305.57143
434.17176	22451.42857
438.2966	22677.42857
442.41849	23003.42857
446.53742	23424.42857
450.6534	23860.85714
454.76644	24212
458.87653	24412.14286
462.98368	24353.71429
467.08789	24252
471.18916	24021
475.2875	23750
479.38291	23557.28571
483.4754	23402
487.56496	23189.28571
491.6516	23123.28571
495.73531	23097.71429
499.81612	23111
503.89401	23238.42857
507.96899	23362.14286
512.04106	23548.71429
516.11023	23747.85714
520.1765	23893
524.23987	23953.28571
528.30034	23884.14286
532.35792	23866.28571
536.41261	23807
540.46441	23568.57143
544.51333	23406.42857
548.55936	23363.14286
552.60252	23450.57143
556.64279	23645.14286
560.6802	23661.85714
564.71473	23695
568.7464	23767
572.7752	23910.42857
576.80114	23758.85714
580.82422	23555
584.84444	23573.71429
588.86181	23742.14286
592.87633	24000.28571
596.888	24290.85714
600.89682	24725.14286
604.9028	25849.85714
608.90594	28804.57143
612.90624	32374.71429
616.90371	31409.57143
620.89834	26703.57143
624.89015	24581
628.87913	24300.57143
632.86528	24356.57143
636.84862	24394
640.82913	24282.71429
644.80683	23838.57143
648.78172	23471.14286
652.75379	23425.71429
656.72306	23730
660.68952	24141.28571
664.65319	24142
668.61405	23850.85714
672.57211	23932.42857
676.52738	24044.28571
680.47986	24063.28571
684.42955	23892.42857
688.37646	23698.57143
692.32058	23646.42857
696.26192	23665.14286
700.20048	23754.57143
704.13626	23811.14286
708.06928	23683.42857
711.99952	23545.85714
715.927	23514.71429
719.85171	23520
723.77365	23583.14286
727.69284	23605
731.60928	23595.71429
735.52295	23608.28571
739.43388	23635
743.34206	23757.42857
747.24749	23762.42857
751.15017	23679.85714
755.05012	23747.71429
758.94733	24010.28571
762.8418	24837.42857
766.73354	26373.85714
770.62254	28229.57143
774.50882	29414.85714
778.39237	28910.42857
782.27321	27070.57143
786.15132	25247.42857
790.02671	24113.28571
793.89938	23564.85714
797.76935	23383.85714
801.6366	23298.28571
805.50115	23238.85714
809.36299	23198.57143
813.22213	23113.57143
817.07857	23052
820.93231	23016.14286
824.78336	22983
828.63172	23054
832.47738	23120.71429
836.32036	23142.14286
840.16066	23182
843.99827	23268.71429
847.8332	23239.14286
851.66546	23175.14286
855.49504	23168
859.32195	23225.42857
863.1462	23290.14286
866.96777	23317.14286
870.78668	23330.14286
874.60293	23297.28571
878.41652	23312.14286
882.22745	23358.42857
886.03573	23348.85714
889.84136	23296.57143
893.64433	23231.71429
897.44466	23152.85714
901.24235	23005.71429
905.0374	22940.85714
908.8298	22820.85714
912.61957	22756.42857
916.40671	22830.71429
920.19121	22874.71429
923.97308	23103.14286
927.75233	23230.57143
931.52895	23329.57143
935.30295	23290.42857
939.07433	23034.85714
942.84309	22821.42857
946.60924	22660.71429
950.37278	22566.14286
954.13371	22432.85714
957.89203	22311.14286
961.64774	22253
965.40086	22110.14286
969.15137	22016.42857
972.89929	21954.14286
976.64461	22023.14286
980.38733	21999.85714
984.12747	22089.14286
987.86502	22236.14286
991.59999	22468.57143
995.33237	22768
999.06217	23175.28571
1002.78939	23607.42857
1006.51404	23811.71429
1010.23611	23890.85714
1013.95561	23980.42857
1017.67255	24107
1021.38692	23995.57143
1025.09872	23897.42857
1028.80796	24065.42857
1032.51465	24576
1036.21877	25177.71429
1039.92035	25274.71429
1043.61937	25031.14286
1047.31584	24551
1051.00976	24028.42857
1054.70114	23718.57143
1058.38998	23606.28571
1062.07627	23530.14286
1065.76003	23432.14286
1069.44126	23398.42857
1073.11995	23461.42857
1076.79611	23530.14286
1080.46974	23716.14286
1084.14085	23919.42857
1087.80943	24036.85714
1091.47549	24115.14286
1095.13903	23968
1098.80005	23740.85714
1102.45857	23584.42857
1106.11456	23524.57143
1109.76805	23689
1113.41903	23901.71429
1117.06751	24168.71429
1120.71348	24554.42857
1124.35696	24912
1127.99793	25240.57143
1131.63641	25435
1135.2724	25093.57143
1138.90589	24650.14286
1142.5369	24210.28571
1146.16542	23777.14286
1149.79145	23545.71429
1153.415	23331
1157.03607	23328.57143
1160.65467	23519.42857
1164.27079	23940.71429
1167.88443	24584.71429
1171.49561	25423.71429
1175.10432	26703.85714
1178.71056	28457.85714
1182.31434	30122
1185.91565	30996
1189.51451	30783.57143
1193.11091	29661.42857
1196.70485	28311.85714
1200.29634	27265.28571
1203.88538	26472.57143
1207.47197	25709.28571
1211.05612	25071.14286
1214.63782	24736.28571
1218.21708	24706
1221.79391	24785.28571
1225.36829	24971.71429
1228.94024	24964
1232.50976	24730.28571
1236.07685	24498.57143
1239.6415	24467.28571
1243.20374	24551.28571
1246.76355	24688.42857
1250.32093	24976.57143
1253.8759	25371.42857
1257.42845	25836.14286
1260.97859	26282.57143
1264.52631	26618.28571
1268.07163	27059.85714
1271.61453	27547
1275.15503	28106.71429
1278.69312	28654.28571
1282.22882	28930.14286
1285.76211	29190.71429
1289.29301	29425.71429
1292.82151	29789.14286
1296.34761	30343.85714
1299.87133	31365.14286
1303.39266	32861.28571
1306.9116	34974.42857
1310.42815	37132.71429
1313.94233	38204.85714
1317.45412	37305.57143
1320.96354	35457.28571
1324.47058	33502.57143
1327.97525	31826.42857
1331.47754	30731.71429
1334.97747	30307
1338.47502	30470.42857
1341.97022	31036.85714
1345.46305	31837.85714
1348.95352	32883.14286
1352.44163	34409.85714
1355.92738	36436.71429
1359.41078	39195.42857
1362.89183	41369.42857
1366.37053	40270
1369.84688	35981.14286
1373.32088	31879
1376.79254	29298.14286
1380.26186	27921.71429
1383.72883	27185.85714
1387.19347	26603
1390.65578	26024.57143
1394.11575	25637.42857
1397.57339	25472.71429
1401.0287	25499.71429
1404.48168	25598.42857
1407.93234	25777.42857
1411.38068	25937.28571
1414.82669	26066.28571
1418.27039	26010.71429
1421.71177	25769.57143
1425.15083	25516.14286
1428.58758	25319.85714
1432.02203	25354.71429
1435.45416	25578.42857
1438.88399	25703.71429
1442.31151	25725.28571
1445.73673	25785.57143
1449.15965	25896.57143
1452.58027	25904.71429
1455.9986	25912.57143
1459.41463	25969
1462.82837	26162.57143
1466.23982	26541.14286
1469.64898	26880.57143
1473.05586	27153.42857
1476.46045	27351
1479.86276	27437.14286
1483.26279	27579.42857
1486.66054	27845.14286
1490.05602	28166.85714
1493.44922	28692
1496.84016	29387.14286
1500.22882	30583.28571
1503.61521	32234.14286
1506.99934	34335.14286
1510.38121	36099.71429
1513.76081	36383.71429
1517.13816	34894.85714
1520.51324	32486.14286
1523.88607	30237.42857
1527.25665	28717.85714
1530.62498	27836.85714
1533.99105	27261.14286
1537.35488	26991.14286
1540.71647	26846.42857
1544.07581	26850.71429
1547.4329	26861.14286
1550.78776	26882.71429
1554.14038	26895.71429
1557.49077	27051.57143
1560.83892	27169.57143
1564.18484	27421.85714
1567.52853	27679.42857
1570.86999	27796.71429
1574.20922	27908.85714
1577.54624	27836.71429
1580.88103	27334.42857
1584.2136	26651
1587.54395	26415.85714
1590.87208	26819
1594.19801	27885.57143
1597.52172	29312
1600.84321	30022.57143
1604.16251	29501.14286
1607.47959	28228.71429
1610.79447	26781.71429
1614.10715	25522.42857
1617.41763	24478.85714
1620.7259	23874.85714
1624.03199	23560
1627.33587	23608.71429
1630.63757	23973
1633.93707	24576.71429
1637.23439	25508.57143
1640.52951	26694.42857
1643.82246	28313.28571
1647.11321	29876.71429
1650.40179	30680.57143
1653.68819	29786.42857
1656.97241	27418.71429
1660.25446	25042.57143
1663.53433	23351.42857
1666.81203	22395.28571
1670.08756	21804.85714
1673.36092	21390
1676.63211	21177.14286
1679.90115	20959.71429
1683.16801	20803.57143
1686.43272	20685.71429
1689.69527	20613.71429
1692.95567	20513.57143
1696.2139	20477
1699.46999	20413.28571
1702.72392	20402.14286
1705.97571	20369.71429
1709.22535	20388.28571
1712.47284	20376.57143
1715.71819	20363
1718.96139	20334.85714
1722.20246	20304.14286
1725.44139	20224.57143
1728.67818	20186.57143
1731.91284	20098
1735.14537	20045.85714
1738.37576	19993.28571
1741.60403	19974.85714
1744.83017	19902.71429
1748.05418	19942.85714
1751.27607	19895.28571
1754.49584	19854.42857
1757.71349	19860.42857
1760.92903	19806.85714
1764.14244	19781.14286
1767.35375	19756.28571
1770.56294	19724.71429
1773.77002	19678.71429
1776.97499	19680
1780.17785	19627.71429
1783.37861	19633.42857
1786.57727	19557.14286
1789.77382	19544.71429
1792.96828	19558.71429
1796.16064	19554
1799.3509	19468.71429
1802.53907	19421.85714
1805.72514	19383.71429
1808.90913	19363.71429
1812.09102	19391.57143
1815.27083	19336
1818.44856	19331.14286
1821.6242	19279.85714
1824.79776	19231.71429
1827.96924	19223.28571
1831.13864	19209.42857
1834.30597	19162.85714
1837.47122	19201.28571
1840.6344	19150
1843.7955	19167.28571
1846.95454	19114
1850.11151	19109.42857
1853.26642	19131.28571
1856.41926	19093.28571
1859.57004	19134
1862.71876	19079
1865.86542	19049.57143
1869.01003	19107.57143
1872.15258	19105.28571
1875.29308	19052.14286
1878.43152	19044.71429
1881.56792	19039.42857
1884.70227	18996.71429
1887.83457	19004.85714
1890.96482	19016.71429
1894.09304	18970.14286
1897.21921	18920.57143
1900.34335	18957.42857
1903.46544	18945.57143
1906.58551	18907.14286
1909.70353	18910.85714
1912.81953	18899.28571
1915.93349	18848.85714
1919.04543	18842.42857
1922.15534	18821.71429
1925.26322	18798.42857
1928.36908	18788.85714
1931.47292	18755
1934.57473	18690.57143
1937.67453	18665.57143
1940.77232	18638
1943.86808	18627.57143
1946.96184	18513.85714
1950.05358	18529.85714
1953.14331	18447.85714
1956.23103	18374.71429
1959.31675	18415
1962.40046	18330.85714
1965.48217	18258.71429
1968.56188	18236.57143
1971.63959	18181.42857
1974.7153	18161.28571
1977.78901	18146.14286
1980.86073	18065.85714
1983.93046	17993.57143
1986.99819	17933
1990.06394	17913.57143
1993.1277	17808.28571
1996.18947	17790.85714
1999.24925	17753.71429
2002.30706	17709.14286
2005.36288	17633.85714
2008.41672	17594
2011.46859	17588.57143
2014.51848	17538.71429
2017.56639	17456.28571
2020.61233	17408.14286
2023.6563	17416.42857
2026.6983	17328.28571
2029.73833	17321.28571
2032.7764	17266.42857
2035.8125	17257.14286
2038.84664	17204.57143
2041.87881	17177.85714
2044.90903	17168.85714
2047.93729	17170
2050.96359	17138.57143
2053.98794	17117.71429
2057.01034	17092.71429
2060.03078	17113.85714
2063.04927	17049.42857
2066.06582	17073.57143
2069.08042	17076.42857
2072.09307	17051.42857
2075.10378	17023.57143
2078.11255	17026
2081.11938	17003.14286
2084.12426	17024
2087.12722	17024.14286
2090.12824	17024.71429
2093.12732	17008.28571
2096.12447	17005.42857
2099.11969	17025.28571
2102.11299	17001.28571
2105.10435	17014.28571
2108.09379	17012.28571
2111.08131	17060
2114.0669	17060.28571
2117.05057	17084.57143
2120.03233	17122.57143
2123.01216	17149.57143
2125.99008	17141.71429
2128.96609	17168
2131.94018	17134.85714
2134.91236	17184.28571
2137.88263	17216.85714
2140.851	17204
2143.81746	17218.42857
2146.78201	17252.28571
2149.74466	17278
2152.7054	17269
2155.66425	17207.14286
2158.6212	17265.42857
2161.57625	17222.71429
2164.52941	17234.28571
2167.48067	17232.57143
2170.43004	17206.57143
2173.37752	17239
2176.32311	17237.57143
2179.26681	17232
2182.20863	17212.28571
2185.14856	17239.85714
2188.08661	17225.42857
2191.02278	17256.57143
2193.95707	17218.57143
2196.88948	17236.57143
2199.82001	17230.28571
2202.74867	17224.14286
2205.67545	17200.57143
2208.60037	17207.57143
2211.52341	17183.71429
2214.44458	17182.85714
2217.36388	17134.42857
2220.28132	17136.42857
2223.1969	17078.57143
2226.11061	17064
2229.02246	17052.14286
2231.93245	16997.28571
2234.84058	16924
2237.74686	16914.28571
2240.65128	16916.42857
2243.55385	16881.71429
2246.45456	16920.28571
2249.35343	16906.28571
2252.25044	16853.57143
2255.14561	16853
2258.03893	16846.85714
2260.93041	16802.57143
2263.82004	16791.71429
2266.70783	16708.28571
2269.59378	16722
2272.4779	16695.14286
2275.36017	16646.42857
2278.24061	16597.71429
2281.11922	16559
2283.996	16566.28571
2286.87094	16582
2289.74405	16496.71429
2292.61534	16506.71429
2295.4848	16501
2298.35243	16475.42857
2301.21824	16545.42857
2304.08223	16523.85714
2306.94439	16490
2309.80474	16499.14286
2312.66327	16534.28571
2315.51999	16557.28571
2318.37489	16522.42857
2321.22797	16466.14286
2324.07925	16470.57143
2326.92871	16414
2329.77637	16402.42857
2332.62222	16393.28571
2335.46626	16384.42857
2338.3085	16385.14286
2341.14893	16391.28571
2343.98756	16370.42857
2346.8244	16419.42857
2349.65943	16355.42857
2352.49267	16357.71429
2355.32411	16376.57143
2358.15376	16360
2360.98161	16371.71429
2363.80768	16328.71429
2366.63195	16336.28571
2369.45444	16290.42857
2372.27514	16236.85714
2375.09405	16185
2377.91118	16195.71429
2380.72652	16133
2383.54009	16120.42857
2386.35187	16099
2389.16188	16072.57143
2391.97011	16014.28571
2394.77657	16021.42857
2397.58125	16032.42857
2400.38416	16030
2403.18529	15960.28571
2405.98466	15937.14286
2408.78226	15922.42857
2411.57809	15875.85714
2414.37216	15863.85714
2417.16446	15850.71429
2419.955	15804.71429
2422.74378	15815.85714
2425.5308	15773.57143
2428.31606	15761.42857
2431.09956	15765.57143
2433.88131	15782.85714
2436.6613	15737.14286
2439.43954	15735.85714
2442.21603	15751.71429
2444.99077	15705.71429
2447.76377	15763.28571
2450.53501	15736
2453.30451	15693.57143
2456.07226	15691.57143
2458.83827	15675.57143
2461.60254	15674.71429
2464.36507	15634.14286
2467.12586	15642.28571
2469.88492	15614.28571
2472.64224	15629.57143
2475.39782	15608.57143
2478.15167	15633.71429
2480.90379	15616.71429
2483.65417	15717
2486.40283	15657.85714
2489.14976	15720.71429
2491.89497	15688
2494.63845	15700.42857
2497.3802	15690.14286
2500.12024	15679.71429
2502.85855	15661.28571
2505.59514	15641.14286
2508.33002	15609.57143
2511.06318	15578.28571
2513.79462	15528.71429
2516.52435	15538
2519.25237	15530
2521.97867	15499
2524.70327	15475.14286
2527.42616	15453.85714
2530.14734	15464.42857
2532.86681	15421.42857
2535.58458	15447.57143
2538.30065	15456.57143
2541.01501	15436.28571
2543.72768	15409.71429
2546.43864	15400.57143
2549.14791	15366.57143
2551.85548	15363.57143
2554.56136	15341.28571
2557.26554	15308.57143
2559.96803	15279.14286
2562.66883	15303.57143
2565.36794	15259.85714
2568.06536	15255.42857
2570.7611	15201.71429
2573.45514	15177.57143
2576.14751	15174
2578.83819	15140.14286
2581.52719	15187
2584.21451	15143.71429
2586.90015	15129.57143
2589.58411	15101.85714
2592.2664	15081.14286
2594.94701	15041.28571
2597.62594	15072.42857
2600.30321	15074.42857
2602.9788	15027.57143
2605.65273	15013.42857
2608.32498	14984.42857
2610.99557	14993.28571
2613.66449	14976.57143
2616.33175	14930.71429
2618.99734	14969.71429
2621.66128	14948.14286
2624.32355	14952
2626.98416	14971.71429
2629.64311	14933.71429
2632.30041	14925.85714
2634.95605	14918.28571
2637.61004	14889.85714
2640.26238	14844.14286
2642.91306	14823.71429
2645.56209	14863.28571
2648.20948	14872.14286
2650.85521	14816.14286
2653.4993	14815.85714
2656.14175	14820.85714
2658.78255	14799.71429
2661.42171	14815.71429
2664.05923	14831.28571
2666.6951	14812.28571
2669.32934	14838.28571
2671.96194	14805.42857
2674.59291	14864
2677.22224	14836.57143
2679.84993	14836
2682.476	14841.14286
2685.10043	14827.57143
2687.72324	14822.71429
2690.34441	14759.85714
2692.96396	14777
2695.58188	14795.14286
2698.19818	14827.14286
2700.81285	14784.57143
2703.4259	14758.42857
2706.03733	14758.71429
2708.64714	14778.85714
2711.25533	14788.14286
2713.86191	14763.28571
2716.46687	14819.71429
2719.07021	14817.42857
2721.67194	14771.71429
2724.27206	14817.85714
2726.87057	14824
2729.46747	14814.28571
2732.06276	14773.57143
2734.65644	14774.14286
2737.24852	14754.85714
2739.83899	14748.57143
2742.42786	14771.71429
2745.01513	14716.71429
2747.60079	14703
2750.18486	14714.85714
2752.76733	14704.71429
2755.3482	14704.14286
2757.92747	14669.85714
2760.50515	14692
2763.08123	14712.71429
2765.65573	14648.85714
2768.22863	14662.57143
2770.79994	14623.71429
2773.36967	14658.14286
2775.9378	14649.71429
2778.50435	14635.85714
2781.06932	14605.85714
2783.6327	14566.57143
2786.1945	14569
2788.75471	14604.14286
2791.31335	14505.85714
2793.87041	14531.42857
2796.42589	14495
2798.97979	14508.42857
2801.53212	14428.71429
2804.08288	14453.57143
2806.63206	14429.42857
2809.17967	14410.28571
2811.72571	14364.57143
2814.27018	14360.42857
2816.81308	14356.71429
2819.35442	14300
2821.89419	14265.14286
2824.43239	14286.71429
2826.96904	14257.71429
2829.50412	14272.85714
2832.03763	14284.28571
2834.56959	14262.28571
2837.1	14253.71429
2839.62884	14247
2842.15613	14213.57143
2844.68186	14222.42857
2847.20604	14206.14286
2849.72867	14232
2852.24974	14205.14286
2854.76927	14198.14286
2857.28724	14154.71429
2859.80367	14194.85714
2862.31855	14134.42857
2864.83189	14156
2867.34368	14140.42857
2869.85393	14097.85714
2872.36264	14109.14286
2874.8698	14133.14286
2877.37543	14083.14286
2879.87952	14096.14286
2882.38207	14093.28571
2884.88308	14044.71429
2887.38256	14097
2889.88051	14121.42857
2892.37692	14153.85714
2894.8718	14112.42857
2897.36515	14162.14286
2899.85698	14148
2902.34727	14170.28571
2904.83604	14185
2907.32328	14218.71429
2909.809	14242.71429
2912.29319	14252.71429
2914.77587	14233.14286
2917.25702	14239
2919.73665	14222.85714
2922.21476	14219.14286
2924.69136	14238
2927.16644	14237.14286
2929.64	14181.28571
2932.11205	14184.28571
2934.58258	14184.42857
2937.05161	14163.57143
2939.51912	14161.42857
2941.98513	14144.85714
2944.44962	14168.57143
2946.91261	14119.71429
2949.37409	14111.42857
2951.83407	14139.28571
2954.29254	14121.14286
2956.74951	14087.85714
2959.20498	14122.85714
2961.65895	14101.42857
2964.11142	14049.28571
2966.56239	14062.71429
2969.01186	14054.71429
2971.45984	14001.71429
2973.90632	14045.85714
2976.35131	13961.57143
2978.7948	13979.42857
2981.23681	13935.57143
2983.67732	13932.57143
2986.11635	13896.71429
2988.55388	13870.14286
2990.98993	13837
2993.4245	13855
2995.85758	13775.28571
2998.28917	13784.42857
3000.71928	13764.57143
3003.14791	13777.71429
3005.57506	13740.85714
3008.00073	13728.71429
3010.42493	13726
3012.84764	13672.14286
3015.26888	13697.28571
3017.68865	13676
3020.10694	13621.28571
3022.52376	13632.85714
3024.9391	13579.14286
3027.35298	13581.42857
3029.76539	13573
3032.17632	13560
3034.5858	13546.28571
3036.9938	13530
3039.40034	13529.28571
3041.80542	13531.14286
3044.20903	13484.71429
3046.61118	13483.28571
3049.01187	13473.42857
3051.4111	13492.85714
3053.80888	13482.85714
3056.20519	13406.14286
3058.60005	13390.85714
3060.99345	13388.57143
3063.3854	13341.71429
3065.7759	13283.14286
3068.16494	13284.28571
3070.55254	13250.71429
3072.93868	13228.85714
3075.32338	13205.14286
3077.70662	13190.42857
3080.08842	13187
3082.46878	13177.14286
3084.84769	13166.42857
3087.22515	13171
3089.60118	13179.42857
3091.97576	13212.57143
3094.3489	13200
3096.72061	13233.28571
3099.09087	13193.57143
3101.4597	13189.14286
3103.82709	13197.85714
3106.19305	13170.85714
3108.55757	13204.71429
3110.92066	13168.71429
3113.28232	13191.71429
3115.64255	13151.57143
3118.00134	13140.14286
3120.35871	13100.71429
3122.71466	13120.14286
3125.06917	13067
3127.42226	13017.57143
3129.77393	13052.42857
3132.12417	13059.85714
3134.47299	13067.57143
3136.82039	13075.71429
3139.16636	13049.85714
3141.51092	13079
3143.85406	13091.85714
3146.19579	13065.28571
3148.53609	13083.71429
3150.87499	13085.14286
3153.21246	13116
3155.54853	13136.28571
3157.88318	13094.71429
3160.21642	13142.42857
3162.54826	13151.85714
3164.87868	13165.85714
3167.2077	13178.57143
3169.5353	13149.85714
3171.86151	13170.71429
3174.18631	13188.71429
3176.5097	13186.57143
3178.83169	13137.71429
3181.15228	13141.71429
3183.47147	13114.57143
3185.78926	13135.14286
3188.10565	13092.85714
3190.42065	13089
3192.73424	13084.71429
3195.04645	13128.28571
3197.35725	13143.14286
3199.66667	13113.85714
3201.97469	13127.28571
3204.28132	13117.57143
3206.58656	13134
3208.8904	13171.71429
3211.19287	13156.85714
3213.49394	13162.28571
3215.79363	13166.85714
3218.09193	13182
3220.38884	13204.28571
3222.68438	13210.85714
3224.97853	13180.14286
3227.2713	13193.57143
3229.56269	13223.71429
3231.8527	13177.28571
3234.14133	13193
3236.42858	13162.71429
3238.71446	13139.85714
3240.99896	13110.42857
3243.28209	13121.14286
3245.56384	13080.42857
3247.84423	13085.57143
3250.12324	13126.57143
3252.40088	13048.85714
3254.67715	13068.57143
3256.95205	13088.85714
3259.22558	13096.42857
3261.49775	13091.28571
3263.76855	13080.57143
3266.03799	13057.71429
3268.30606	13060.42857
3270.57277	13035.71429
3272.83812	13018.42857
3275.10211	12981.42857
3277.36474	12984.71429
3279.62601	13002.42857
3281.88593	12953
3284.14448	12980.14286
3286.40168	12945.42857
3288.65753	12933.14286
3290.91202	12926.28571
3293.16516	12926.57143
3295.41695	12932.57143
3297.66738	12873.28571
3299.91647	12768.71429
3302.16421	12722.14286
3304.4106	12693.42857
3306.65564	12590
3308.89933	12506.57143
3311.14169	12437.85714
3313.38269	12325.28571
3315.62236	12279.14286
3317.86068	12148.57143
3320.09766	12105.14286
3322.3333	12057.42857
3324.5676	11986.42857
3326.80056	11782.14286
3329.03219	11761.14286
3331.26248	2.57143
3333.49143	-1
3335.71905	0.14286
