Data from AgNPs_FTO_APTES_UA_10uM_CRN_100uM_R6G_10uM_NaF_0.1M_Addition_RamanShift__2__17-16-14-858.txt Node

Date: Thu Feb 17 17:16:14 GMT 2022
User: TCL
Spectrometer: QEP01345
Trigger mode: 4
Integration Time (sec): 1.000000E1
Scans to average: 7
Electric dark correction enabled: true
Nonlinearity correction enabled: false
Boxcar width: 0
XAxis mode: Raman Shifts
Number of Pixels in Spectrum: 1044
>>>>>Begin Spectral Data<<<<<
46.04893	-1.17857
50.45542	-1.46429
54.85868	0.25
59.25871	-2.17857
63.6555	91.25
68.04907	92.10714
72.43941	98.53571
76.82654	99.10714
81.21044	106.25
85.59113	104.82143
89.96862	113.39286
94.34289	114.25
98.71396	121.39286
103.08183	117.82143
107.4465	129.96429
111.80798	125.67857
116.16626	130.39286
120.52136	132.67857
124.87327	144.10714
129.222	141.25
133.56755	152.25
137.90993	164.10714
142.24913	180.96429
146.58517	199.10714
150.91804	228.82143
155.24774	269.96429
159.57429	333.10714
163.89768	424.39286
168.21792	557.39286
172.53501	768.39286
176.84895	1088.53571
181.15975	1529.67857
185.46741	2162.53571
189.77193	2995.39286
194.07331	4037.53571
198.37157	5201.96429
202.6667	6460.82143
206.9587	7712.53571
211.24758	8920.10714
215.53334	10117.67857
219.81599	11406.39286
224.09553	12811.53571
228.37195	14362.67857
232.64527	16097.82143
236.91549	17899.39286
241.18261	19694.10714
245.44663	21343.53571
249.70755	22903.39286
253.96539	24176.67857
258.22014	25281.10714
262.4718	26150.67857
266.72039	26833.96429
270.96589	27082.53571
275.20832	27057.39286
279.44768	26806.96429
283.68397	26404.96429
287.91719	26011.96429
292.14735	25743.53571
296.37445	25684.82143
300.59849	25902.67857
304.81948	26190.96429
309.03742	26435.25
313.25231	26473.67857
317.46415	26210.25
321.67296	25763.25
325.87872	25321.96429
330.08145	25144.96429
334.28114	25160.53571
338.47781	25375.82143
342.67145	25762.25
346.86207	26298.67857
351.04966	26895.82143
355.23424	27495.67857
359.4158	27998.10714
363.59435	28313.82143
367.76989	28573.10714
371.94243	28687.96429
376.11196	28797.96429
380.27849	28908.25
384.44203	29099.10714
388.60257	29220.39286
392.76012	29373.39286
396.91468	29621.25
401.06626	29962.82143
405.21485	30242.39286
409.36047	30130.96429
413.50311	29735.10714
417.64277	29290.96429
421.77947	29160.96429
425.9132	29144.39286
430.04396	29246.39286
434.17176	29441.96429
438.2966	29772.25
442.41849	30250.39286
446.53742	31014.25
450.6534	31760.53571
454.76644	32234.67857
458.87653	32310.53571
462.98368	32024.39286
467.08789	31707.53571
471.18916	31279.25
475.2875	30772.67857
479.38291	30301.10714
483.4754	29977.53571
487.56496	29784.39286
491.6516	29676.25
495.73531	29696.96429
499.81612	29792.96429
503.89401	29977.82143
507.96899	30057.53571
512.04106	30149.82143
516.11023	30251.96429
520.1765	30343.67857
524.23987	30435.25
528.30034	30504.25
532.35792	30437.53571
536.41261	30304.25
540.46441	29971.82143
544.51333	29797.39286
548.55936	29875.39286
552.60252	30150.25
556.64279	30693.53571
560.6802	30919.67857
564.71473	30930.39286
568.7464	30963.39286
572.7752	31162.82143
576.80114	31176.67857
580.82422	31368.67857
584.84444	31835.25
588.86181	32782.10714
592.87633	33958.25
596.888	34694.96429
600.89682	34386.53571
604.9028	34795.10714
608.90594	37632.67857
612.90624	41355.10714
616.90371	39983.53571
620.89834	34373.53571
624.89015	31759.53571
628.87913	31387.53571
632.86528	31459.82143
636.84862	31484.10714
640.82913	31217.82143
644.80683	30624.25
648.78172	30259.96429
652.75379	30260.10714
656.72306	30679.96429
660.68952	31254.25
664.65319	31134.39286
668.61405	30699.82143
672.57211	30643.25
676.52738	30788.25
680.47986	30733.96429
684.42955	30575.96429
688.37646	30520.10714
692.32058	30637.10714
696.26192	30966.10714
700.20048	31263.96429
704.13626	31384.67857
708.06928	31214.25
711.99952	30969.10714
715.927	30987.67857
719.85171	31136.25
723.77365	31117.67857
727.69284	30953.67857
731.60928	30788.82143
735.52295	30676.39286
739.43388	30750.67857
743.34206	30867.82143
747.24749	30978.10714
751.15017	30987.53571
755.05012	31157.67857
758.94733	31729.96429
762.8418	32879.96429
766.73354	34851.53571
770.62254	36843.53571
774.50882	37734.96429
778.39237	36882.82143
782.27321	34903.82143
786.15132	33062.25
790.02671	31845.25
793.89938	31262.39286
797.76935	31058.39286
801.6366	30994.39286
805.50115	30824.10714
809.36299	30712.10714
813.22213	30631.67857
817.07857	30572.96429
820.93231	30564.53571
824.78336	30628.67857
828.63172	30637.39286
832.47738	30762.67857
836.32036	30789.53571
840.16066	30923.96429
843.99827	31003.67857
847.8332	30937.53571
851.66546	30893.53571
855.49504	30917.67857
859.32195	30941.53571
863.1462	30915.10714
866.96777	30863.82143
870.78668	30939.53571
874.60293	30964.67857
878.41652	31053.10714
882.22745	31148.82143
886.03573	31234.39286
889.84136	31239.10714
893.64433	31105.25
897.44466	30990.39286
901.24235	30860.67857
905.0374	30812.10714
908.8298	30736.25
912.61957	30688.53571
916.40671	30792.39286
920.19121	30955.25
923.97308	31199.82143
927.75233	31362.25
931.52895	31497.10714
935.30295	31361.96429
939.07433	31027.96429
942.84309	30791.53571
946.60924	30674.53571
950.37278	30568.10714
954.13371	30477.25
957.89203	30276.96429
961.64774	30245.25
965.40086	30248.25
969.15137	30207.39286
972.89929	30221.10714
976.64461	30322.82143
980.38733	30391.53571
984.12747	30503.96429
987.86502	30720.96429
991.59999	31047.39286
995.33237	31499.53571
999.06217	32038.39286
1002.78939	32751.67857
1006.51404	33144.25
1010.23611	33400.67857
1013.95561	33589.10714
1017.67255	33659.25
1021.38692	33513.53571
1025.09872	33307.25
1028.80796	33392.82143
1032.51465	34034.10714
1036.21877	34689.96429
1039.92035	34903.53571
1043.61937	34620.39286
1047.31584	34091.67857
1051.00976	33375.67857
1054.70114	32903.10714
1058.38998	32751.10714
1062.07627	32754.67857
1065.76003	32813.96429
1069.44126	32878.10714
1073.11995	33213.82143
1076.79611	33554.96429
1080.46974	33896.96429
1084.14085	34143.39286
1087.80943	34425.39286
1091.47549	34501.25
1095.13903	34262.96429
1098.80005	33887.10714
1102.45857	33528.53571
1106.11456	33339.82143
1109.76805	33366.82143
1113.41903	33621.25
1117.06751	33787.25
1120.71348	34145.39286
1124.35696	34492.67857
1127.99793	34816.53571
1131.63641	34903.96429
1135.2724	34570.39286
1138.90589	34187.25
1142.5369	33812.10714
1146.16542	33701.25
1149.79145	33588.25
1153.415	33509.25
1157.03607	33534.82143
1160.65467	33901.25
1164.27079	34615.25
1167.88443	35624.25
1171.49561	37091.53571
1175.10432	39069.67857
1178.71056	41670.39286
1182.31434	44172.82143
1185.91565	45315.39286
1189.51451	45093.39286
1193.11091	43803.25
1196.70485	42177.39286
1200.29634	40844.82143
1203.88538	39670.82143
1207.47197	38559.53571
1211.05612	37571.53571
1214.63782	36953.53571
1218.21708	36786.82143
1221.79391	36813.10714
1225.36829	36923.96429
1228.94024	36897.96429
1232.50976	36582.10714
1236.07685	36025.53571
1239.6415	35815.10714
1243.20374	35857.53571
1246.76355	36088.10714
1250.32093	36456.39286
1253.8759	36949.96429
1257.42845	37610.96429
1260.97859	38362.10714
1264.52631	39193.53571
1268.07163	40065.53571
1271.61453	40827.39286
1275.15503	41596.82143
1278.69312	42197.67857
1282.22882	42570.25
1285.76211	43117.96429
1289.29301	43791.53571
1292.82151	44682.82143
1296.34761	45829.67857
1299.87133	47557.82143
1303.39266	49983.25
1306.9116	53059.67857
1310.42815	56021.25
1313.94233	57577.10714
1317.45412	56722.25
1320.96354	54310.39286
1324.47058	51588.96429
1327.97525	49329.39286
1331.47754	47678.39286
1334.97747	46862.25
1338.47502	46609.67857
1341.97022	46826.82143
1345.46305	47298.25
1348.95352	48351.53571
1352.44163	50152.53571
1355.92738	52758.82143
1359.41078	56360.67857
1362.89183	59114.82143
1366.37053	57924.67857
1369.84688	52815.82143
1373.32088	47346.96429
1376.79254	43765.53571
1380.26186	42200.82143
1383.72883	41421.96429
1387.19347	40838.53571
1390.65578	40038.10714
1394.11575	39534.10714
1397.57339	39353.82143
1401.0287	39330.82143
1404.48168	39237.39286
1407.93234	39144.53571
1411.38068	39156.53571
1414.82669	39193.96429
1418.27039	39083.82143
1421.71177	38750.67857
1425.15083	38284.53571
1428.58758	38057.25
1432.02203	38293.67857
1435.45416	38826.10714
1438.88399	39217.96429
1442.31151	39357.25
1445.73673	39408.10714
1449.15965	39320.10714
1452.58027	39104.67857
1455.9986	38817.96429
1459.41463	38812.96429
1462.82837	39193.10714
1466.23982	39827.53571
1469.64898	40456.67857
1473.05586	40987.25
1476.46045	41428.96429
1479.86276	41696.53571
1483.26279	41909.10714
1486.66054	42254.39286
1490.05602	42828.39286
1493.44922	43576.39286
1496.84016	44500.25
1500.22882	45880.10714
1503.61521	47819.53571
1506.99934	50083.53571
1510.38121	51795.82143
1513.76081	51864.39286
1517.13816	49826.96429
1520.51324	46860.82143
1523.88607	44266.82143
1527.25665	42731.53571
1530.62498	42072.25
1533.99105	41667.10714
1537.35488	41428.25
1540.71647	41129.53571
1544.07581	40871.96429
1547.4329	40508.53571
1550.78776	40208.10714
1554.14038	39957.39286
1557.49077	39929.10714
1560.83892	39938.82143
1564.18484	40115.53571
1567.52853	40513.10714
1570.86999	40838.53571
1574.20922	41260.67857
1577.54624	41283.10714
1580.88103	40755.39286
1584.2136	40067.25
1587.54395	40128.10714
1590.87208	41124.96429
1594.19801	43002.67857
1597.52172	45156.67857
1600.84321	46286.10714
1604.16251	45549.39286
1607.47959	43537.53571
1610.79447	41146.82143
1614.10715	38768.96429
1617.41763	37001.10714
1620.7259	35907.25
1624.03199	35358.25
1627.33587	35442.25
1630.63757	36007.82143
1633.93707	37139.53571
1637.23439	38897.39286
1640.52951	41676.82143
1643.82246	45232.25
1647.11321	48352.53571
1650.40179	49271.82143
1653.68819	46876.10714
1656.97241	42478.82143
1660.25446	38295.39286
1663.53433	35498.10714
1666.81203	33869.10714
1670.08756	32880.67857
1673.36092	32187.67857
1676.63211	31813.67857
1679.90115	31521.67857
1683.16801	31238.67857
1686.43272	31069.82143
1689.69527	30922.67857
1692.95567	30783.96429
1696.2139	30767.96429
1699.46999	30721.82143
1702.72392	30690.39286
1705.97571	30654.25
1709.22535	30639.53571
1712.47284	30654.53571
1715.71819	30653.82143
1718.96139	30613.96429
1722.20246	30551.82143
1725.44139	30432.67857
1728.67818	30414.10714
1731.91284	30269.53571
1735.14537	30154.96429
1738.37576	30152.67857
1741.60403	30093.25
1744.83017	30033.53571
1748.05418	29978.25
1751.27607	29940.53571
1754.49584	29870.10714
1757.71349	29929.10714
1760.92903	29842.39286
1764.14244	29920.53571
1767.35375	29879.25
1770.56294	29791.67857
1773.77002	29797.39286
1776.97499	29778.82143
1780.17785	29778.96429
1783.37861	29777.25
1786.57727	29758.39286
1789.77382	29667.10714
1792.96828	29670.67857
1796.16064	29630.96429
1799.3509	29548.39286
1802.53907	29546.67857
1805.72514	29495.25
1808.90913	29478.82143
1812.09102	29443.67857
1815.27083	29368.96429
1818.44856	29276.82143
1821.6242	29326.10714
1824.79776	29334.53571
1827.96924	29281.53571
1831.13864	29206.10714
1834.30597	29261.82143
1837.47122	29291.10714
1840.6344	29257.82143
1843.7955	29284.67857
1846.95454	29265.53571
1850.11151	29238.67857
1853.26642	29228.67857
1856.41926	29195.67857
1859.57004	29133.53571
1862.71876	29131.10714
1865.86542	29169.82143
1869.01003	29178.96429
1872.15258	29116.53571
1875.29308	29133.39286
1878.43152	29067.96429
1881.56792	29096.67857
1884.70227	29086.25
1887.83457	29018.53571
1890.96482	29030.82143
1894.09304	29008.10714
1897.21921	29015.82143
1900.34335	29016.67857
1903.46544	28944.39286
1906.58551	28930.82143
1909.70353	28921.10714
1912.81953	28909.96429
1915.93349	28872.39286
1919.04543	28824.96429
1922.15534	28798.25
1925.26322	28738.25
1928.36908	28758.53571
1931.47292	28730.96429
1934.57473	28636.53571
1937.67453	28597.96429
1940.77232	28567.82143
1943.86808	28494.25
1946.96184	28378.10714
1950.05358	28353.25
1953.14331	28332.25
1956.23103	28296.82143
1959.31675	28210.67857
1962.40046	28120.25
1965.48217	28057.67857
1968.56188	27994.10714
1971.63959	27898.96429
1974.7153	27880.67857
1977.78901	27782.10714
1980.86073	27749.25
1983.93046	27667.53571
1986.99819	27543.39286
1990.06394	27507.96429
1993.1277	27477.82143
1996.18947	27347.96429
1999.24925	27258.53571
2002.30706	27232.10714
2005.36288	27149.67857
2008.41672	27145.96429
2011.46859	27071.82143
2014.51848	26974.10714
2017.56639	26887.96429
2020.61233	26871.82143
2023.6563	26836.53571
2026.6983	26782.53571
2029.73833	26765.10714
2032.7764	26741.96429
2035.8125	26711.67857
2038.84664	26638.67857
2041.87881	26598.82143
2044.90903	26596.10714
2047.93729	26517.25
2050.96359	26531.39286
2053.98794	26514.39286
2057.01034	26462.39286
2060.03078	26462.82143
2063.04927	26399.10714
2066.06582	26420.25
2069.08042	26395.10714
2072.09307	26442.25
2075.10378	26463.25
2078.11255	26429.67857
2081.11938	26464.10714
2084.12426	26448.39286
2087.12722	26446.10714
2090.12824	26421.53571
2093.12732	26405.82143
2096.12447	26369.96429
2099.11969	26463.96429
2102.11299	26485.53571
2105.10435	26520.82143
2108.09379	26550.25
2111.08131	26570.10714
2114.0669	26567.82143
2117.05057	26606.25
2120.03233	26651.53571
2123.01216	26677.39286
2125.99008	26751.39286
2128.96609	26796.53571
2131.94018	26800.53571
2134.91236	26849.82143
2137.88263	26831.53571
2140.851	26846.53571
2143.81746	26904.82143
2146.78201	26915.10714
2149.74466	26959.96429
2152.7054	26970.96429
2155.66425	26981.10714
2158.6212	26996.96429
2161.57625	26952.67857
2164.52941	26949.53571
2167.48067	26917.96429
2170.43004	26947.39286
2173.37752	27012.53571
2176.32311	26967.10714
2179.26681	26952.82143
2182.20863	26998.10714
2185.14856	27054.96429
2188.08661	27004.96429
2191.02278	27040.10714
2193.95707	27057.25
2196.88948	27032.53571
2199.82001	27039.39286
2202.74867	27054.82143
2205.67545	27002.96429
2208.60037	27044.96429
2211.52341	26949.82143
2214.44458	26945.67857
2217.36388	26926.96429
2220.28132	26872.10714
2223.1969	26823.39286
2226.11061	26787.53571
2229.02246	26745.82143
2231.93245	26709.53571
2234.84058	26606.53571
2237.74686	26626.67857
2240.65128	26607.10714
2243.55385	26628.67857
2246.45456	26610.67857
2249.35343	26593.82143
2252.25044	26560.96429
2255.14561	26552.25
2258.03893	26550.67857
2260.93041	26464.10714
2263.82004	26394.39286
2266.70783	26368.82143
2269.59378	26338.96429
2272.4779	26287.10714
2275.36017	26233.67857
2278.24061	26202.53571
2281.11922	26179.96429
2283.996	26213.96429
2286.87094	26215.53571
2289.74405	26153.25
2292.61534	26124.25
2295.4848	26105.10714
2298.35243	26131.53571
2301.21824	26164.96429
2304.08223	26122.25
2306.94439	26113.25
2309.80474	26156.10714
2312.66327	26179.39286
2315.51999	26195.82143
2318.37489	26192.25
2321.22797	26100.67857
2324.07925	26090.10714
2326.92871	26048.53571
2329.77637	25989.67857
2332.62222	25970.39286
2335.46626	25980.53571
2338.3085	25981.82143
2341.14893	25968.67857
2343.98756	25975.82143
2346.8244	25907.96429
2349.65943	25911.10714
2352.49267	25868.39286
2355.32411	25916.10714
2358.15376	25927.25
2360.98161	25880.96429
2363.80768	25849.10714
2366.63195	25857.53571
2369.45444	25831.82143
2372.27514	25764.39286
2375.09405	25771.67857
2377.91118	25771.53571
2380.72652	25726.67857
2383.54009	25601.25
2386.35187	25635.82143
2389.16188	25560.67857
2391.97011	25543.53571
2394.77657	25502.25
2397.58125	25530.67857
2400.38416	25496.82143
2403.18529	25466.25
2405.98466	25440.25
2408.78226	25398.25
2411.57809	25343.39286
2414.37216	25327.67857
2417.16446	25331.10714
2419.955	25249.67857
2422.74378	25294.10714
2425.5308	25240.39286
2428.31606	25202.82143
2431.09956	25206.82143
2433.88131	25199.53571
2436.6613	25227.96429
2439.43954	25248.39286
2442.21603	25219.53571
2444.99077	25222.82143
2447.76377	25254.96429
2450.53501	25203.82143
2453.30451	25244.39286
2456.07226	25179.82143
2458.83827	25146.25
2461.60254	25164.67857
2464.36507	25117.39286
2467.12586	25091.96429
2469.88492	25071.10714
2472.64224	25109.96429
2475.39782	25151.96429
2478.15167	25182.96429
2480.90379	25123.67857
2483.65417	25201.82143
2486.40283	25183.25
2489.14976	25200.96429
2491.89497	25152.67857
2494.63845	25237.39286
2497.3802	25197.39286
2500.12024	25238.82143
2502.85855	25177.25
2505.59514	25179.67857
2508.33002	25158.67857
2511.06318	25063.82143
2513.79462	25080.53571
2516.52435	25078.39286
2519.25237	25036.10714
2521.97867	25043.39286
2524.70327	24992.82143
2527.42616	24996.25
2530.14734	24974.10714
2532.86681	24914.82143
2535.58458	24920.53571
2538.30065	24956.25
2541.01501	24968.53571
2543.72768	24900.53571
2546.43864	24873.96429
2549.14791	24818.53571
2551.85548	24828.25
2554.56136	24834.53571
2557.26554	24766.10714
2559.96803	24742.82143
2562.66883	24694.82143
2565.36794	24712.10714
2568.06536	24673.10714
2570.7611	24628.96429
2573.45514	24644.96429
2576.14751	24618.39286
2578.83819	24576.25
2581.52719	24575.25
2584.21451	24521.25
2586.90015	24508.10714
2589.58411	24471.53571
2592.2664	24505.10714
2594.94701	24411.96429
2597.62594	24402.39286
2600.30321	24397.82143
2602.9788	24342.39286
2605.65273	24374.25
2608.32498	24398.25
2610.99557	24370.39286
2613.66449	24355.39286
2616.33175	24280.53571
2618.99734	24347.82143
2621.66128	24324.10714
2624.32355	24268.25
2626.98416	24277.39286
2629.64311	24232.53571
2632.30041	24204.39286
2634.95605	24185.53571
2637.61004	24155.53571
2640.26238	24122.67857
2642.91306	24108.25
2645.56209	24118.67857
2648.20948	24152.25
2650.85521	24098.53571
2653.4993	24080.25
2656.14175	24097.53571
2658.78255	24082.39286
2661.42171	24060.82143
2664.05923	24114.82143
2666.6951	24120.53571
2669.32934	24154.96429
2671.96194	24169.67857
2674.59291	24200.67857
2677.22224	24199.25
2679.84993	24219.82143
2682.476	24167.67857
2685.10043	24191.53571
2687.72324	24095.67857
2690.34441	24136.53571
2692.96396	24120.53571
2695.58188	24155.10714
2698.19818	24098.25
2700.81285	24127.96429
2703.4259	24109.39286
2706.03733	24120.96429
2708.64714	24125.10714
2711.25533	24202.96429
2713.86191	24204.10714
2716.46687	24223.67857
2719.07021	24250.10714
2721.67194	24268.67857
2724.27206	24257.39286
2726.87057	24319.10714
2729.46747	24242.96429
2732.06276	24271.82143
2734.65644	24262.82143
2737.24852	24262.10714
2739.83899	24206.53571
2742.42786	24239.53571
2745.01513	24174.82143
2747.60079	24219.67857
2750.18486	24154.96429
2752.76733	24098.82143
2755.3482	24127.67857
2757.92747	24144.67857
2760.50515	24132.53571
2763.08123	24167.96429
2765.65573	24132.82143
2768.22863	24049.96429
2770.79994	24051.82143
2773.36967	24080.67857
2775.9378	24014.53571
2778.50435	23973.67857
2781.06932	23986.39286
2783.6327	24006.10714
2786.1945	23942.96429
2788.75471	23921.39286
2791.31335	23937.96429
2793.87041	23906.39286
2796.42589	23825.96429
2798.97979	23870.82143
2801.53212	23771.25
2804.08288	23808.10714
2806.63206	23732.67857
2809.17967	23718.25
2811.72571	23648.53571
2814.27018	23675.82143
2816.81308	23550.25
2819.35442	23524.67857
2821.89419	23481.25
2824.43239	23477.39286
2826.96904	23465.96429
2829.50412	23472.53571
2832.03763	23446.53571
2834.56959	23407.96429
2837.1	23408.25
2839.62884	23397.67857
2842.15613	23351.82143
2844.68186	23344.39286
2847.20604	23330.10714
2849.72867	23353.82143
2852.24974	23341.53571
2854.76927	23321.25
2857.28724	23307.39286
2859.80367	23304.53571
2862.31855	23251.10714
2864.83189	23276.67857
2867.34368	23246.53571
2869.85393	23234.82143
2872.36264	23233.39286
2874.8698	23210.53571
2877.37543	23233.53571
2879.87952	23263.67857
2882.38207	23196.96429
2884.88308	23184.10714
2887.38256	23245.53571
2889.88051	23246.10714
2892.37692	23287.67857
2894.8718	23252.10714
2897.36515	23280.10714
2899.85698	23342.25
2902.34727	23350.10714
2904.83604	23371.53571
2907.32328	23410.53571
2909.809	23348.25
2912.29319	23411.82143
2914.77587	23345.82143
2917.25702	23371.25
2919.73665	23421.82143
2922.21476	23407.25
2924.69136	23378.10714
2927.16644	23400.25
2929.64	23366.53571
2932.11205	23337.39286
2934.58258	23292.25
2937.05161	23351.53571
2939.51912	23357.25
2941.98513	23322.25
2944.44962	23309.82143
2946.91261	23221.53571
2949.37409	23295.25
2951.83407	23311.53571
2954.29254	23328.67857
2956.74951	23337.10714
2959.20498	23272.25
2961.65895	23234.82143
2964.11142	23228.53571
2966.56239	23234.25
2969.01186	23255.53571
2971.45984	23236.96429
2973.90632	23215.67857
2976.35131	23170.39286
2978.7948	23138.25
2981.23681	23135.96429
2983.67732	23136.67857
2986.11635	23006.96429
2988.55388	23000.67857
2990.98993	22983.39286
2993.4245	22993.10714
2995.85758	22937.25
2998.28917	22888.82143
3000.71928	22901.96429
3003.14791	22867.82143
3005.57506	22829.53571
3008.00073	22772.25
3010.42493	22748.25
3012.84764	22789.10714
3015.26888	22748.25
3017.68865	22724.67857
3020.10694	22705.53571
3022.52376	22668.67857
3024.9391	22651.10714
3027.35298	22579.67857
3029.76539	22592.25
3032.17632	22573.82143
3034.5858	22542.96429
3036.9938	22505.25
3039.40034	22533.96429
3041.80542	22511.53571
3044.20903	22476.10714
3046.61118	22502.25
3049.01187	22486.67857
3051.4111	22449.25
3053.80888	22402.67857
3056.20519	22391.10714
3058.60005	22347.39286
3060.99345	22336.10714
3063.3854	22247.53571
3065.7759	22204.25
3068.16494	22187.96429
3070.55254	22141.25
3072.93868	22056.10714
3075.32338	22040.96429
3077.70662	22063.25
3080.08842	22003.53571
3082.46878	21989.53571
3084.84769	21962.39286
3087.22515	21920.25
3089.60118	22014.82143
3091.97576	22019.39286
3094.3489	22030.25
3096.72061	22057.39286
3099.09087	22015.96429
3101.4597	22034.82143
3103.82709	22007.67857
3106.19305	21964.96429
3108.55757	22021.10714
3110.92066	22049.25
3113.28232	22007.25
3115.64255	21886.25
3118.00134	21887.53571
3120.35871	21837.82143
3122.71466	21812.25
3125.06917	21774.25
3127.42226	21734.96429
3129.77393	21693.25
3132.12417	21713.10714
3134.47299	21666.10714
3136.82039	21708.10714
3139.16636	21675.39286
3141.51092	21724.82143
3143.85406	21730.10714
3146.19579	21705.39286
3148.53609	21729.96429
3150.87499	21736.10714
3153.21246	21759.67857
3155.54853	21832.25
3157.88318	21795.25
3160.21642	21799.25
3162.54826	21857.10714
3164.87868	21815.10714
3167.2077	21873.53571
3169.5353	21831.25
3171.86151	21898.10714
3174.18631	21840.53571
3176.5097	21835.82143
3178.83169	21785.25
3181.15228	21844.39286
3183.47147	21732.25
3185.78926	21783.82143
3188.10565	21755.96429
3190.42065	21734.25
3192.73424	21752.39286
3195.04645	21704.10714
3197.35725	21703.96429
3199.66667	21670.82143
3201.97469	21663.10714
3204.28132	21676.67857
3206.58656	21730.96429
3208.8904	21766.25
3211.19287	21744.10714
3213.49394	21780.82143
3215.79363	21797.25
3218.09193	21792.10714
3220.38884	21831.39286
3222.68438	21857.25
3224.97853	21879.10714
3227.2713	21810.67857
3229.56269	21791.39286
3231.8527	21829.10714
3234.14133	21747.67857
3236.42858	21705.25
3238.71446	21632.96429
3240.99896	21608.39286
3243.28209	21611.67857
3245.56384	21560.39286
3247.84423	21650.96429
3250.12324	21596.67857
3252.40088	21580.53571
3254.67715	21551.53571
3256.95205	21639.82143
3259.22558	21614.82143
3261.49775	21576.25
3263.76855	21570.67857
3266.03799	21548.25
3268.30606	21525.96429
3270.57277	21538.10714
3272.83812	21451.25
3275.10211	21418.25
3277.36474	21360.25
3279.62601	21359.82143
3281.88593	21379.96429
3284.14448	21381.39286
3286.40168	21359.10714
3288.65753	21337.39286
3290.91202	21292.39286
3293.16516	21300.39286
3295.41695	21259.67857
3297.66738	21161.53571
3299.91647	21064.82143
3302.16421	20954.10714
3304.4106	20929.25
3306.65564	20744.96429
3308.89933	20611.67857
3311.14169	20501.39286
3313.38269	20357.82143
3315.62236	20238.10714
3317.86068	20110.82143
3320.09766	19985.10714
3322.3333	19836.10714
3324.5676	19744.25
3326.80056	19441.67857
3329.03219	19365.53571
3331.26248	3.25
3333.49143	-0.60714
3335.71905	0.96429
