Data from AgNPs_FTO_APTES_UA_20uM_CRN_5uM_R6G_10uM_NaF_0.1M_Addition_RamanShift__5__13-37-42-136.txt Node

Date: Thu Feb 17 13:37:42 GMT 2022
User: TCL
Spectrometer: QEP01345
Trigger mode: 4
Integration Time (sec): 7.000000E0
Scans to average: 10
Electric dark correction enabled: true
Nonlinearity correction enabled: false
Boxcar width: 0
XAxis mode: Raman Shifts
Number of Pixels in Spectrum: 1044
>>>>>Begin Spectral Data<<<<<
46.04893	0.8625
50.45542	-1.4375
54.85868	-3.4375
59.25871	-0.2375
63.6555	130.2625
68.04907	128.3625
72.43941	137.0625
76.82654	137.8625
81.21044	141.3625
85.59113	145.4625
89.96862	147.3625
94.34289	154.8625
98.71396	157.9625
103.08183	162.1625
107.4465	167.0625
111.80798	174.1625
116.16626	178.8625
120.52136	187.6625
124.87327	195.1625
129.222	210.5625
133.56755	225.6625
137.90993	242.2625
142.24913	268.1625
146.58517	311.1625
150.91804	366.7625
155.24774	436.9625
159.57429	547.0625
163.89768	714.2625
168.21792	953.8625
172.53501	1325.8625
176.84895	1850.7625
181.15975	2616.6625
185.46741	3687.7625
189.77193	5118.4625
194.07331	6864.9625
198.37157	8866.5625
202.6667	10981.6625
206.9587	13096.2625
211.24758	15160.6625
215.53334	17187.5625
219.81599	19323.6625
224.09553	21723.0625
228.37195	24312.0625
232.64527	27232.1625
236.91549	30184.8625
241.18261	33320.5625
245.44663	36349.0625
249.70755	39013.1625
253.96539	41429.3625
258.22014	43347.1625
262.4718	45044.5625
266.72039	46171.6625
270.96589	46902.0625
275.20832	46966.1625
279.44768	46738.9625
283.68397	46335.3625
287.91719	45934.0625
292.14735	45702.0625
296.37445	45576.7625
300.59849	45619.4625
304.81948	45774.3625
309.03742	45883.2625
313.25231	45757.7625
317.46415	45274.5625
321.67296	44706.5625
325.87872	44185.9625
330.08145	43964.1625
334.28114	44047.6625
338.47781	44377.7625
342.67145	44871.2625
346.86207	45571.8625
351.04966	46305.8625
355.23424	46989.9625
359.4158	47568.7625
363.59435	48022.1625
367.76989	48397.2625
371.94243	48707.9625
376.11196	48996.7625
380.27849	49267.8625
384.44203	49628.4625
388.60257	49989.7625
392.76012	50476.9625
396.91468	51008.2625
401.06626	51640.7625
405.21485	52033.9625
409.36047	52079.9625
413.50311	51631.1625
417.64277	51463.4625
421.77947	51558.3625
425.9132	51778.9625
430.04396	52096.0625
434.17176	52442.5625
438.2966	52925.3625
442.41849	53730.7625
446.53742	54933.6625
450.6534	56346.4625
454.76644	57330.6625
458.87653	57773.2625
462.98368	57540.9625
467.08789	56942.1625
471.18916	56221.9625
475.2875	55559.5625
479.38291	55208.2625
483.4754	54943.5625
487.56496	54493.2625
491.6516	53996.7625
495.73531	53519.8625
499.81612	53154.8625
503.89401	53310.5625
507.96899	53558.5625
512.04106	53572.7625
516.11023	53420.3625
520.1765	53158.0625
524.23987	52982.3625
528.30034	52807.4625
532.35792	52575.6625
536.41261	52266.4625
540.46441	51868.1625
544.51333	51869.3625
548.55936	52302.5625
552.60252	53136.8625
556.64279	54211.9625
560.6802	55053.2625
564.71473	55545.4625
568.7464	56198.1625
572.7752	57558.1625
576.80114	58938.1625
580.82422	60440.4625
584.84444	61882.2625
588.86181	63917.1625
592.87633	65608.6625
596.888	65388.9625
600.89682	63274.5625
604.9028	62658.2625
608.90594	64953.5625
612.90624	67459.9625
616.90371	64187.6625
620.89834	57465.5625
624.89015	54522.6625
628.87913	54228.3625
632.86528	54506.1625
636.84862	54472.1625
640.82913	53939.1625
644.80683	53069.1625
648.78172	52514.1625
652.75379	52529.9625
656.72306	53027.9625
660.68952	53657.1625
664.65319	53485.1625
668.61405	52860.2625
672.57211	52845.9625
676.52738	53166.2625
680.47986	53150.5625
684.42955	52827.9625
688.37646	52809.5625
692.32058	53104.1625
696.26192	53713.9625
700.20048	54305.6625
704.13626	54682.1625
708.06928	54774.2625
711.99952	54660.3625
715.927	54562.5625
719.85171	54674.6625
723.77365	54663.3625
727.69284	54167.6625
731.60928	53749.1625
735.52295	53552.1625
739.43388	53587.4625
743.34206	53786.1625
747.24749	54091.3625
751.15017	54404.5625
755.05012	55098.3625
758.94733	56127.7625
762.8418	57983.3625
766.73354	60772.8625
770.62254	63293.7625
774.50882	63525.2625
778.39237	61423.6625
782.27321	58549.2625
786.15132	56235.4625
790.02671	54875.3625
793.89938	54111.2625
797.76935	53788.3625
801.6366	53634.6625
805.50115	53527.1625
809.36299	53356.2625
813.22213	53256.6625
817.07857	53174.0625
820.93231	53095.3625
824.78336	52975.5625
828.63172	52800.6625
832.47738	52798.4625
836.32036	52853.6625
840.16066	52879.9625
843.99827	52996.5625
847.8332	53094.0625
851.66546	53077.7625
855.49504	53084.1625
859.32195	53175.9625
863.1462	53151.0625
866.96777	53201.8625
870.78668	53136.0625
874.60293	53195.5625
878.41652	53244.6625
882.22745	53358.1625
886.03573	53422.3625
889.84136	53398.0625
893.64433	53239.9625
897.44466	53053.9625
901.24235	52975.6625
905.0374	52873.6625
908.8298	52801.0625
912.61957	52928.7625
916.40671	53209.3625
920.19121	53751.4625
923.97308	54249.4625
927.75233	54164.0625
931.52895	53723.4625
935.30295	53156.4625
939.07433	52626.3625
942.84309	52145.6625
946.60924	51971.9625
950.37278	51947.6625
954.13371	52097.1625
957.89203	52119.8625
961.64774	52016.4625
965.40086	51994.6625
969.15137	51946.1625
972.89929	51814.1625
976.64461	51675.1625
980.38733	51720.2625
984.12747	51739.8625
987.86502	52022.4625
991.59999	52347.7625
995.33237	52783.7625
999.06217	53507.6625
1002.78939	54461.6625
1006.51404	55371.9625
1010.23611	56188.6625
1013.95561	56747.2625
1017.67255	56868.8625
1021.38692	56401.0625
1025.09872	55660.7625
1028.80796	55105.6625
1032.51465	55091.7625
1036.21877	55289.6625
1039.92035	55445.8625
1043.61937	55460.8625
1047.31584	55223.5625
1051.00976	55017.1625
1054.70114	54982.9625
1058.38998	55189.1625
1062.07627	55528.1625
1065.76003	56040.5625
1069.44126	56683.5625
1073.11995	57397.1625
1076.79611	58040.4625
1080.46974	58383.8625
1084.14085	58765.1625
1087.80943	59151.1625
1091.47549	59505.1625
1095.13903	59543.9625
1098.80005	58970.3625
1102.45857	58148.8625
1106.11456	57492.6625
1109.76805	57079.3625
1113.41903	57165.0625
1117.06751	57366.3625
1120.71348	57735.6625
1124.35696	58046.7625
1127.99793	58415.1625
1131.63641	58523.8625
1135.2724	58463.4625
1138.90589	58385.5625
1142.5369	58486.0625
1146.16542	58708.8625
1149.79145	59142.8625
1153.415	59558.5625
1157.03607	60182.9625
1160.65467	61207.3625
1164.27079	63030.6625
1167.88443	65345.3625
1171.49561	68024.7625
1175.10432	71294.7625
1178.71056	75412.8625
1182.31434	79220.8625
1185.91565	80928.1625
1189.51451	80450.0625
1193.11091	78819.9625
1196.70485	76818.4625
1200.29634	74901.1625
1203.88538	73473.3625
1207.47197	72796.6625
1211.05612	72104.2625
1214.63782	71190.5625
1218.21708	69926.3625
1221.79391	68763.5625
1225.36829	68039.1625
1228.94024	67465.7625
1232.50976	66512.2625
1236.07685	65559.3625
1239.6415	64946.3625
1243.20374	64920.8625
1246.76355	65267.7625
1250.32093	65975.0625
1253.8759	66964.5625
1257.42845	68316.0625
1260.97859	69772.8625
1264.52631	71240.1625
1268.07163	72916.2625
1271.61453	74334.7625
1275.15503	75749.7625
1278.69312	77292.7625
1282.22882	78968.9625
1285.76211	80987.8625
1289.29301	83462.7625
1292.82151	86479.3625
1296.34761	90088.8625
1299.87133	94272.9625
1303.39266	98883.0625
1306.9116	103084.3625
1310.42815	106707.6625
1313.94233	108494.2625
1317.45412	108200.2625
1320.96354	106617.7625
1324.47058	105096.1625
1327.97525	103707.0625
1331.47754	102532.0625
1334.97747	101449.7625
1338.47502	100785.8625
1341.97022	100043.4625
1345.46305	99391.7625
1348.95352	98702.1625
1352.44163	98236.4625
1355.92738	99348.8625
1359.41078	101930.8625
1362.89183	104115.5625
1366.37053	102777.8625
1369.84688	96561.9625
1373.32088	88507.6625
1376.79254	82888.9625
1380.26186	80827.3625
1383.72883	80954.0625
1387.19347	81296.2625
1390.65578	80965.8625
1394.11575	80755.9625
1397.57339	81146.6625
1401.0287	82106.5625
1404.48168	82693.2625
1407.93234	82523.1625
1411.38068	81341.7625
1414.82669	79419.8625
1418.27039	76976.8625
1421.71177	74591.0625
1425.15083	72614.8625
1428.58758	71706.6625
1432.02203	72227.4625
1435.45416	73784.3625
1438.88399	75637.2625
1442.31151	77057.3625
1445.73673	77785.4625
1449.15965	78185.9625
1452.58027	78238.4625
1455.9986	78072.5625
1459.41463	78411.0625
1462.82837	79293.8625
1466.23982	80426.4625
1469.64898	81640.7625
1473.05586	82374.5625
1476.46045	82661.0625
1479.86276	82234.8625
1483.26279	81575.9625
1486.66054	81088.5625
1490.05602	81333.0625
1493.44922	81873.6625
1496.84016	82484.8625
1500.22882	83451.5625
1503.61521	85109.7625
1506.99934	87056.3625
1510.38121	88333.3625
1513.76081	88262.4625
1517.13816	86568.5625
1520.51324	84644.0625
1523.88607	83398.3625
1527.25665	83348.1625
1530.62498	83849.7625
1533.99105	83929.8625
1537.35488	83407.2625
1540.71647	82107.5625
1544.07581	80428.6625
1547.4329	78706.8625
1550.78776	77091.2625
1554.14038	75920.5625
1557.49077	75260.7625
1560.83892	74791.0625
1564.18484	74564.7625
1567.52853	74782.3625
1570.86999	75315.3625
1574.20922	76215.5625
1577.54624	76964.4625
1580.88103	77063.1625
1584.2136	77618.7625
1587.54395	79490.4625
1590.87208	82983.5625
1594.19801	87296.2625
1597.52172	91304.1625
1600.84321	92464.1625
1604.16251	89210.7625
1607.47959	83720.0625
1610.79447	77894.5625
1614.10715	72640.3625
1617.41763	68291.4625
1620.7259	65356.3625
1624.03199	63807.9625
1627.33587	63718.4625
1630.63757	65005.1625
1633.93707	68255.6625
1637.23439	73722.5625
1640.52951	81932.1625
1643.82246	91463.6625
1647.11321	98644.0625
1650.40179	99209.4625
1653.68819	92503.7625
1656.97241	81875.3625
1660.25446	72043.3625
1663.53433	64860.0625
1666.81203	60277.2625
1670.08756	57465.4625
1673.36092	55644.0625
1676.63211	54380.8625
1679.90115	53576.2625
1683.16801	52925.8625
1686.43272	52391.3625
1689.69527	52022.1625
1692.95567	51741.2625
1696.2139	51636.2625
1699.46999	51492.8625
1702.72392	51404.0625
1705.97571	51295.1625
1709.22535	51188.3625
1712.47284	51142.0625
1715.71819	51152.7625
1718.96139	51009.1625
1722.20246	50845.8625
1725.44139	50718.7625
1728.67818	50484.2625
1731.91284	50261.1625
1735.14537	50011.4625
1738.37576	49865.7625
1741.60403	49780.0625
1744.83017	49517.7625
1748.05418	49444.7625
1751.27607	49345.2625
1754.49584	49286.0625
1757.71349	49317.7625
1760.92903	49307.9625
1764.14244	49203.9625
1767.35375	49163.1625
1770.56294	49115.9625
1773.77002	49113.5625
1776.97499	49072.4625
1780.17785	48912.0625
1783.37861	48866.1625
1786.57727	48820.2625
1789.77382	48686.6625
1792.96828	48713.6625
1796.16064	48635.4625
1799.3509	48544.5625
1802.53907	48449.7625
1805.72514	48241.6625
1808.90913	48181.5625
1812.09102	48131.7625
1815.27083	48043.2625
1818.44856	47958.8625
1821.6242	47944.4625
1824.79776	47906.0625
1827.96924	47841.7625
1831.13864	47801.2625
1834.30597	47801.7625
1837.47122	47790.5625
1840.6344	47691.6625
1843.7955	47729.7625
1846.95454	47730.3625
1850.11151	47704.3625
1853.26642	47686.7625
1856.41926	47564.1625
1859.57004	47567.5625
1862.71876	47508.9625
1865.86542	47419.5625
1869.01003	47352.6625
1872.15258	47310.9625
1875.29308	47261.1625
1878.43152	47182.1625
1881.56792	47216.9625
1884.70227	47201.4625
1887.83457	47228.1625
1890.96482	47153.8625
1894.09304	47097.1625
1897.21921	47080.0625
1900.34335	46975.3625
1903.46544	46871.9625
1906.58551	46860.3625
1909.70353	46845.7625
1912.81953	46795.1625
1915.93349	46674.1625
1919.04543	46569.7625
1922.15534	46563.1625
1925.26322	46515.3625
1928.36908	46427.0625
1931.47292	46348.8625
1934.57473	46209.6625
1937.67453	46108.3625
1940.77232	46015.1625
1943.86808	45890.0625
1946.96184	45816.8625
1950.05358	45685.0625
1953.14331	45557.1625
1956.23103	45470.6625
1959.31675	45328.9625
1962.40046	45208.7625
1965.48217	45079.8625
1968.56188	44866.2625
1971.63959	44806.4625
1974.7153	44677.3625
1977.78901	44522.0625
1980.86073	44362.0625
1983.93046	44290.9625
1986.99819	44163.2625
1990.06394	44114.6625
1993.1277	44038.4625
1996.18947	43855.5625
1999.24925	43750.1625
2002.30706	43638.3625
2005.36288	43492.4625
2008.41672	43365.1625
2011.46859	43214.0625
2014.51848	43117.4625
2017.56639	42998.4625
2020.61233	42877.6625
2023.6563	42785.0625
2026.6983	42633.1625
2029.73833	42597.6625
2032.7764	42507.0625
2035.8125	42504.6625
2038.84664	42403.4625
2041.87881	42364.7625
2044.90903	42248.0625
2047.93729	42214.4625
2050.96359	42184.1625
2053.98794	42096.9625
2057.01034	42069.0625
2060.03078	42063.0625
2063.04927	42019.8625
2066.06582	42026.7625
2069.08042	41977.3625
2072.09307	41919.2625
2075.10378	41874.0625
2078.11255	41835.0625
2081.11938	41859.7625
2084.12426	41865.1625
2087.12722	41822.3625
2090.12824	41772.0625
2093.12732	41814.9625
2096.12447	41827.5625
2099.11969	41790.7625
2102.11299	41741.4625
2105.10435	41811.3625
2108.09379	41799.4625
2111.08131	41847.6625
2114.0669	41801.9625
2117.05057	41906.2625
2120.03233	41922.4625
2123.01216	42003.0625
2125.99008	42053.5625
2128.96609	42169.1625
2131.94018	42139.7625
2134.91236	42175.2625
2137.88263	42153.6625
2140.851	42115.7625
2143.81746	42194.0625
2146.78201	42238.8625
2149.74466	42187.3625
2152.7054	42229.7625
2155.66425	42174.7625
2158.6212	42278.1625
2161.57625	42177.2625
2164.52941	42136.5625
2167.48067	42205.5625
2170.43004	42142.7625
2173.37752	42126.0625
2176.32311	42170.3625
2179.26681	42135.1625
2182.20863	42135.1625
2185.14856	42219.8625
2188.08661	42226.5625
2191.02278	42130.8625
2193.95707	42043.0625
2196.88948	42061.1625
2199.82001	42079.4625
2202.74867	41957.1625
2205.67545	41929.4625
2208.60037	41883.7625
2211.52341	41844.2625
2214.44458	41849.2625
2217.36388	41774.4625
2220.28132	41687.3625
2223.1969	41553.1625
2226.11061	41459.8625
2229.02246	41380.5625
2231.93245	41340.3625
2234.84058	41286.5625
2237.74686	41225.9625
2240.65128	41203.6625
2243.55385	41161.2625
2246.45456	41169.6625
2249.35343	41067.7625
2252.25044	41026.9625
2255.14561	40988.7625
2258.03893	40902.0625
2260.93041	40776.3625
2263.82004	40723.8625
2266.70783	40618.6625
2269.59378	40455.2625
2272.4779	40426.9625
2275.36017	40359.2625
2278.24061	40330.1625
2281.11922	40222.5625
2283.996	40107.4625
2286.87094	40122.5625
2289.74405	40156.7625
2292.61534	40041.1625
2295.4848	39980.9625
2298.35243	40001.7625
2301.21824	39965.6625
2304.08223	39901.5625
2306.94439	39924.4625
2309.80474	39935.6625
2312.66327	39924.6625
2315.51999	39894.3625
2318.37489	39808.8625
2321.22797	39804.4625
2324.07925	39718.0625
2326.92871	39688.2625
2329.77637	39631.2625
2332.62222	39544.2625
2335.46626	39562.3625
2338.3085	39498.7625
2341.14893	39421.2625
2343.98756	39422.2625
2346.8244	39433.9625
2349.65943	39441.1625
2352.49267	39389.4625
2355.32411	39356.5625
2358.15376	39312.1625
2360.98161	39315.3625
2363.80768	39277.0625
2366.63195	39301.5625
2369.45444	39235.3625
2372.27514	39144.9625
2375.09405	39153.9625
2377.91118	39075.5625
2380.72652	38946.0625
2383.54009	38901.6625
2386.35187	38886.7625
2389.16188	38722.5625
2391.97011	38620.2625
2394.77657	38578.8625
2397.58125	38515.0625
2400.38416	38481.5625
2403.18529	38435.6625
2405.98466	38413.1625
2408.78226	38374.4625
2411.57809	38276.7625
2414.37216	38241.0625
2417.16446	38262.0625
2419.955	38167.5625
2422.74378	38122.4625
2425.5308	38110.2625
2428.31606	38155.5625
2431.09956	38131.4625
2433.88131	38026.1625
2436.6613	38073.7625
2439.43954	38008.0625
2442.21603	37961.9625
2444.99077	37950.7625
2447.76377	37941.2625
2450.53501	37881.1625
2453.30451	37915.7625
2456.07226	37878.0625
2458.83827	37843.9625
2461.60254	37779.1625
2464.36507	37794.1625
2467.12586	37753.4625
2469.88492	37793.3625
2472.64224	37771.0625
2475.39782	37730.0625
2478.15167	37802.4625
2480.90379	37788.9625
2483.65417	37790.3625
2486.40283	37730.9625
2489.14976	37744.6625
2491.89497	37722.4625
2494.63845	37762.8625
2497.3802	37675.3625
2500.12024	37612.4625
2502.85855	37610.5625
2505.59514	37642.5625
2508.33002	37507.5625
2511.06318	37452.9625
2513.79462	37434.4625
2516.52435	37440.1625
2519.25237	37387.1625
2521.97867	37392.4625
2524.70327	37404.8625
2527.42616	37379.5625
2530.14734	37342.0625
2532.86681	37290.5625
2535.58458	37200.8625
2538.30065	37223.8625
2541.01501	37149.3625
2543.72768	37207.5625
2546.43864	37190.7625
2549.14791	37103.5625
2551.85548	37059.5625
2554.56136	36941.8625
2557.26554	36859.5625
2559.96803	36829.1625
2562.66883	36757.5625
2565.36794	36754.6625
2568.06536	36706.5625
2570.7611	36609.7625
2573.45514	36597.9625
2576.14751	36536.7625
2578.83819	36508.2625
2581.52719	36538.7625
2584.21451	36412.3625
2586.90015	36391.7625
2589.58411	36329.1625
2592.2664	36349.5625
2594.94701	36271.5625
2597.62594	36297.9625
2600.30321	36258.9625
2602.9788	36231.9625
2605.65273	36144.1625
2608.32498	36227.6625
2610.99557	36193.0625
2613.66449	36155.2625
2616.33175	36087.1625
2618.99734	36018.4625
2621.66128	35953.0625
2624.32355	35956.2625
2626.98416	35913.8625
2629.64311	35871.2625
2632.30041	35879.4625
2634.95605	35837.2625
2637.61004	35808.4625
2640.26238	35773.0625
2642.91306	35723.0625
2645.56209	35625.9625
2648.20948	35652.7625
2650.85521	35691.1625
2653.4993	35699.7625
2656.14175	35668.9625
2658.78255	35714.8625
2661.42171	35760.7625
2664.05923	35770.2625
2666.6951	35796.3625
2669.32934	35724.6625
2671.96194	35724.9625
2674.59291	35809.9625
2677.22224	35774.5625
2679.84993	35786.2625
2682.476	35717.3625
2685.10043	35723.4625
2687.72324	35659.1625
2690.34441	35680.0625
2692.96396	35616.3625
2695.58188	35681.5625
2698.19818	35632.0625
2700.81285	35592.5625
2703.4259	35565.2625
2706.03733	35670.7625
2708.64714	35634.0625
2711.25533	35654.7625
2713.86191	35689.7625
2716.46687	35707.4625
2719.07021	35693.6625
2721.67194	35761.1625
2724.27206	35710.5625
2726.87057	35753.6625
2729.46747	35756.6625
2732.06276	35723.3625
2734.65644	35735.2625
2737.24852	35777.3625
2739.83899	35681.9625
2742.42786	35750.3625
2745.01513	35691.8625
2747.60079	35645.5625
2750.18486	35604.7625
2752.76733	35593.5625
2755.3482	35491.9625
2757.92747	35494.4625
2760.50515	35439.6625
2763.08123	35408.8625
2765.65573	35463.4625
2768.22863	35434.1625
2770.79994	35406.7625
2773.36967	35363.5625
2775.9378	35406.3625
2778.50435	35381.4625
2781.06932	35341.3625
2783.6327	35316.8625
2786.1945	35197.8625
2788.75471	35231.1625
2791.31335	35141.8625
2793.87041	35091.5625
2796.42589	34997.7625
2798.97979	34962.4625
2801.53212	34890.2625
2804.08288	34836.7625
2806.63206	34736.2625
2809.17967	34712.1625
2811.72571	34595.5625
2814.27018	34461.4625
2816.81308	34346.8625
2819.35442	34299.2625
2821.89419	34304.2625
2824.43239	34246.8625
2826.96904	34212.4625
2829.50412	34227.4625
2832.03763	34079.6625
2834.56959	34029.7625
2837.1	34002.4625
2839.62884	33892.8625
2842.15613	33892.5625
2844.68186	33940.1625
2847.20604	33872.0625
2849.72867	33870.4625
2852.24974	33813.9625
2854.76927	33744.4625
2857.28724	33744.3625
2859.80367	33723.1625
2862.31855	33710.0625
2864.83189	33614.8625
2867.34368	33536.9625
2869.85393	33544.1625
2872.36264	33553.3625
2874.8698	33509.2625
2877.37543	33474.3625
2879.87952	33385.6625
2882.38207	33412.2625
2884.88308	33379.7625
2887.38256	33393.5625
2889.88051	33381.1625
2892.37692	33443.1625
2894.8718	33418.9625
2897.36515	33447.3625
2899.85698	33434.7625
2902.34727	33523.8625
2904.83604	33495.6625
2907.32328	33570.1625
2909.809	33569.4625
2912.29319	33548.2625
2914.77587	33521.9625
2917.25702	33567.4625
2919.73665	33516.7625
2922.21476	33525.5625
2924.69136	33440.9625
2927.16644	33437.8625
2929.64	33431.8625
2932.11205	33355.0625
2934.58258	33311.6625
2937.05161	33328.1625
2939.51912	33343.1625
2941.98513	33306.7625
2944.44962	33255.1625
2946.91261	33197.1625
2949.37409	33259.3625
2951.83407	33208.1625
2954.29254	33199.0625
2956.74951	33185.2625
2959.20498	33158.9625
2961.65895	33153.9625
2964.11142	33198.8625
2966.56239	33155.3625
2969.01186	33097.0625
2971.45984	32975.0625
2973.90632	32990.5625
2976.35131	32903.6625
2978.7948	32875.2625
2981.23681	32805.9625
2983.67732	32758.0625
2986.11635	32715.9625
2988.55388	32641.0625
2990.98993	32542.4625
2993.4245	32495.3625
2995.85758	32426.2625
2998.28917	32328.0625
3000.71928	32257.2625
3003.14791	32209.3625
3005.57506	32228.0625
3008.00073	32102.2625
3010.42493	32078.7625
3012.84764	31945.8625
3015.26888	31963.3625
3017.68865	31893.1625
3020.10694	31848.0625
3022.52376	31755.2625
3024.9391	31759.2625
3027.35298	31722.0625
3029.76539	31729.5625
3032.17632	31653.9625
3034.5858	31631.2625
3036.9938	31591.9625
3039.40034	31558.5625
3041.80542	31507.0625
3044.20903	31454.5625
3046.61118	31403.3625
3049.01187	31268.4625
3051.4111	31240.2625
3053.80888	31168.9625
3056.20519	31143.9625
3058.60005	31026.2625
3060.99345	31042.3625
3063.3854	30920.3625
3065.7759	30827.2625
3068.16494	30736.8625
3070.55254	30658.2625
3072.93868	30536.8625
3075.32338	30424.0625
3077.70662	30423.9625
3080.08842	30257.5625
3082.46878	30279.6625
3084.84769	30240.0625
3087.22515	30243.2625
3089.60118	30206.0625
3091.97576	30171.1625
3094.3489	30096.9625
3096.72061	30124.5625
3099.09087	30178.4625
3101.4597	30095.5625
3103.82709	30082.7625
3106.19305	30052.9625
3108.55757	30047.8625
3110.92066	29964.8625
3113.28232	29933.7625
3115.64255	29858.6625
3118.00134	29781.9625
3120.35871	29657.1625
3122.71466	29620.0625
3125.06917	29541.2625
3127.42226	29467.2625
3129.77393	29494.1625
3132.12417	29392.5625
3134.47299	29364.1625
3136.82039	29366.6625
3139.16636	29349.9625
3141.51092	29302.5625
3143.85406	29280.9625
3146.19579	29281.8625
3148.53609	29266.6625
3150.87499	29304.2625
3153.21246	29314.5625
3155.54853	29326.9625
3157.88318	29333.7625
3160.21642	29308.3625
3162.54826	29264.9625
3164.87868	29221.5625
3167.2077	29129.2625
3169.5353	29148.8625
3171.86151	29098.2625
3174.18631	29128.7625
3176.5097	29106.5625
3178.83169	29049.1625
3181.15228	29028.2625
3183.47147	28961.9625
3185.78926	28917.5625
3188.10565	28884.1625
3190.42065	28851.1625
3192.73424	28773.9625
3195.04645	28704.7625
3197.35725	28746.0625
3199.66667	28641.3625
3201.97469	28662.1625
3204.28132	28564.1625
3206.58656	28606.1625
3208.8904	28601.2625
3211.19287	28594.3625
3213.49394	28562.3625
3215.79363	28637.3625
3218.09193	28626.6625
3220.38884	28615.1625
3222.68438	28643.5625
3224.97853	28543.3625
3227.2713	28486.7625
3229.56269	28528.8625
3231.8527	28522.5625
3234.14133	28476.1625
3236.42858	28413.5625
3238.71446	28338.7625
3240.99896	28259.5625
3243.28209	28342.3625
3245.56384	28211.6625
3247.84423	28187.6625
3250.12324	28102.6625
3252.40088	28141.0625
3254.67715	28092.1625
3256.95205	28046.9625
3259.22558	27992.0625
3261.49775	27952.4625
3263.76855	27916.7625
3266.03799	27882.4625
3268.30606	27826.8625
3270.57277	27742.5625
3272.83812	27679.4625
3275.10211	27640.6625
3277.36474	27604.9625
3279.62601	27577.4625
3281.88593	27562.8625
3284.14448	27581.4625
3286.40168	27583.1625
3288.65753	27545.4625
3290.91202	27522.0625
3293.16516	27416.4625
3295.41695	27413.7625
3297.66738	27200.6625
3299.91647	27097.1625
3302.16421	26905.9625
3304.4106	26793.9625
3306.65564	26598.5625
3308.89933	26410.1625
3311.14169	26249.7625
3313.38269	26077.6625
3315.62236	25908.2625
3317.86068	25689.7625
3320.09766	25429.7625
3322.3333	25269.6625
3324.5676	25199.0625
3326.80056	24768.7625
3329.03219	24636.5625
3331.26248	5.8625
3333.49143	0.0625
3335.71905	-0.9375
