Data from AgNPs_FTO_APTES_UA_20uM_CRN_0uM_R6G_10uM_NaF_0.1M_Addition_RamanShift__49__11-46-51-992.txt Node

Date: Thu Feb 17 11:46:51 GMT 2022
User: TCL
Spectrometer: QEP01345
Trigger mode: 4
Integration Time (sec): 7.000000E0
Scans to average: 10
Electric dark correction enabled: true
Nonlinearity correction enabled: false
Boxcar width: 0
XAxis mode: Raman Shifts
Number of Pixels in Spectrum: 1044
>>>>>Begin Spectral Data<<<<<
46.04893	-0.0375
50.45542	-1.1375
54.85868	-2.1375
59.25871	-0.9375
63.6555	105.6625
68.04907	102.9625
72.43941	110.7625
76.82654	110.4625
81.21044	116.6625
85.59113	122.8625
89.96862	123.5625
94.34289	127.3625
98.71396	130.8625
103.08183	136.1625
107.4465	137.5625
111.80798	141.2625
116.16626	149.3625
120.52136	154.0625
124.87327	161.2625
129.222	169.2625
133.56755	184.9625
137.90993	193.0625
142.24913	214.5625
146.58517	245.2625
150.91804	290.6625
155.24774	345.1625
159.57429	432.2625
163.89768	558.3625
168.21792	753.7625
172.53501	1033.9625
176.84895	1446.8625
181.15975	2031.1625
185.46741	2876.9625
189.77193	3966.7625
194.07331	5308.6625
198.37157	6852.3625
202.6667	8470.7625
206.9587	10070.8625
211.24758	11687.4625
215.53334	13307.0625
219.81599	15010.0625
224.09553	16933.5625
228.37195	19034.5625
232.64527	21387.4625
236.91549	23822.6625
241.18261	26270.4625
245.44663	28467.8625
249.70755	30458.0625
253.96539	32210.8625
258.22014	33713.3625
262.4718	35010.2625
266.72039	35850.8625
270.96589	36399.5625
275.20832	36377.8625
279.44768	36115.4625
283.68397	35794.3625
287.91719	35517.0625
292.14735	35343.3625
296.37445	35402.8625
300.59849	35581.9625
304.81948	35902.5625
309.03742	36101.5625
313.25231	35956.0625
317.46415	35264.1625
321.67296	34217.4625
325.87872	33381.4625
330.08145	32991.1625
334.28114	33010.2625
338.47781	33372.5625
342.67145	33859.8625
346.86207	34542.0625
351.04966	35464.2625
355.23424	36419.0625
359.4158	37270.6625
363.59435	37814.6625
367.76989	38165.4625
371.94243	38387.7625
376.11196	38583.6625
380.27849	38713.6625
384.44203	38905.3625
388.60257	38950.6625
392.76012	39251.6625
396.91468	39646.8625
401.06626	40268.2625
405.21485	40835.0625
409.36047	40828.0625
413.50311	40213.4625
417.64277	39760.4625
421.77947	39666.2625
425.9132	39855.4625
430.04396	40207.6625
434.17176	40406.2625
438.2966	40842.4625
442.41849	41592.1625
446.53742	42783.0625
450.6534	44078.6625
454.76644	45022.8625
458.87653	45367.2625
462.98368	45043.5625
467.08789	44280.8625
471.18916	43338.4625
475.2875	42530.0625
479.38291	41936.4625
483.4754	41565.0625
487.56496	41188.8625
491.6516	40784.4625
495.73531	40487.0625
499.81612	40403.0625
503.89401	40662.0625
507.96899	40791.1625
512.04106	40785.1625
516.11023	40637.9625
520.1765	40524.1625
524.23987	40354.9625
528.30034	40151.5625
532.35792	39744.3625
536.41261	39291.4625
540.46441	38903.6625
544.51333	38776.6625
548.55936	39078.6625
552.60252	39804.9625
556.64279	40739.7625
560.6802	41344.6625
564.71473	41664.5625
568.7464	42481.7625
572.7752	43496.6625
576.80114	43979.0625
580.82422	44341.1625
584.84444	44844.5625
588.86181	45571.0625
592.87633	46370.7625
596.888	46613.5625
600.89682	46225.6625
604.9028	47664.5625
608.90594	52661.6625
612.90624	58160.9625
616.90371	55323.9625
620.89834	46257.8625
624.89015	42247.0625
628.87913	41664.2625
632.86528	41485.0625
636.84862	41150.2625
640.82913	40452.4625
644.80683	39406.8625
648.78172	38730.7625
652.75379	38665.9625
656.72306	39335.9625
660.68952	40275.4625
664.65319	40272.8625
668.61405	39587.5625
672.57211	39296.9625
676.52738	39358.0625
680.47986	39310.9625
684.42955	39150.0625
688.37646	39193.1625
692.32058	39425.4625
696.26192	39903.0625
700.20048	40367.1625
704.13626	40640.2625
708.06928	40397.1625
711.99952	40136.3625
715.927	39982.2625
719.85171	40194.6625
723.77365	40111.8625
727.69284	39715.5625
731.60928	39400.0625
735.52295	39284.3625
739.43388	39353.1625
743.34206	39566.5625
747.24749	39793.2625
751.15017	40197.1625
755.05012	40836.6625
758.94733	41941.5625
762.8418	44044.5625
766.73354	47345.2625
770.62254	50579.7625
774.50882	51453.0625
778.39237	49406.7625
782.27321	45957.3625
786.15132	42876.4625
790.02671	41049.7625
793.89938	40236.2625
797.76935	39908.9625
801.6366	39812.1625
805.50115	39759.2625
809.36299	39540.0625
813.22213	39258.9625
817.07857	39120.3625
820.93231	39030.4625
824.78336	39036.7625
828.63172	39007.8625
832.47738	39131.3625
836.32036	39267.2625
840.16066	39482.8625
843.99827	39647.0625
847.8332	39544.3625
851.66546	39433.2625
855.49504	39335.0625
859.32195	39279.0625
863.1462	39149.8625
866.96777	39022.6625
870.78668	38937.4625
874.60293	38971.5625
878.41652	39071.9625
882.22745	39197.7625
886.03573	39356.7625
889.84136	39321.7625
893.64433	39131.8625
897.44466	38971.0625
901.24235	38831.5625
905.0374	38720.4625
908.8298	38601.7625
912.61957	38671.5625
916.40671	38982.6625
920.19121	39497.6625
923.97308	40012.6625
927.75233	40360.6625
931.52895	40253.5625
935.30295	39867.1625
939.07433	39172.7625
942.84309	38677.4625
946.60924	38557.3625
950.37278	38475.5625
954.13371	38241.0625
957.89203	37985.7625
961.64774	37776.2625
965.40086	37755.7625
969.15137	37652.9625
972.89929	37542.0625
976.64461	37505.9625
980.38733	37571.9625
984.12747	37746.4625
987.86502	38200.5625
991.59999	38808.8625
995.33237	39716.0625
999.06217	41140.4625
1002.78939	42705.3625
1006.51404	43768.4625
1010.23611	44261.6625
1013.95561	44528.6625
1017.67255	44565.4625
1021.38692	44022.3625
1025.09872	43685.2625
1028.80796	44184.5625
1032.51465	45751.9625
1036.21877	47166.5625
1039.92035	47287.2625
1043.61937	46489.6625
1047.31584	44996.0625
1051.00976	43353.3625
1054.70114	42413.3625
1058.38998	42031.5625
1062.07627	42061.8625
1065.76003	42232.2625
1069.44126	42449.7625
1073.11995	42842.0625
1076.79611	43286.2625
1080.46974	43652.9625
1084.14085	44224.3625
1087.80943	44801.8625
1091.47549	45020.7625
1095.13903	44658.3625
1098.80005	43939.0625
1102.45857	43204.8625
1106.11456	42805.7625
1109.76805	42851.4625
1113.41903	43192.2625
1117.06751	43607.6625
1120.71348	44157.1625
1124.35696	44659.9625
1127.99793	45098.3625
1131.63641	45069.6625
1135.2724	44514.3625
1138.90589	43977.5625
1142.5369	43658.1625
1146.16542	43507.7625
1149.79145	43475.4625
1153.415	43691.6625
1157.03607	44163.2625
1160.65467	44978.5625
1164.27079	46444.5625
1167.88443	48577.6625
1171.49561	51551.5625
1175.10432	55442.4625
1178.71056	60500.0625
1182.31434	65140.0625
1185.91565	67527.4625
1189.51451	67282.7625
1193.11091	64915.7625
1196.70485	61766.1625
1200.29634	58953.2625
1203.88538	56831.0625
1207.47197	55168.9625
1211.05612	53689.7625
1214.63782	52856.0625
1218.21708	52810.7625
1221.79391	53179.9625
1225.36829	53273.3625
1228.94024	52548.9625
1232.50976	51273.4625
1236.07685	50244.9625
1239.6415	49826.8625
1243.20374	49931.9625
1246.76355	50215.8625
1250.32093	51002.2625
1253.8759	52155.7625
1257.42845	53620.1625
1260.97859	55032.2625
1264.52631	56406.8625
1268.07163	57932.9625
1271.61453	59648.9625
1275.15503	61582.6625
1278.69312	63366.8625
1282.22882	64730.7625
1285.76211	65830.2625
1289.29301	67099.6625
1292.82151	68696.7625
1296.34761	71000.1625
1299.87133	74455.8625
1303.39266	79109.8625
1306.9116	84832.6625
1310.42815	90970.8625
1313.94233	94662.0625
1317.45412	94449.9625
1320.96354	91650.1625
1324.47058	88284.8625
1327.97525	85338.5625
1331.47754	83453.6625
1334.97747	82990.9625
1338.47502	83444.5625
1341.97022	83944.3625
1345.46305	83508.3625
1348.95352	82754.0625
1352.44163	82378.3625
1355.92738	84145.3625
1359.41078	88598.0625
1362.89183	92950.7625
1366.37053	90915.0625
1369.84688	82493.1625
1373.32088	73412.1625
1376.79254	67259.0625
1380.26186	64418.0625
1383.72883	63303.6625
1387.19347	62739.2625
1390.65578	62033.8625
1394.11575	61970.8625
1397.57339	62732.5625
1401.0287	64141.1625
1404.48168	65632.1625
1407.93234	66860.2625
1411.38068	67325.3625
1414.82669	66661.5625
1418.27039	64795.0625
1421.71177	62460.3625
1425.15083	60421.0625
1428.58758	59304.0625
1432.02203	59423.3625
1435.45416	60267.4625
1438.88399	61315.5625
1442.31151	62213.9625
1445.73673	62870.2625
1449.15965	63432.0625
1452.58027	63674.0625
1455.9986	63541.3625
1459.41463	63697.9625
1462.82837	64499.1625
1466.23982	65855.5625
1469.64898	67267.5625
1473.05586	68195.2625
1476.46045	68562.5625
1479.86276	68581.1625
1483.26279	68448.9625
1486.66054	68568.5625
1490.05602	69177.3625
1493.44922	69899.7625
1496.84016	70422.9625
1500.22882	71359.3625
1503.61521	73206.0625
1506.99934	75645.1625
1510.38121	78162.5625
1513.76081	78954.0625
1517.13816	76769.2625
1520.51324	72827.8625
1523.88607	69197.1625
1527.25665	67096.6625
1530.62498	66047.3625
1533.99105	65417.6625
1537.35488	65148.8625
1540.71647	64758.4625
1544.07581	64302.3625
1547.4329	63519.9625
1550.78776	62563.6625
1554.14038	61848.0625
1557.49077	61415.4625
1560.83892	61244.0625
1564.18484	61199.7625
1567.52853	61142.0625
1570.86999	61143.3625
1574.20922	61459.1625
1577.54624	61680.4625
1580.88103	61233.8625
1584.2136	61096.1625
1587.54395	62471.4625
1590.87208	65915.7625
1594.19801	71034.1625
1597.52172	76526.5625
1600.84321	79014.6625
1604.16251	76503.6625
1607.47959	70803.0625
1610.79447	64475.3625
1614.10715	58722.3625
1617.41763	54275.7625
1620.7259	51277.8625
1624.03199	49914.8625
1627.33587	49924.3625
1630.63757	51311.3625
1633.93707	54152.4625
1637.23439	58461.2625
1640.52951	64274.8625
1643.82246	70806.4625
1647.11321	75982.8625
1650.40179	76716.3625
1653.68819	71837.2625
1656.97241	63172.4625
1660.25446	54811.6625
1663.53433	48800.0625
1666.81203	45069.6625
1670.08756	42808.4625
1673.36092	41378.0625
1676.63211	40385.1625
1679.90115	39734.2625
1683.16801	39169.1625
1686.43272	38802.7625
1689.69527	38510.9625
1692.95567	38323.5625
1696.2139	38247.1625
1699.46999	38113.9625
1702.72392	38043.3625
1705.97571	37976.4625
1709.22535	37881.8625
1712.47284	37922.9625
1715.71819	37935.1625
1718.96139	37864.0625
1722.20246	37800.2625
1725.44139	37634.0625
1728.67818	37394.9625
1731.91284	37245.7625
1735.14537	37019.0625
1738.37576	36882.3625
1741.60403	36815.9625
1744.83017	36710.4625
1748.05418	36575.8625
1751.27607	36558.9625
1754.49584	36514.2625
1757.71349	36511.3625
1760.92903	36523.5625
1764.14244	36477.9625
1767.35375	36422.1625
1770.56294	36412.9625
1773.77002	36376.7625
1776.97499	36350.3625
1780.17785	36272.3625
1783.37861	36291.4625
1786.57727	36192.0625
1789.77382	36145.3625
1792.96828	36183.6625
1796.16064	36128.3625
1799.3509	36115.5625
1802.53907	36010.0625
1805.72514	35972.1625
1808.90913	35896.6625
1812.09102	35824.0625
1815.27083	35797.8625
1818.44856	35741.2625
1821.6242	35671.9625
1824.79776	35605.7625
1827.96924	35612.0625
1831.13864	35668.2625
1834.30597	35623.8625
1837.47122	35629.9625
1840.6344	35555.5625
1843.7955	35566.3625
1846.95454	35605.3625
1850.11151	35621.5625
1853.26642	35615.6625
1856.41926	35643.5625
1859.57004	35635.5625
1862.71876	35595.2625
1865.86542	35578.0625
1869.01003	35570.3625
1872.15258	35533.7625
1875.29308	35534.7625
1878.43152	35514.0625
1881.56792	35554.9625
1884.70227	35552.9625
1887.83457	35535.6625
1890.96482	35548.0625
1894.09304	35505.8625
1897.21921	35477.0625
1900.34335	35401.6625
1903.46544	35406.6625
1906.58551	35450.4625
1909.70353	35439.5625
1912.81953	35405.5625
1915.93349	35347.6625
1919.04543	35298.6625
1922.15534	35239.8625
1925.26322	35208.9625
1928.36908	35154.0625
1931.47292	35049.0625
1934.57473	34929.8625
1937.67453	34854.6625
1940.77232	34802.8625
1943.86808	34689.2625
1946.96184	34565.7625
1950.05358	34453.5625
1953.14331	34345.2625
1956.23103	34267.7625
1959.31675	34168.5625
1962.40046	34101.5625
1965.48217	33961.6625
1968.56188	33925.0625
1971.63959	33863.8625
1974.7153	33728.4625
1977.78901	33668.2625
1980.86073	33525.5625
1983.93046	33446.1625
1986.99819	33372.6625
1990.06394	33276.1625
1993.1277	33239.0625
1996.18947	33084.8625
1999.24925	33060.2625
2002.30706	32961.9625
2005.36288	32843.6625
2008.41672	32758.9625
2011.46859	32653.3625
2014.51848	32613.6625
2017.56639	32559.9625
2020.61233	32464.8625
2023.6563	32358.2625
2026.6983	32319.2625
2029.73833	32265.4625
2032.7764	32243.6625
2035.8125	32169.6625
2038.84664	32142.8625
2041.87881	32133.9625
2044.90903	32056.5625
2047.93729	32019.2625
2050.96359	31987.8625
2053.98794	31946.4625
2057.01034	31971.2625
2060.03078	31967.1625
2063.04927	31958.2625
2066.06582	31980.7625
2069.08042	31937.0625
2072.09307	31861.7625
2075.10378	31790.9625
2078.11255	31732.3625
2081.11938	31748.3625
2084.12426	31716.0625
2087.12722	31673.9625
2090.12824	31679.2625
2093.12732	31711.6625
2096.12447	31662.2625
2099.11969	31668.3625
2102.11299	31664.1625
2105.10435	31723.3625
2108.09379	31771.8625
2111.08131	31754.9625
2114.0669	31768.0625
2117.05057	31757.7625
2120.03233	31727.7625
2123.01216	31760.6625
2125.99008	31837.4625
2128.96609	31875.0625
2131.94018	31915.2625
2134.91236	31985.2625
2137.88263	31991.0625
2140.851	32024.2625
2143.81746	32071.1625
2146.78201	32067.1625
2149.74466	32126.8625
2152.7054	32107.0625
2155.66425	32112.8625
2158.6212	32120.5625
2161.57625	32087.7625
2164.52941	32120.7625
2167.48067	32057.8625
2170.43004	32039.7625
2173.37752	32090.3625
2176.32311	32107.0625
2179.26681	32114.0625
2182.20863	32145.2625
2185.14856	32138.7625
2188.08661	32168.4625
2191.02278	32224.8625
2193.95707	32163.9625
2196.88948	32131.8625
2199.82001	32130.3625
2202.74867	32145.4625
2205.67545	32143.9625
2208.60037	32151.9625
2211.52341	32102.4625
2214.44458	32116.0625
2217.36388	32078.6625
2220.28132	32056.7625
2223.1969	32012.5625
2226.11061	31960.1625
2229.02246	31848.8625
2231.93245	31779.5625
2234.84058	31759.3625
2237.74686	31710.4625
2240.65128	31677.4625
2243.55385	31633.9625
2246.45456	31615.8625
2249.35343	31577.5625
2252.25044	31513.1625
2255.14561	31493.1625
2258.03893	31449.8625
2260.93041	31402.6625
2263.82004	31345.2625
2266.70783	31266.5625
2269.59378	31177.0625
2272.4779	31127.5625
2275.36017	31073.2625
2278.24061	31030.3625
2281.11922	30975.7625
2283.996	30953.3625
2286.87094	30942.2625
2289.74405	30870.0625
2292.61534	30914.4625
2295.4848	30874.5625
2298.35243	30965.9625
2301.21824	30914.4625
2304.08223	30952.9625
2306.94439	30956.6625
2309.80474	31014.6625
2312.66327	30996.9625
2315.51999	30975.0625
2318.37489	31015.8625
2321.22797	31011.5625
2324.07925	30990.8625
2326.92871	30937.2625
2329.77637	30939.3625
2332.62222	30902.2625
2335.46626	30922.6625
2338.3085	30928.1625
2341.14893	30977.7625
2343.98756	30963.1625
2346.8244	30995.0625
2349.65943	31014.8625
2352.49267	31019.7625
2355.32411	30995.6625
2358.15376	31012.1625
2360.98161	30987.0625
2363.80768	30917.3625
2366.63195	30894.4625
2369.45444	30834.0625
2372.27514	30775.4625
2375.09405	30713.2625
2377.91118	30622.4625
2380.72652	30515.5625
2383.54009	30421.0625
2386.35187	30402.0625
2389.16188	30276.6625
2391.97011	30298.0625
2394.77657	30259.5625
2397.58125	30272.7625
2400.38416	30221.0625
2403.18529	30120.9625
2405.98466	30063.8625
2408.78226	30021.3625
2411.57809	30000.7625
2414.37216	29906.7625
2417.16446	29892.4625
2419.955	29834.3625
2422.74378	29867.6625
2425.5308	29812.2625
2428.31606	29812.2625
2431.09956	29811.1625
2433.88131	29779.4625
2436.6613	29852.1625
2439.43954	29820.4625
2442.21603	29787.2625
2444.99077	29737.2625
2447.76377	29765.5625
2450.53501	29755.4625
2453.30451	29771.4625
2456.07226	29736.2625
2458.83827	29762.3625
2461.60254	29695.0625
2464.36507	29746.3625
2467.12586	29723.5625
2469.88492	29703.7625
2472.64224	29723.1625
2475.39782	29758.8625
2478.15167	29770.5625
2480.90379	29806.1625
2483.65417	29862.0625
2486.40283	29898.9625
2489.14976	29960.2625
2491.89497	29906.4625
2494.63845	29936.8625
2497.3802	29894.4625
2500.12024	29942.6625
2502.85855	29912.1625
2505.59514	29849.2625
2508.33002	29828.6625
2511.06318	29790.9625
2513.79462	29764.6625
2516.52435	29727.2625
2519.25237	29725.1625
2521.97867	29692.7625
2524.70327	29675.0625
2527.42616	29629.2625
2530.14734	29637.2625
2532.86681	29589.0625
2535.58458	29632.4625
2538.30065	29625.3625
2541.01501	29635.1625
2543.72768	29637.9625
2546.43864	29599.4625
2549.14791	29563.6625
2551.85548	29566.1625
2554.56136	29476.6625
2557.26554	29453.0625
2559.96803	29387.6625
2562.66883	29413.0625
2565.36794	29392.1625
2568.06536	29386.0625
2570.7611	29368.9625
2573.45514	29334.2625
2576.14751	29302.9625
2578.83819	29311.3625
2581.52719	29327.2625
2584.21451	29276.3625
2586.90015	29321.3625
2589.58411	29273.6625
2592.2664	29282.5625
2594.94701	29259.5625
2597.62594	29342.7625
2600.30321	29291.8625
2602.9788	29312.3625
2605.65273	29257.8625
2608.32498	29280.4625
2610.99557	29257.7625
2613.66449	29302.1625
2616.33175	29314.3625
2618.99734	29287.0625
2621.66128	29272.8625
2624.32355	29274.6625
2626.98416	29268.0625
2629.64311	29335.7625
2632.30041	29314.4625
2634.95605	29269.7625
2637.61004	29265.9625
2640.26238	29229.0625
2642.91306	29185.7625
2645.56209	29108.0625
2648.20948	29115.7625
2650.85521	29066.4625
2653.4993	29104.0625
2656.14175	29090.7625
2658.78255	29101.3625
2661.42171	29152.9625
2664.05923	29208.1625
2666.6951	29207.2625
2669.32934	29216.8625
2671.96194	29228.8625
2674.59291	29233.9625
2677.22224	29233.5625
2679.84993	29248.2625
2682.476	29216.7625
2685.10043	29172.3625
2687.72324	29140.5625
2690.34441	29122.3625
2692.96396	29114.7625
2695.58188	29146.9625
2698.19818	29066.8625
2700.81285	29092.1625
2703.4259	29070.1625
2706.03733	29056.0625
2708.64714	29031.2625
2711.25533	29149.3625
2713.86191	29132.5625
2716.46687	29186.2625
2719.07021	29163.6625
2721.67194	29205.6625
2724.27206	29178.9625
2726.87057	29181.7625
2729.46747	29226.5625
2732.06276	29229.2625
2734.65644	29234.5625
2737.24852	29212.0625
2739.83899	29182.3625
2742.42786	29250.3625
2745.01513	29213.5625
2747.60079	29193.6625
2750.18486	29175.3625
2752.76733	29193.6625
2755.3482	29192.1625
2757.92747	29128.4625
2760.50515	29112.8625
2763.08123	29097.8625
2765.65573	29072.4625
2768.22863	29081.4625
2770.79994	29015.2625
2773.36967	29087.8625
2775.9378	29076.1625
2778.50435	29105.1625
2781.06932	29102.6625
2783.6327	29103.3625
2786.1945	29087.7625
2788.75471	29003.1625
2791.31335	28983.9625
2793.87041	28934.5625
2796.42589	28876.3625
2798.97979	28860.2625
2801.53212	28824.5625
2804.08288	28754.5625
2806.63206	28725.8625
2809.17967	28681.8625
2811.72571	28601.9625
2814.27018	28553.3625
2816.81308	28505.9625
2819.35442	28468.8625
2821.89419	28491.6625
2824.43239	28508.0625
2826.96904	28458.3625
2829.50412	28473.9625
2832.03763	28395.4625
2834.56959	28408.7625
2837.1	28394.1625
2839.62884	28316.3625
2842.15613	28305.5625
2844.68186	28339.3625
2847.20604	28317.2625
2849.72867	28339.4625
2852.24974	28290.2625
2854.76927	28281.6625
2857.28724	28246.7625
2859.80367	28175.9625
2862.31855	28193.5625
2864.83189	28203.8625
2867.34368	28118.7625
2869.85393	28124.4625
2872.36264	28111.0625
2874.8698	28097.4625
2877.37543	28077.7625
2879.87952	28070.9625
2882.38207	28121.4625
2884.88308	28104.4625
2887.38256	28122.1625
2889.88051	28127.2625
2892.37692	28129.8625
2894.8718	28169.1625
2897.36515	28207.1625
2899.85698	28211.0625
2902.34727	28253.3625
2904.83604	28243.9625
2907.32328	28297.6625
2909.809	28315.3625
2912.29319	28369.8625
2914.77587	28332.0625
2917.25702	28331.2625
2919.73665	28276.1625
2922.21476	28310.0625
2924.69136	28257.9625
2927.16644	28207.7625
2929.64	28182.2625
2932.11205	28126.3625
2934.58258	28076.1625
2937.05161	28151.4625
2939.51912	28161.0625
2941.98513	28068.0625
2944.44962	28016.0625
2946.91261	27928.4625
2949.37409	28038.8625
2951.83407	28021.8625
2954.29254	28012.1625
2956.74951	28011.4625
2959.20498	28033.5625
2961.65895	27955.5625
2964.11142	27922.7625
2966.56239	27935.4625
2969.01186	27877.7625
2971.45984	27798.2625
2973.90632	27742.5625
2976.35131	27674.1625
2978.7948	27666.7625
2981.23681	27636.1625
2983.67732	27553.5625
2986.11635	27477.5625
2988.55388	27398.2625
2990.98993	27400.0625
2993.4245	27367.7625
2995.85758	27286.5625
2998.28917	27204.2625
3000.71928	27134.3625
3003.14791	27097.9625
3005.57506	27082.0625
3008.00073	27020.0625
3010.42493	27041.2625
3012.84764	26948.0625
3015.26888	26998.6625
3017.68865	26882.4625
3020.10694	26841.5625
3022.52376	26810.2625
3024.9391	26748.1625
3027.35298	26716.0625
3029.76539	26681.6625
3032.17632	26695.2625
3034.5858	26642.5625
3036.9938	26654.9625
3039.40034	26598.4625
3041.80542	26614.0625
3044.20903	26583.9625
3046.61118	26589.3625
3049.01187	26512.9625
3051.4111	26485.1625
3053.80888	26411.2625
3056.20519	26351.8625
3058.60005	26287.7625
3060.99345	26266.6625
3063.3854	26165.3625
3065.7759	26086.2625
3068.16494	26013.1625
3070.55254	25930.3625
3072.93868	25872.2625
3075.32338	25810.8625
3077.70662	25758.8625
3080.08842	25686.1625
3082.46878	25646.2625
3084.84769	25563.3625
3087.22515	25620.1625
3089.60118	25562.5625
3091.97576	25579.2625
3094.3489	25567.0625
3096.72061	25557.2625
3099.09087	25586.0625
3101.4597	25561.2625
3103.82709	25559.2625
3106.19305	25534.4625
3108.55757	25482.3625
3110.92066	25492.7625
3113.28232	25480.6625
3115.64255	25393.2625
3118.00134	25326.1625
3120.35871	25270.0625
3122.71466	25174.3625
3125.06917	25135.9625
3127.42226	25055.5625
3129.77393	25106.1625
3132.12417	25064.8625
3134.47299	25037.2625
3136.82039	24999.2625
3139.16636	24977.4625
3141.51092	24968.5625
3143.85406	24984.5625
3146.19579	24952.8625
3148.53609	24968.2625
3150.87499	25022.2625
3153.21246	24957.4625
3155.54853	24972.2625
3157.88318	24950.2625
3160.21642	24993.1625
3162.54826	24981.1625
3164.87868	24931.0625
3167.2077	24911.2625
3169.5353	24933.5625
3171.86151	24930.8625
3174.18631	24909.5625
3176.5097	24905.5625
3178.83169	24872.4625
3181.15228	24844.5625
3183.47147	24796.4625
3185.78926	24747.5625
3188.10565	24752.5625
3190.42065	24720.8625
3192.73424	24720.0625
3195.04645	24674.6625
3197.35725	24637.7625
3199.66667	24698.2625
3201.97469	24689.7625
3204.28132	24681.5625
3206.58656	24670.6625
3208.8904	24666.7625
3211.19287	24666.7625
3213.49394	24665.2625
3215.79363	24682.6625
3218.09193	24704.8625
3220.38884	24745.7625
3222.68438	24744.2625
3224.97853	24676.1625
3227.2713	24644.7625
3229.56269	24661.9625
3231.8527	24639.5625
3234.14133	24577.3625
3236.42858	24572.8625
3238.71446	24515.4625
3240.99896	24473.8625
3243.28209	24498.1625
3245.56384	24474.8625
3247.84423	24406.7625
3250.12324	24396.6625
3252.40088	24375.8625
3254.67715	24393.8625
3256.95205	24358.0625
3259.22558	24369.7625
3261.49775	24308.4625
3263.76855	24310.2625
3266.03799	24252.1625
3268.30606	24206.1625
3270.57277	24219.0625
3272.83812	24171.2625
3275.10211	24154.6625
3277.36474	24088.2625
3279.62601	24046.7625
3281.88593	24012.4625
3284.14448	24043.3625
3286.40168	24036.2625
3288.65753	23981.2625
3290.91202	24012.3625
3293.16516	23952.4625
3295.41695	23944.4625
3297.66738	23822.3625
3299.91647	23714.3625
3302.16421	23541.2625
3304.4106	23456.8625
3306.65564	23341.5625
3308.89933	23172.0625
3311.14169	23019.1625
3313.38269	22841.8625
3315.62236	22683.8625
3317.86068	22512.4625
3320.09766	22321.0625
3322.3333	22180.1625
3324.5676	22091.5625
3326.80056	21759.5625
3329.03219	21645.3625
3331.26248	5.4625
3333.49143	0.3625
3335.71905	-1.2375
