Data from AgNPs_FTO_APTES_UA_20uM_CRN_100uM_R6G_10uM_NaF_0.1M_Addition_RamanShift__3__17-22-04-865.txt Node

Date: Thu Feb 17 17:22:04 GMT 2022
User: TCL
Spectrometer: QEP01345
Trigger mode: 4
Integration Time (sec): 1.000000E1
Scans to average: 7
Electric dark correction enabled: true
Nonlinearity correction enabled: false
Boxcar width: 0
XAxis mode: Raman Shifts
Number of Pixels in Spectrum: 1044
>>>>>Begin Spectral Data<<<<<
46.04893	-1.39286
50.45542	-1.39286
54.85868	-0.53571
59.25871	-1.67857
63.6555	83.60714
68.04907	84.03571
72.43941	90.75
76.82654	94.03571
81.21044	98.32143
85.59113	98.75
89.96862	103.32143
94.34289	106.75
98.71396	112.32143
103.08183	114.03571
107.4465	119.17857
111.80798	115.32143
116.16626	119.03571
120.52136	125.75
124.87327	133.46429
129.222	138.46429
133.56755	143.32143
137.90993	155.60714
142.24913	165.46429
146.58517	179.75
150.91804	212.32143
155.24774	247.32143
159.57429	304.89286
163.89768	386.75
168.21792	511.89286
172.53501	695.17857
176.84895	968.17857
181.15975	1369.03571
185.46741	1928.46429
189.77193	2678.89286
194.07331	3617.46429
198.37157	4680.32143
202.6667	5791.32143
206.9587	6914.17857
211.24758	8032.32143
215.53334	9112.89286
219.81599	10226.32143
224.09553	11445.75
228.37195	12845.75
232.64527	14337.60714
236.91549	15953.75
241.18261	17558.89286
245.44663	19086.17857
249.70755	20543.32143
253.96539	21769.46429
258.22014	22785.03571
262.4718	23647.89286
266.72039	24275.75
270.96589	24559.17857
275.20832	24562.46429
279.44768	24321.75
283.68397	24048.89286
287.91719	23722.75
292.14735	23475.46429
296.37445	23425.32143
300.59849	23393.89286
304.81948	23499.46429
309.03742	23622.32143
313.25231	23608.60714
317.46415	23429.03571
321.67296	23147.32143
325.87872	22866.17857
330.08145	22784.46429
334.28114	22834.46429
338.47781	23041.03571
342.67145	23373.17857
346.86207	23734.32143
351.04966	24202.17857
355.23424	24654.17857
359.4158	25019.32143
363.59435	25327.46429
367.76989	25560.32143
371.94243	25732.17857
376.11196	25831.75
380.27849	25955.89286
384.44203	26108.75
388.60257	26292.17857
392.76012	26502.60714
396.91468	26717.46429
401.06626	27043.46429
405.21485	27233.46429
409.36047	27285.89286
413.50311	27008.46429
417.64277	26714.75
421.77947	26672.60714
425.9132	26698.46429
430.04396	26885.17857
434.17176	26995.03571
438.2966	27179.03571
442.41849	27537.60714
446.53742	28022.46429
450.6534	28452.60714
454.76644	28770.03571
458.87653	28903.46429
462.98368	28838.03571
467.08789	28735.46429
471.18916	28536.89286
475.2875	28223.03571
479.38291	27947.75
483.4754	27751.60714
487.56496	27532.46429
491.6516	27475.17857
495.73531	27455.60714
499.81612	27554.89286
503.89401	27663.89286
507.96899	27830.60714
512.04106	27899.89286
516.11023	27910.03571
520.1765	27992.46429
524.23987	28031.60714
528.30034	27997.60714
532.35792	28035.60714
536.41261	27914.17857
540.46441	27715.89286
544.51333	27642.75
548.55936	27730.17857
552.60252	27973.32143
556.64279	28289.75
560.6802	28508.17857
564.71473	28494.75
568.7464	28524.03571
572.7752	28641.46429
576.80114	28799.46429
580.82422	29032.75
584.84444	29436.60714
588.86181	30125.32143
592.87633	30830.32143
596.888	31230.17857
600.89682	31055.89286
604.9028	31313.46429
608.90594	33180.03571
612.90624	35599.75
616.90371	34564.89286
620.89834	30763.32143
624.89015	28929.17857
628.87913	28656.75
632.86528	28816.17857
636.84862	29022.46429
640.82913	28876.46429
644.80683	28509.03571
648.78172	28221.17857
652.75379	28246.75
656.72306	28565.60714
660.68952	28889.03571
664.65319	28887.75
668.61405	28532.46429
672.57211	28556.32143
676.52738	28692.89286
680.47986	28754.03571
684.42955	28665.75
688.37646	28599.03571
692.32058	28618.89286
696.26192	28780.46429
700.20048	29038.60714
704.13626	29184.17857
708.06928	29120.17857
711.99952	28989.32143
715.927	28983.32143
719.85171	29019.89286
723.77365	29005.75
727.69284	28887.89286
731.60928	28747.03571
735.52295	28701.46429
739.43388	28780.32143
743.34206	28828.17857
747.24749	28884.89286
751.15017	28941.75
755.05012	29068.46429
758.94733	29440.17857
762.8418	30268.17857
766.73354	31642.03571
770.62254	33099.03571
774.50882	33694.32143
778.39237	33113.32143
782.27321	31730.60714
786.15132	30408.75
790.02671	29518.03571
793.89938	29021.89286
797.76935	28886.60714
801.6366	28808.03571
805.50115	28772.46429
809.36299	28662.17857
813.22213	28594.32143
817.07857	28525.32143
820.93231	28554.60714
824.78336	28560.75
828.63172	28578.46429
832.47738	28640.03571
836.32036	28594.75
840.16066	28616.03571
843.99827	28698.32143
847.8332	28677.46429
851.66546	28695.17857
855.49504	28739.46429
859.32195	28730.32143
863.1462	28752.32143
866.96777	28825.32143
870.78668	28858.75
874.60293	28932.03571
878.41652	28967.32143
882.22745	29047.75
886.03573	29133.03571
889.84136	29074.32143
893.64433	29052.60714
897.44466	28957.75
901.24235	28915.89286
905.0374	28834.60714
908.8298	28760.75
912.61957	28669.46429
916.40671	28748.17857
920.19121	28828.46429
923.97308	28989.46429
927.75233	29057.17857
931.52895	29017.75
935.30295	28937.75
939.07433	28687.75
942.84309	28527.03571
946.60924	28472.60714
950.37278	28320.32143
954.13371	28293.60714
957.89203	28228.32143
961.64774	28186.32143
965.40086	28236.03571
969.15137	28208.03571
972.89929	28171.89286
976.64461	28197.75
980.38733	28229.46429
984.12747	28304.17857
987.86502	28390.03571
991.59999	28470.46429
995.33237	28650.17857
999.06217	28909.60714
1002.78939	29163.17857
1006.51404	29536.32143
1010.23611	29819.46429
1013.95561	29975.89286
1017.67255	30083.32143
1021.38692	29980.32143
1025.09872	29784.17857
1028.80796	29585.17857
1032.51465	29520.17857
1036.21877	29628.89286
1039.92035	29691.17857
1043.61937	29664.75
1047.31584	29650.03571
1051.00976	29620.89286
1054.70114	29640.32143
1058.38998	29655.89286
1062.07627	29783.03571
1065.76003	29931.75
1069.44126	30139.46429
1073.11995	30417.75
1076.79611	30678.46429
1080.46974	30870.75
1084.14085	31039.60714
1087.80943	31150.32143
1091.47549	31246.17857
1095.13903	31183.75
1098.80005	30923.60714
1102.45857	30701.17857
1106.11456	30484.75
1109.76805	30402.46429
1113.41903	30465.75
1117.06751	30527.75
1120.71348	30727.32143
1124.35696	31018.46429
1127.99793	31345.03571
1131.63641	31343.60714
1135.2724	31190.03571
1138.90589	30973.75
1142.5369	30794.32143
1146.16542	30679.17857
1149.79145	30660.89286
1153.415	30563.32143
1157.03607	30570.89286
1160.65467	30760.89286
1164.27079	31381.17857
1167.88443	32019.03571
1171.49561	32928.60714
1175.10432	34143.32143
1178.71056	35792.17857
1182.31434	37392.89286
1185.91565	38221.03571
1189.51451	38279.60714
1193.11091	37742.75
1196.70485	36973.60714
1200.29634	36084.17857
1203.88538	35234.60714
1207.47197	34374.89286
1211.05612	33713.46429
1214.63782	33170.17857
1218.21708	32830.89286
1221.79391	32694.89286
1225.36829	32603.60714
1228.94024	32664.32143
1232.50976	32607.60714
1236.07685	32384.46429
1239.6415	32316.17857
1243.20374	32353.03571
1246.76355	32473.46429
1250.32093	32624.03571
1253.8759	32902.75
1257.42845	33324.03571
1260.97859	33831.32143
1264.52631	34336.60714
1268.07163	34796.75
1271.61453	35249.89286
1275.15503	35533.46429
1278.69312	35897.46429
1282.22882	36214.89286
1285.76211	36591.17857
1289.29301	37163.46429
1292.82151	37831.46429
1296.34761	38595.32143
1299.87133	39624.60714
1303.39266	40894.60714
1306.9116	42523.32143
1310.42815	44092.17857
1313.94233	45020.32143
1317.45412	44710.03571
1320.96354	43580.89286
1324.47058	42252.46429
1327.97525	41220.75
1331.47754	40400.03571
1334.97747	40098.60714
1338.47502	40086.17857
1341.97022	40440.60714
1345.46305	40964.03571
1348.95352	41802.60714
1352.44163	42879.89286
1355.92738	44294.60714
1359.41078	46080.17857
1362.89183	47577.75
1366.37053	46833.46429
1369.84688	43687.75
1373.32088	40011.75
1376.79254	37507.46429
1380.26186	36324.60714
1383.72883	35810.46429
1387.19347	35289.03571
1390.65578	34783.46429
1394.11575	34331.17857
1397.57339	34151.46429
1401.0287	34120.03571
1404.48168	34042.17857
1407.93234	34009.75
1411.38068	34041.46429
1414.82669	34046.75
1418.27039	33829.89286
1421.71177	33539.46429
1425.15083	33172.32143
1428.58758	33012.17857
1432.02203	33097.89286
1435.45416	33339.89286
1438.88399	33628.32143
1442.31151	33704.17857
1445.73673	33799.60714
1449.15965	33810.32143
1452.58027	33751.60714
1455.9986	33639.32143
1459.41463	33680.75
1462.82837	33970.32143
1466.23982	34431.89286
1469.64898	34908.32143
1473.05586	35257.60714
1476.46045	35576.03571
1479.86276	35750.32143
1483.26279	35878.60714
1486.66054	36154.89286
1490.05602	36518.17857
1493.44922	37101.46429
1496.84016	37850.17857
1500.22882	38953.03571
1503.61521	40457.32143
1506.99934	42044.75
1510.38121	43127.46429
1513.76081	42967.17857
1517.13816	41555.32143
1520.51324	39585.32143
1523.88607	37963.46429
1527.25665	36967.60714
1530.62498	36499.60714
1533.99105	36305.60714
1537.35488	36000.17857
1540.71647	35784.60714
1544.07581	35465.32143
1547.4329	35251.17857
1550.78776	34980.17857
1554.14038	34721.32143
1557.49077	34633.32143
1560.83892	34666.89286
1564.18484	34845.89286
1567.52853	35105.32143
1570.86999	35334.32143
1574.20922	35594.60714
1577.54624	35650.60714
1580.88103	35286.17857
1584.2136	34727.17857
1587.54395	34590.60714
1590.87208	35035.32143
1594.19801	36108.17857
1597.52172	37348.03571
1600.84321	38076.46429
1604.16251	37738.03571
1607.47959	36656.60714
1610.79447	35346.03571
1614.10715	33852.89286
1617.41763	32582.17857
1620.7259	31694.03571
1624.03199	31156.89286
1627.33587	31062.46429
1630.63757	31281.17857
1633.93707	32019.17857
1637.23439	33246.03571
1640.52951	35237.60714
1643.82246	37778.46429
1647.11321	40019.89286
1650.40179	40737.17857
1653.68819	39201.75
1656.97241	36231.75
1660.25446	33330.89286
1663.53433	31313.60714
1666.81203	30053.03571
1670.08756	29235.46429
1673.36092	28756.17857
1676.63211	28477.46429
1679.90115	28231.46429
1683.16801	28033.75
1686.43272	27857.46429
1689.69527	27752.17857
1692.95567	27623.32143
1696.2139	27554.60714
1699.46999	27556.89286
1702.72392	27496.89286
1705.97571	27467.46429
1709.22535	27441.32143
1712.47284	27440.60714
1715.71819	27382.03571
1718.96139	27379.32143
1722.20246	27343.75
1725.44139	27257.17857
1728.67818	27181.75
1731.91284	27105.46429
1735.14537	27018.03571
1738.37576	26996.75
1741.60403	26921.32143
1744.83017	26849.75
1748.05418	26849.32143
1751.27607	26819.17857
1754.49584	26722.75
1757.71349	26739.89286
1760.92903	26783.03571
1764.14244	26764.75
1767.35375	26762.89286
1770.56294	26663.03571
1773.77002	26677.32143
1776.97499	26663.17857
1780.17785	26637.89286
1783.37861	26574.17857
1786.57727	26547.17857
1789.77382	26440.89286
1792.96828	26466.60714
1796.16064	26403.17857
1799.3509	26361.60714
1802.53907	26340.03571
1805.72514	26273.17857
1808.90913	26284.46429
1812.09102	26248.75
1815.27083	26190.75
1818.44856	26130.89286
1821.6242	26110.17857
1824.79776	26062.32143
1827.96924	26103.17857
1831.13864	26027.17857
1834.30597	26087.17857
1837.47122	26041.46429
1840.6344	26044.17857
1843.7955	26064.60714
1846.95454	26034.32143
1850.11151	26015.46429
1853.26642	25935.46429
1856.41926	25941.32143
1859.57004	25953.03571
1862.71876	25879.32143
1865.86542	25924.46429
1869.01003	25935.03571
1872.15258	25867.89286
1875.29308	25865.32143
1878.43152	25753.32143
1881.56792	25852.03571
1884.70227	25744.17857
1887.83457	25752.03571
1890.96482	25705.17857
1894.09304	25666.17857
1897.21921	25713.17857
1900.34335	25636.03571
1903.46544	25622.03571
1906.58551	25606.89286
1909.70353	25549.46429
1912.81953	25529.17857
1915.93349	25487.60714
1919.04543	25451.89286
1922.15534	25425.03571
1925.26322	25409.60714
1928.36908	25366.89286
1931.47292	25365.32143
1934.57473	25286.89286
1937.67453	25267.60714
1940.77232	25171.46429
1943.86808	25159.17857
1946.96184	25071.03571
1950.05358	25022.17857
1953.14331	24991.17857
1956.23103	24949.89286
1959.31675	24888.03571
1962.40046	24821.32143
1965.48217	24706.89286
1968.56188	24670.89286
1971.63959	24594.17857
1974.7153	24561.17857
1977.78901	24451.03571
1980.86073	24403.17857
1983.93046	24335.60714
1986.99819	24197.46429
1990.06394	24193.89286
1993.1277	24153.89286
1996.18947	24041.89286
1999.24925	24008.32143
2002.30706	23945.89286
2005.36288	23906.46429
2008.41672	23845.17857
2011.46859	23817.46429
2014.51848	23746.03571
2017.56639	23675.75
2020.61233	23583.46429
2023.6563	23524.75
2026.6983	23473.46429
2029.73833	23455.60714
2032.7764	23405.89286
2035.8125	23363.03571
2038.84664	23291.89286
2041.87881	23271.17857
2044.90903	23188.03571
2047.93729	23206.60714
2050.96359	23153.17857
2053.98794	23114.03571
2057.01034	23145.03571
2060.03078	23125.32143
2063.04927	23089.46429
2066.06582	23059.75
2069.08042	23053.60714
2072.09307	23082.46429
2075.10378	23051.75
2078.11255	23053.89286
2081.11938	23063.75
2084.12426	23092.32143
2087.12722	23070.60714
2090.12824	23066.60714
2093.12732	23068.03571
2096.12447	23061.03571
2099.11969	23065.03571
2102.11299	23101.60714
2105.10435	23051.75
2108.09379	23066.60714
2111.08131	23130.60714
2114.0669	23128.60714
2117.05057	23199.32143
2120.03233	23158.89286
2123.01216	23243.60714
2125.99008	23281.32143
2128.96609	23290.17857
2131.94018	23351.75
2134.91236	23313.03571
2137.88263	23335.17857
2140.851	23325.60714
2143.81746	23359.32143
2146.78201	23413.89286
2149.74466	23392.46429
2152.7054	23432.17857
2155.66425	23431.46429
2158.6212	23373.60714
2161.57625	23351.89286
2164.52941	23366.46429
2167.48067	23342.46429
2170.43004	23356.60714
2173.37752	23372.17857
2176.32311	23384.17857
2179.26681	23408.75
2182.20863	23338.46429
2185.14856	23396.60714
2188.08661	23392.46429
2191.02278	23390.89286
2193.95707	23400.17857
2196.88948	23347.46429
2199.82001	23388.17857
2202.74867	23335.75
2205.67545	23338.03571
2208.60037	23284.46429
2211.52341	23277.46429
2214.44458	23196.46429
2217.36388	23195.75
2220.28132	23176.03571
2223.1969	23120.46429
2226.11061	23058.46429
2229.02246	23046.17857
2231.93245	23026.46429
2234.84058	22913.46429
2237.74686	22925.32143
2240.65128	22922.17857
2243.55385	22939.32143
2246.45456	22935.17857
2249.35343	22879.46429
2252.25044	22862.03571
2255.14561	22795.03571
2258.03893	22799.46429
2260.93041	22727.03571
2263.82004	22644.75
2266.70783	22639.75
2269.59378	22591.89286
2272.4779	22594.17857
2275.36017	22522.32143
2278.24061	22501.03571
2281.11922	22436.60714
2283.996	22457.32143
2286.87094	22438.17857
2289.74405	22381.32143
2292.61534	22367.03571
2295.4848	22377.17857
2298.35243	22346.75
2301.21824	22346.46429
2304.08223	22277.75
2306.94439	22264.32143
2309.80474	22239.32143
2312.66327	22282.46429
2315.51999	22263.75
2318.37489	22241.17857
2321.22797	22189.32143
2324.07925	22179.60714
2326.92871	22118.17857
2329.77637	22089.17857
2332.62222	22047.89286
2335.46626	22045.89286
2338.3085	22018.32143
2341.14893	21997.03571
2343.98756	22021.46429
2346.8244	21959.46429
2349.65943	21925.17857
2352.49267	21913.60714
2355.32411	21960.75
2358.15376	21941.46429
2360.98161	21914.60714
2363.80768	21886.32143
2366.63195	21901.46429
2369.45444	21825.75
2372.27514	21820.46429
2375.09405	21812.75
2377.91118	21770.32143
2380.72652	21782.89286
2383.54009	21675.03571
2386.35187	21701.32143
2389.16188	21638.89286
2391.97011	21597.03571
2394.77657	21553.89286
2397.58125	21530.32143
2400.38416	21547.46429
2403.18529	21517.60714
2405.98466	21489.75
2408.78226	21474.17857
2411.57809	21402.46429
2414.37216	21379.32143
2417.16446	21415.03571
2419.955	21343.75
2422.74378	21357.60714
2425.5308	21283.17857
2428.31606	21291.17857
2431.09956	21308.17857
2433.88131	21235.17857
2436.6613	21256.17857
2439.43954	21283.03571
2442.21603	21272.89286
2444.99077	21258.17857
2447.76377	21259.60714
2450.53501	21199.32143
2453.30451	21197.89286
2456.07226	21141.46429
2458.83827	21151.32143
2461.60254	21109.60714
2464.36507	21085.75
2467.12586	21094.03571
2469.88492	21027.17857
2472.64224	21011.32143
2475.39782	21087.32143
2478.15167	21024.32143
2480.90379	21036.60714
2483.65417	21078.32143
2486.40283	21079.03571
2489.14976	21110.75
2491.89497	21073.60714
2494.63845	21066.60714
2497.3802	21040.60714
2500.12024	21059.75
2502.85855	21001.46429
2505.59514	20995.75
2508.33002	20975.17857
2511.06318	20882.03571
2513.79462	20913.60714
2516.52435	20844.32143
2519.25237	20848.60714
2521.97867	20836.89286
2524.70327	20835.75
2527.42616	20811.89286
2530.14734	20791.75
2532.86681	20732.60714
2535.58458	20714.60714
2538.30065	20720.75
2541.01501	20718.03571
2543.72768	20642.75
2546.43864	20639.46429
2549.14791	20607.89286
2551.85548	20587.03571
2554.56136	20575.17857
2557.26554	20518.60714
2559.96803	20476.17857
2562.66883	20486.75
2565.36794	20405.32143
2568.06536	20419.60714
2570.7611	20383.17857
2573.45514	20342.32143
2576.14751	20314.75
2578.83819	20279.17857
2581.52719	20269.17857
2584.21451	20198.03571
2586.90015	20153.60714
2589.58411	20156.46429
2592.2664	20138.17857
2594.94701	20095.32143
2597.62594	20034.03571
2600.30321	20035.46429
2602.9788	20025.89286
2605.65273	19982.03571
2608.32498	20009.32143
2610.99557	19972.60714
2613.66449	19966.32143
2616.33175	19896.46429
2618.99734	19933.89286
2621.66128	19915.60714
2624.32355	19860.32143
2626.98416	19834.89286
2629.64311	19756.89286
2632.30041	19787.60714
2634.95605	19743.17857
2637.61004	19702.75
2640.26238	19704.46429
2642.91306	19730.89286
2645.56209	19715.89286
2648.20948	19740.17857
2650.85521	19650.46429
2653.4993	19679.46429
2656.14175	19640.75
2658.78255	19655.46429
2661.42171	19660.89286
2664.05923	19677.75
2666.6951	19703.32143
2669.32934	19724.75
2671.96194	19697.60714
2674.59291	19668.75
2677.22224	19656.75
2679.84993	19705.32143
2682.476	19668.17857
2685.10043	19680.75
2687.72324	19652.89286
2690.34441	19647.89286
2692.96396	19707.46429
2695.58188	19645.60714
2698.19818	19649.46429
2700.81285	19619.60714
2703.4259	19589.89286
2706.03733	19652.17857
2708.64714	19661.03571
2711.25533	19696.32143
2713.86191	19691.03571
2716.46687	19708.60714
2719.07021	19763.75
2721.67194	19711.46429
2724.27206	19705.89286
2726.87057	19760.60714
2729.46747	19782.46429
2732.06276	19689.03571
2734.65644	19701.89286
2737.24852	19699.03571
2739.83899	19664.60714
2742.42786	19642.46429
2745.01513	19633.32143
2747.60079	19595.17857
2750.18486	19578.46429
2752.76733	19582.89286
2755.3482	19530.17857
2757.92747	19533.75
2760.50515	19547.03571
2763.08123	19531.46429
2765.65573	19472.46429
2768.22863	19453.89286
2770.79994	19433.89286
2773.36967	19407.60714
2775.9378	19382.75
2778.50435	19361.32143
2781.06932	19319.46429
2783.6327	19320.03571
2786.1945	19318.03571
2788.75471	19254.60714
2791.31335	19221.03571
2793.87041	19222.46429
2796.42589	19193.17857
2798.97979	19175.60714
2801.53212	19142.03571
2804.08288	19078.89286
2806.63206	19065.89286
2809.17967	19047.03571
2811.72571	19001.89286
2814.27018	18944.89286
2816.81308	18928.75
2819.35442	18824.75
2821.89419	18835.46429
2824.43239	18828.46429
2826.96904	18745.89286
2829.50412	18748.46429
2832.03763	18715.17857
2834.56959	18767.75
2837.1	18725.32143
2839.62884	18717.03571
2842.15613	18686.17857
2844.68186	18706.32143
2847.20604	18660.75
2849.72867	18652.89286
2852.24974	18629.46429
2854.76927	18616.60714
2857.28724	18567.46429
2859.80367	18605.32143
2862.31855	18607.60714
2864.83189	18561.89286
2867.34368	18533.75
2869.85393	18519.46429
2872.36264	18450.89286
2874.8698	18457.75
2877.37543	18430.46429
2879.87952	18452.32143
2882.38207	18410.60714
2884.88308	18400.46429
2887.38256	18434.03571
2889.88051	18449.60714
2892.37692	18454.60714
2894.8718	18457.60714
2897.36515	18453.03571
2899.85698	18478.60714
2902.34727	18481.17857
2904.83604	18474.32143
2907.32328	18489.46429
2909.809	18531.75
2912.29319	18515.03571
2914.77587	18487.03571
2917.25702	18481.46429
2919.73665	18479.03571
2922.21476	18474.17857
2924.69136	18479.46429
2927.16644	18458.46429
2929.64	18468.60714
2932.11205	18437.03571
2934.58258	18390.89286
2937.05161	18450.75
2939.51912	18440.17857
2941.98513	18403.03571
2944.44962	18415.03571
2946.91261	18360.17857
2949.37409	18390.32143
2951.83407	18398.75
2954.29254	18367.89286
2956.74951	18345.60714
2959.20498	18342.03571
2961.65895	18308.32143
2964.11142	18310.32143
2966.56239	18277.03571
2969.01186	18318.89286
2971.45984	18232.17857
2973.90632	18267.60714
2976.35131	18189.17857
2978.7948	18209.46429
2981.23681	18157.17857
2983.67732	18190.60714
2986.11635	18099.03571
2988.55388	18088.89286
2990.98993	18068.46429
2993.4245	18078.46429
2995.85758	18018.60714
2998.28917	17984.60714
3000.71928	17923.89286
3003.14791	17903.46429
3005.57506	17910.46429
3008.00073	17822.89286
3010.42493	17844.89286
3012.84764	17847.32143
3015.26888	17790.03571
3017.68865	17789.75
3020.10694	17778.75
3022.52376	17758.32143
3024.9391	17722.17857
3027.35298	17692.32143
3029.76539	17679.46429
3032.17632	17670.89286
3034.5858	17641.32143
3036.9938	17612.17857
3039.40034	17588.32143
3041.80542	17576.89286
3044.20903	17559.89286
3046.61118	17546.03571
3049.01187	17506.46429
3051.4111	17506.60714
3053.80888	17459.60714
3056.20519	17472.17857
3058.60005	17400.75
3060.99345	17392.03571
3063.3854	17320.17857
3065.7759	17284.46429
3068.16494	17282.46429
3070.55254	17227.03571
3072.93868	17189.89286
3075.32338	17165.75
3077.70662	17138.60714
3080.08842	17110.17857
3082.46878	17084.17857
3084.84769	17105.89286
3087.22515	17072.32143
3089.60118	17093.32143
3091.97576	17090.89286
3094.3489	17087.75
3096.72061	17127.32143
3099.09087	17076.17857
3101.4597	17023.60714
3103.82709	17071.89286
3106.19305	17054.03571
3108.55757	17049.17857
3110.92066	17056.03571
3113.28232	17036.60714
3115.64255	16968.46429
3118.00134	16960.17857
3120.35871	16925.32143
3122.71466	16886.32143
3125.06917	16848.89286
3127.42226	16776.60714
3129.77393	16814.17857
3132.12417	16826.17857
3134.47299	16815.17857
3136.82039	16792.89286
3139.16636	16815.75
3141.51092	16833.03571
3143.85406	16789.46429
3146.19579	16795.17857
3148.53609	16783.89286
3150.87499	16778.60714
3153.21246	16815.89286
3155.54853	16843.75
3157.88318	16835.46429
3160.21642	16873.89286
3162.54826	16888.75
3164.87868	16916.03571
3167.2077	16885.03571
3169.5353	16873.17857
3171.86151	16838.46429
3174.18631	16832.89286
3176.5097	16841.03571
3178.83169	16836.17857
3181.15228	16810.75
3183.47147	16786.03571
3185.78926	16759.60714
3188.10565	16770.60714
3190.42065	16794.03571
3192.73424	16728.17857
3195.04645	16703.32143
3197.35725	16704.60714
3199.66667	16677.03571
3201.97469	16713.03571
3204.28132	16639.89286
3206.58656	16681.32143
3208.8904	16716.46429
3211.19287	16753.75
3213.49394	16742.89286
3215.79363	16745.17857
3218.09193	16702.89286
3220.38884	16756.32143
3222.68438	16752.75
3224.97853	16754.17857
3227.2713	16732.46429
3229.56269	16705.89286
3231.8527	16688.89286
3234.14133	16679.89286
3236.42858	16611.32143
3238.71446	16623.17857
3240.99896	16599.32143
3243.28209	16538.46429
3245.56384	16560.46429
3247.84423	16539.60714
3250.12324	16502.17857
3252.40088	16501.60714
3254.67715	16470.75
3256.95205	16506.60714
3259.22558	16515.75
3261.49775	16492.32143
3263.76855	16484.03571
3266.03799	16430.89286
3268.30606	16440.17857
3270.57277	16428.17857
3272.83812	16405.46429
3275.10211	16322.03571
3277.36474	16274.75
3279.62601	16294.17857
3281.88593	16237.89286
3284.14448	16300.89286
3286.40168	16266.32143
3288.65753	16258.75
3290.91202	16233.17857
3293.16516	16197.17857
3295.41695	16196.60714
3297.66738	16067.32143
3299.91647	16002.32143
3302.16421	15914.89286
3304.4106	15850.17857
3306.65564	15745.75
3308.89933	15642.75
3311.14169	15557.03571
3313.38269	15393.17857
3315.62236	15350.60714
3317.86068	15237.17857
3320.09766	15120.89286
3322.3333	15003.17857
3324.5676	14968.17857
3326.80056	14759.32143
3329.03219	14654.03571
3331.26248	5.03571
3333.49143	-0.39286
3335.71905	0.03571
