Data from AgNPs_FTO_APTES_UA_20uM_CRN_100uM_R6G_10uM_NaF_0.1M_Addition_RamanShift__16__17-37-14-884.txt Node

Date: Thu Feb 17 17:37:14 GMT 2022
User: TCL
Spectrometer: QEP01345
Trigger mode: 4
Integration Time (sec): 1.000000E1
Scans to average: 7
Electric dark correction enabled: true
Nonlinearity correction enabled: false
Boxcar width: 0
XAxis mode: Raman Shifts
Number of Pixels in Spectrum: 1044
>>>>>Begin Spectral Data<<<<<
46.04893	-0.16071
50.45542	-1.73214
54.85868	-0.01786
59.25871	-2.30357
63.6555	86.26786
68.04907	85.125
72.43941	86.41071
76.82654	93.83929
81.21044	96.83929
85.59113	96.41071
89.96862	106.41071
94.34289	103.69643
98.71396	109.83929
103.08183	113.55357
107.4465	117.41071
111.80798	116.26786
116.16626	120.98214
120.52136	122.41071
124.87327	125.98214
129.222	137.41071
133.56755	139.125
137.90993	154.69643
142.24913	164.98214
146.58517	179.55357
150.91804	202.98214
155.24774	239.98214
159.57429	287.69643
163.89768	374.98214
168.21792	495.125
172.53501	676.41071
176.84895	939.55357
181.15975	1331.26786
185.46741	1884.41071
189.77193	2603.125
194.07331	3515.41071
198.37157	4549.83929
202.6667	5654.26786
206.9587	6759.98214
211.24758	7854.55357
215.53334	8901.55357
219.81599	10062.41071
224.09553	11304.41071
228.37195	12688.55357
232.64527	14217.125
236.91549	15873.26786
241.18261	17498.125
245.44663	19045.26786
249.70755	20426.26786
253.96539	21641.26786
258.22014	22604.26786
262.4718	23389.98214
266.72039	23996.98214
270.96589	24251.41071
275.20832	24292.83929
279.44768	23953.83929
283.68397	23619.83929
287.91719	23296.26786
292.14735	23048.83929
296.37445	23013.83929
300.59849	23152.55357
304.81948	23341.26786
309.03742	23495.55357
313.25231	23350.55357
317.46415	22994.83929
321.67296	22439.125
325.87872	22007.98214
330.08145	21812.55357
334.28114	21899.98214
338.47781	22132.55357
342.67145	22505.83929
346.86207	22925.55357
351.04966	23531.125
355.23424	24171.26786
359.4158	24754.125
363.59435	25213.26786
367.76989	25486.125
371.94243	25712.125
376.11196	25854.41071
380.27849	25990.125
384.44203	26082.26786
388.60257	26111.26786
392.76012	26186.98214
396.91468	26364.98214
401.06626	26699.41071
405.21485	26972.83929
409.36047	26922.125
413.50311	26539.125
417.64277	26149.125
421.77947	25914.125
425.9132	25892.83929
430.04396	25955.69643
434.17176	26156.69643
438.2966	26423.125
442.41849	26840.125
446.53742	27404.26786
450.6534	27952.83929
454.76644	28414.26786
458.87653	28607.41071
462.98368	28484.69643
467.08789	28317.41071
471.18916	27961.26786
475.2875	27661.26786
479.38291	27341.69643
483.4754	27122.26786
487.56496	26984.125
491.6516	26866.125
495.73531	26769.125
499.81612	26783.26786
503.89401	26965.41071
507.96899	27106.125
512.04106	27269.41071
516.11023	27444.26786
520.1765	27611.125
524.23987	27609.26786
528.30034	27571.125
532.35792	27449.55357
536.41261	27407.125
540.46441	27136.26786
544.51333	26997.83929
548.55936	27007.98214
552.60252	27210.69643
556.64279	27451.55357
560.6802	27518.41071
564.71473	27572.125
568.7464	27727.125
572.7752	27988.125
576.80114	27883.83929
580.82422	27723.125
584.84444	27729.98214
588.86181	28071.41071
592.87633	28540.55357
596.888	28921.98214
600.89682	29182.41071
604.9028	30221.83929
608.90594	33235.55357
612.90624	37006.41071
616.90371	35913.41071
620.89834	30962.125
624.89015	28647.69643
628.87913	28285.69643
632.86528	28237.41071
636.84862	28262.26786
640.82913	28034.98214
644.80683	27636.26786
648.78172	27197.41071
652.75379	27238.26786
656.72306	27528.55357
660.68952	28030.125
664.65319	27993.55357
668.61405	27674.41071
672.57211	27680.41071
676.52738	27755.41071
680.47986	27832.83929
684.42955	27729.26786
688.37646	27640.69643
692.32058	27618.41071
696.26192	27735.98214
700.20048	27851.26786
704.13626	27955.98214
708.06928	27807.41071
711.99952	27599.69643
715.927	27507.69643
719.85171	27500.55357
723.77365	27534.55357
727.69284	27530.55357
731.60928	27488.55357
735.52295	27499.83929
739.43388	27545.98214
743.34206	27653.98214
747.24749	27701.55357
751.15017	27703.55357
755.05012	27760.55357
758.94733	28156.41071
762.8418	29097.26786
766.73354	30724.41071
770.62254	32668.55357
774.50882	33787.83929
778.39237	33220.69643
782.27321	31182.125
786.15132	29324.83929
790.02671	28185.98214
793.89938	27620.125
797.76935	27369.55357
801.6366	27337.55357
805.50115	27304.26786
809.36299	27241.41071
813.22213	27124.98214
817.07857	27036.55357
820.93231	27044.69643
824.78336	27076.55357
828.63172	27132.125
832.47738	27181.26786
836.32036	27198.98214
840.16066	27271.69643
843.99827	27313.98214
847.8332	27316.26786
851.66546	27303.41071
855.49504	27283.55357
859.32195	27386.55357
863.1462	27400.69643
866.96777	27400.41071
870.78668	27422.69643
874.60293	27415.83929
878.41652	27431.26786
882.22745	27493.69643
886.03573	27464.83929
889.84136	27558.69643
893.64433	27362.26786
897.44466	27277.125
901.24235	27201.41071
905.0374	27087.98214
908.8298	26986.69643
912.61957	26948.26786
916.40671	26968.98214
920.19121	27107.41071
923.97308	27315.125
927.75233	27481.98214
931.52895	27634.41071
935.30295	27518.98214
939.07433	27261.26786
942.84309	26982.55357
946.60924	26877.69643
950.37278	26716.55357
954.13371	26618.55357
957.89203	26504.98214
961.64774	26364.125
965.40086	26249.83929
969.15137	26220.83929
972.89929	26145.41071
976.64461	26213.26786
980.38733	26188.69643
984.12747	26302.26786
987.86502	26506.69643
991.59999	26755.41071
995.33237	27140.55357
999.06217	27662.98214
1002.78939	28244.69643
1006.51404	28581.83929
1010.23611	28616.41071
1013.95561	28811.83929
1017.67255	28823.98214
1021.38692	28763.69643
1025.09872	28621.98214
1028.80796	28918.55357
1032.51465	29531.83929
1036.21877	30163.83929
1039.92035	30267.41071
1043.61937	29858.125
1047.31584	29344.26786
1051.00976	28681.41071
1054.70114	28280.125
1058.38998	28152.41071
1062.07627	28109.41071
1065.76003	28105.83929
1069.44126	28050.98214
1073.11995	28149.41071
1076.79611	28264.83929
1080.46974	28462.26786
1084.14085	28681.69643
1087.80943	28932.69643
1091.47549	29011.26786
1095.13903	28857.98214
1098.80005	28544.83929
1102.45857	28316.41071
1106.11456	28242.41071
1109.76805	28368.69643
1113.41903	28633.125
1117.06751	28869.125
1120.71348	29258.69643
1124.35696	29617.83929
1127.99793	29980.26786
1131.63641	30069.125
1135.2724	29702.83929
1138.90589	29243.69643
1142.5369	28875.41071
1146.16542	28599.125
1149.79145	28347.83929
1153.415	28247.125
1157.03607	28316.125
1160.65467	28501.26786
1164.27079	29002.26786
1167.88443	29782.55357
1171.49561	30921.125
1175.10432	32363.41071
1178.71056	34389.26786
1182.31434	36366.98214
1185.91565	37414.69643
1189.51451	37285.69643
1193.11091	36022.41071
1196.70485	34507.41071
1200.29634	33305.69643
1203.88538	32444.98214
1207.47197	31583.69643
1211.05612	30850.55357
1214.63782	30453.55357
1218.21708	30444.125
1221.79391	30550.26786
1225.36829	30713.55357
1228.94024	30669.83929
1232.50976	30331.55357
1236.07685	30002.98214
1239.6415	29931.125
1243.20374	29976.41071
1246.76355	30178.69643
1250.32093	30488.69643
1253.8759	30920.69643
1257.42845	31490.125
1260.97859	31990.98214
1264.52631	32447.83929
1268.07163	32994.98214
1271.61453	33547.125
1275.15503	34224.26786
1278.69312	34843.83929
1282.22882	35243.69643
1285.76211	35625.98214
1289.29301	36006.125
1292.82151	36405.69643
1296.34761	37137.41071
1299.87133	38294.69643
1303.39266	40156.69643
1306.9116	42665.83929
1310.42815	45234.41071
1313.94233	46584.83929
1317.45412	45906.55357
1320.96354	43976.83929
1324.47058	41823.69643
1327.97525	40052.98214
1331.47754	38779.125
1334.97747	38332.26786
1338.47502	38515.55357
1341.97022	39095.69643
1345.46305	39804.83929
1348.95352	40707.83929
1352.44163	41991.55357
1355.92738	43943.26786
1359.41078	46871.55357
1362.89183	49475.98214
1366.37053	48399.41071
1369.84688	43807.55357
1373.32088	39111.26786
1376.79254	36078.98214
1380.26186	34513.55357
1383.72883	33703.69643
1387.19347	33099.125
1390.65578	32521.41071
1394.11575	32042.98214
1397.57339	31975.69643
1401.0287	32177.98214
1404.48168	32405.41071
1407.93234	32694.125
1411.38068	32987.125
1414.82669	33100.55357
1418.27039	32977.41071
1421.71177	32609.55357
1425.15083	32037.69643
1428.58758	31863.69643
1432.02203	31868.41071
1435.45416	32096.26786
1438.88399	32349.26786
1442.31151	32444.55357
1445.73673	32495.26786
1449.15965	32632.98214
1452.58027	32658.26786
1455.9986	32528.55357
1459.41463	32567.41071
1462.82837	32681.55357
1466.23982	33144.55357
1469.64898	33725.98214
1473.05586	34160.55357
1476.46045	34417.55357
1479.86276	34647.69643
1483.26279	34821.55357
1486.66054	35006.69643
1490.05602	35416.26786
1493.44922	35841.41071
1496.84016	36460.69643
1500.22882	37487.98214
1503.61521	39105.69643
1506.99934	41111.26786
1510.38121	42862.69643
1513.76081	43136.26786
1517.13816	41649.98214
1520.51324	39153.125
1523.88607	36802.69643
1527.25665	35291.69643
1530.62498	34444.98214
1533.99105	33966.125
1537.35488	33745.55357
1540.71647	33596.98214
1544.07581	33591.98214
1547.4329	33551.83929
1550.78776	33504.98214
1554.14038	33427.98214
1557.49077	33462.69643
1560.83892	33520.98214
1564.18484	33713.83929
1567.52853	33828.69643
1570.86999	33989.125
1574.20922	34161.55357
1577.54624	34111.83929
1580.88103	33607.83929
1584.2136	33051.26786
1587.54395	32927.98214
1590.87208	33647.41071
1594.19801	35099.69643
1597.52172	36961.41071
1600.84321	38014.83929
1604.16251	37399.41071
1607.47959	35786.98214
1610.79447	33906.69643
1614.10715	32142.55357
1617.41763	30760.83929
1620.7259	29840.125
1624.03199	29369.41071
1627.33587	29313.41071
1630.63757	29780.69643
1633.93707	30657.41071
1637.23439	31869.41071
1640.52951	33467.55357
1643.82246	35564.125
1647.11321	37418.41071
1650.40179	38145.83929
1653.68819	36888.69643
1656.97241	33907.69643
1660.25446	31038.69643
1663.53433	29001.98214
1666.81203	27750.83929
1670.08756	26964.83929
1673.36092	26470.83929
1676.63211	26166.83929
1679.90115	25853.125
1683.16801	25679.83929
1686.43272	25523.26786
1689.69527	25441.98214
1692.95567	25333.55357
1696.2139	25257.98214
1699.46999	25262.41071
1702.72392	25167.98214
1705.97571	25213.98214
1709.22535	25160.125
1712.47284	25147.41071
1715.71819	25171.41071
1718.96139	25076.125
1722.20246	25034.26786
1725.44139	24934.55357
1728.67818	24947.55357
1731.91284	24811.69643
1735.14537	24782.125
1738.37576	24708.41071
1741.60403	24657.69643
1744.83017	24590.125
1748.05418	24619.98214
1751.27607	24567.41071
1754.49584	24536.55357
1757.71349	24559.83929
1760.92903	24509.41071
1764.14244	24449.83929
1767.35375	24495.98214
1770.56294	24439.83929
1773.77002	24368.55357
1776.97499	24377.125
1780.17785	24316.55357
1783.37861	24297.125
1786.57727	24242.83929
1789.77382	24170.98214
1792.96828	24224.26786
1796.16064	24139.125
1799.3509	24150.98214
1802.53907	24080.83929
1805.72514	24079.41071
1808.90913	24014.41071
1812.09102	23978.125
1815.27083	23975.26786
1818.44856	23927.83929
1821.6242	23906.125
1824.79776	23839.26786
1827.96924	23818.26786
1831.13864	23769.125
1834.30597	23810.55357
1837.47122	23767.125
1840.6344	23793.69643
1843.7955	23790.125
1846.95454	23757.55357
1850.11151	23749.83929
1853.26642	23716.41071
1856.41926	23742.55357
1859.57004	23707.69643
1862.71876	23729.26786
1865.86542	23730.41071
1869.01003	23717.55357
1872.15258	23715.83929
1875.29308	23729.26786
1878.43152	23686.69643
1881.56792	23695.41071
1884.70227	23657.55357
1887.83457	23627.125
1890.96482	23598.98214
1894.09304	23595.83929
1897.21921	23590.26786
1900.34335	23531.125
1903.46544	23566.125
1906.58551	23497.55357
1909.70353	23471.83929
1912.81953	23455.55357
1915.93349	23411.55357
1919.04543	23390.69643
1922.15534	23433.26786
1925.26322	23362.83929
1928.36908	23321.55357
1931.47292	23337.41071
1934.57473	23294.125
1937.67453	23226.26786
1940.77232	23183.83929
1943.86808	23108.69643
1946.96184	23101.26786
1950.05358	23027.41071
1953.14331	22916.26786
1956.23103	22959.41071
1959.31675	22891.55357
1962.40046	22819.26786
1965.48217	22732.41071
1968.56188	22677.98214
1971.63959	22665.69643
1974.7153	22603.69643
1977.78901	22528.125
1980.86073	22503.26786
1983.93046	22382.41071
1986.99819	22324.26786
1990.06394	22300.125
1993.1277	22264.69643
1996.18947	22147.41071
1999.24925	22093.125
2002.30706	21997.69643
2005.36288	22003.55357
2008.41672	21929.55357
2011.46859	21910.55357
2014.51848	21822.26786
2017.56639	21760.26786
2020.61233	21730.98214
2023.6563	21669.69643
2026.6983	21632.83929
2029.73833	21590.55357
2032.7764	21555.83929
2035.8125	21531.26786
2038.84664	21492.69643
2041.87881	21473.41071
2044.90903	21443.98214
2047.93729	21453.98214
2050.96359	21386.69643
2053.98794	21362.83929
2057.01034	21342.125
2060.03078	21345.98214
2063.04927	21279.69643
2066.06582	21301.69643
2069.08042	21300.41071
2072.09307	21266.41071
2075.10378	21275.69643
2078.11255	21295.69643
2081.11938	21255.41071
2084.12426	21242.98214
2087.12722	21290.98214
2090.12824	21248.55357
2093.12732	21246.26786
2096.12447	21221.69643
2099.11969	21221.98214
2102.11299	21268.55357
2105.10435	21246.41071
2108.09379	21278.26786
2111.08131	21340.26786
2114.0669	21296.69643
2117.05057	21342.98214
2120.03233	21363.26786
2123.01216	21351.125
2125.99008	21431.125
2128.96609	21465.125
2131.94018	21499.69643
2134.91236	21505.98214
2137.88263	21492.83929
2140.851	21518.98214
2143.81746	21546.26786
2146.78201	21581.125
2149.74466	21536.55357
2152.7054	21577.26786
2155.66425	21559.125
2158.6212	21557.41071
2161.57625	21515.55357
2164.52941	21515.41071
2167.48067	21511.125
2170.43004	21491.125
2173.37752	21543.83929
2176.32311	21525.98214
2179.26681	21528.83929
2182.20863	21535.55357
2185.14856	21573.125
2188.08661	21591.98214
2191.02278	21593.55357
2193.95707	21593.125
2196.88948	21567.41071
2199.82001	21564.125
2202.74867	21564.125
2205.67545	21612.55357
2208.60037	21567.41071
2211.52341	21538.83929
2214.44458	21521.69643
2217.36388	21442.41071
2220.28132	21474.41071
2223.1969	21410.26786
2226.11061	21388.26786
2229.02246	21350.98214
2231.93245	21269.26786
2234.84058	21247.26786
2237.74686	21223.98214
2240.65128	21223.26786
2243.55385	21208.69643
2246.45456	21149.41071
2249.35343	21179.55357
2252.25044	21151.125
2255.14561	21075.41071
2258.03893	21098.41071
2260.93041	21054.26786
2263.82004	21014.69643
2266.70783	20914.83929
2269.59378	20884.98214
2272.4779	20900.98214
2275.36017	20861.98214
2278.24061	20800.98214
2281.11922	20780.69643
2283.996	20772.69643
2286.87094	20757.125
2289.74405	20726.26786
2292.61534	20722.69643
2295.4848	20688.98214
2298.35243	20717.83929
2301.21824	20701.98214
2304.08223	20683.98214
2306.94439	20682.83929
2309.80474	20728.41071
2312.66327	20740.55357
2315.51999	20751.41071
2318.37489	20734.69643
2321.22797	20689.55357
2324.07925	20642.41071
2326.92871	20651.83929
2329.77637	20609.55357
2332.62222	20573.69643
2335.46626	20602.125
2338.3085	20613.69643
2341.14893	20591.55357
2343.98756	20564.98214
2346.8244	20541.125
2349.65943	20536.98214
2352.49267	20524.26786
2355.32411	20555.83929
2358.15376	20538.41071
2360.98161	20513.69643
2363.80768	20516.41071
2366.63195	20446.26786
2369.45444	20395.83929
2372.27514	20382.83929
2375.09405	20376.41071
2377.91118	20321.26786
2380.72652	20325.98214
2383.54009	20207.41071
2386.35187	20215.41071
2389.16188	20154.55357
2391.97011	20187.83929
2394.77657	20127.26786
2397.58125	20143.125
2400.38416	20103.83929
2403.18529	20111.83929
2405.98466	20048.41071
2408.78226	20007.98214
2411.57809	19969.26786
2414.37216	19945.55357
2417.16446	19896.26786
2419.955	19865.26786
2422.74378	19884.125
2425.5308	19831.98214
2428.31606	19800.83929
2431.09956	19853.26786
2433.88131	19801.26786
2436.6613	19835.69643
2439.43954	19815.83929
2442.21603	19803.41071
2444.99077	19795.98214
2447.76377	19793.41071
2450.53501	19759.55357
2453.30451	19765.69643
2456.07226	19759.26786
2458.83827	19714.125
2461.60254	19732.125
2464.36507	19686.26786
2467.12586	19679.69643
2469.88492	19643.41071
2472.64224	19665.41071
2475.39782	19676.69643
2478.15167	19712.125
2480.90379	19709.26786
2483.65417	19743.26786
2486.40283	19747.55357
2489.14976	19741.26786
2491.89497	19744.98214
2494.63845	19740.26786
2497.3802	19733.83929
2500.12024	19725.83929
2502.85855	19699.41071
2505.59514	19700.55357
2508.33002	19615.55357
2511.06318	19610.26786
2513.79462	19617.41071
2516.52435	19570.41071
2519.25237	19579.26786
2521.97867	19510.98214
2524.70327	19529.26786
2527.42616	19529.55357
2530.14734	19481.98214
2532.86681	19423.55357
2535.58458	19453.125
2538.30065	19414.69643
2541.01501	19431.26786
2543.72768	19417.98214
2546.43864	19380.41071
2549.14791	19368.69643
2551.85548	19387.83929
2554.56136	19309.55357
2557.26554	19255.83929
2559.96803	19274.41071
2562.66883	19254.69643
2565.36794	19217.98214
2568.06536	19199.69643
2570.7611	19172.55357
2573.45514	19162.41071
2576.14751	19165.83929
2578.83819	19094.41071
2581.52719	19099.125
2584.21451	19096.41071
2586.90015	19045.26786
2589.58411	19057.55357
2592.2664	19053.41071
2594.94701	19021.125
2597.62594	18975.83929
2600.30321	18960.125
2602.9788	18972.41071
2605.65273	18949.98214
2608.32498	18931.26786
2610.99557	18940.26786
2613.66449	18919.125
2616.33175	18880.55357
2618.99734	18888.41071
2621.66128	18930.125
2624.32355	18879.83929
2626.98416	18838.41071
2629.64311	18890.26786
2632.30041	18867.26786
2634.95605	18848.125
2637.61004	18809.98214
2640.26238	18774.69643
2642.91306	18766.69643
2645.56209	18770.125
2648.20948	18734.83929
2650.85521	18732.26786
2653.4993	18710.26786
2656.14175	18703.41071
2658.78255	18724.83929
2661.42171	18683.69643
2664.05923	18731.83929
2666.6951	18726.41071
2669.32934	18777.98214
2671.96194	18726.83929
2674.59291	18762.55357
2677.22224	18736.69643
2679.84993	18744.125
2682.476	18664.125
2685.10043	18722.69643
2687.72324	18710.26786
2690.34441	18684.55357
2692.96396	18710.41071
2695.58188	18680.26786
2698.19818	18647.98214
2700.81285	18642.125
2703.4259	18609.26786
2706.03733	18663.26786
2708.64714	18673.41071
2711.25533	18739.26786
2713.86191	18687.98214
2716.46687	18732.125
2719.07021	18733.69643
2721.67194	18733.83929
2724.27206	18702.125
2726.87057	18741.41071
2729.46747	18743.69643
2732.06276	18685.98214
2734.65644	18709.83929
2737.24852	18746.26786
2739.83899	18667.41071
2742.42786	18716.26786
2745.01513	18649.55357
2747.60079	18641.98214
2750.18486	18600.125
2752.76733	18648.26786
2755.3482	18625.83929
2757.92747	18609.69643
2760.50515	18608.98214
2763.08123	18643.55357
2765.65573	18512.83929
2768.22863	18578.69643
2770.79994	18537.69643
2773.36967	18586.41071
2775.9378	18512.55357
2778.50435	18485.125
2781.06932	18460.125
2783.6327	18476.69643
2786.1945	18448.83929
2788.75471	18422.55357
2791.31335	18348.41071
2793.87041	18392.26786
2796.42589	18312.41071
2798.97979	18317.69643
2801.53212	18288.69643
2804.08288	18278.98214
2806.63206	18259.83929
2809.17967	18210.83929
2811.72571	18216.98214
2814.27018	18165.41071
2816.81308	18089.69643
2819.35442	18097.125
2821.89419	18041.125
2824.43239	18068.125
2826.96904	18080.69643
2829.50412	18009.55357
2832.03763	18003.55357
2834.56959	18002.125
2837.1	17998.98214
2839.62884	18001.69643
2842.15613	17940.69643
2844.68186	17949.125
2847.20604	17918.125
2849.72867	17967.69643
2852.24974	17966.98214
2854.76927	17939.69643
2857.28724	17887.125
2859.80367	17909.125
2862.31855	17866.55357
2864.83189	17858.41071
2867.34368	17814.41071
2869.85393	17853.98214
2872.36264	17829.125
2874.8698	17795.69643
2877.37543	17815.83929
2879.87952	17828.41071
2882.38207	17789.83929
2884.88308	17774.125
2887.38256	17833.55357
2889.88051	17854.125
2892.37692	17848.83929
2894.8718	17830.41071
2897.36515	17867.41071
2899.85698	17916.83929
2902.34727	17923.98214
2904.83604	17912.98214
2907.32328	17959.69643
2909.809	17949.83929
2912.29319	17967.125
2914.77587	17970.83929
2917.25702	17962.41071
2919.73665	17994.26786
2922.21476	17986.83929
2924.69136	17956.26786
2927.16644	17985.125
2929.64	17960.98214
2932.11205	17898.55357
2934.58258	17864.98214
2937.05161	17914.69643
2939.51912	17950.125
2941.98513	17886.41071
2944.44962	17912.125
2946.91261	17832.125
2949.37409	17865.55357
2951.83407	17864.98214
2954.29254	17847.26786
2956.74951	17827.41071
2959.20498	17852.69643
2961.65895	17808.55357
2964.11142	17801.98214
2966.56239	17752.98214
2969.01186	17803.98214
2971.45984	17712.26786
2973.90632	17705.26786
2976.35131	17687.69643
2978.7948	17637.69643
2981.23681	17636.83929
2983.67732	17604.83929
2986.11635	17559.41071
2988.55388	17539.83929
2990.98993	17523.83929
2993.4245	17521.69643
2995.85758	17499.83929
2998.28917	17401.69643
3000.71928	17408.69643
3003.14791	17389.83929
3005.57506	17364.83929
3008.00073	17319.55357
3010.42493	17323.26786
3012.84764	17296.69643
3015.26888	17297.69643
3017.68865	17307.41071
3020.10694	17227.41071
3022.52376	17214.69643
3024.9391	17202.98214
3027.35298	17148.83929
3029.76539	17157.41071
3032.17632	17167.69643
3034.5858	17119.41071
3036.9938	17114.98214
3039.40034	17130.26786
3041.80542	17122.83929
3044.20903	17060.26786
3046.61118	17063.125
3049.01187	17023.26786
3051.4111	17013.83929
3053.80888	16974.98214
3056.20519	16977.98214
3058.60005	16918.125
3060.99345	16915.83929
3063.3854	16852.83929
3065.7759	16828.125
3068.16494	16831.55357
3070.55254	16756.55357
3072.93868	16725.41071
3075.32338	16679.55357
3077.70662	16706.41071
3080.08842	16664.26786
3082.46878	16595.26786
3084.84769	16615.83929
3087.22515	16643.98214
3089.60118	16617.83929
3091.97576	16651.125
3094.3489	16659.41071
3096.72061	16653.26786
3099.09087	16637.26786
3101.4597	16600.69643
3103.82709	16664.41071
3106.19305	16652.69643
3108.55757	16681.83929
3110.92066	16616.83929
3113.28232	16618.26786
3115.64255	16553.125
3118.00134	16539.98214
3120.35871	16528.55357
3122.71466	16519.41071
3125.06917	16443.125
3127.42226	16436.125
3129.77393	16428.98214
3132.12417	16377.69643
3134.47299	16416.125
3136.82039	16397.55357
3139.16636	16402.69643
3141.51092	16431.55357
3143.85406	16401.26786
3146.19579	16440.26786
3148.53609	16402.98214
3150.87499	16477.83929
3153.21246	16479.83929
3155.54853	16505.55357
3157.88318	16482.98214
3160.21642	16535.26786
3162.54826	16514.83929
3164.87868	16508.26786
3167.2077	16496.69643
3169.5353	16547.98214
3171.86151	16509.83929
3174.18631	16522.55357
3176.5097	16493.55357
3178.83169	16489.41071
3181.15228	16524.69643
3183.47147	16454.83929
3185.78926	16475.55357
3188.10565	16454.55357
3190.42065	16440.125
3192.73424	16487.69643
3195.04645	16421.98214
3197.35725	16408.26786
3199.66667	16433.55357
3201.97469	16448.125
3204.28132	16423.26786
3206.58656	16477.55357
3208.8904	16476.41071
3211.19287	16492.41071
3213.49394	16523.98214
3215.79363	16544.125
3218.09193	16523.98214
3220.38884	16527.69643
3222.68438	16570.26786
3224.97853	16545.26786
3227.2713	16542.98214
3229.56269	16515.55357
3231.8527	16502.69643
3234.14133	16468.55357
3236.42858	16435.41071
3238.71446	16480.55357
3240.99896	16421.125
3243.28209	16394.55357
3245.56384	16383.69643
3247.84423	16406.98214
3250.12324	16371.41071
3252.40088	16366.55357
3254.67715	16377.55357
3256.95205	16375.26786
3259.22558	16375.26786
3261.49775	16373.98214
3263.76855	16357.69643
3266.03799	16316.83929
3268.30606	16311.125
3270.57277	16301.98214
3272.83812	16289.69643
3275.10211	16233.125
3277.36474	16203.55357
3279.62601	16234.69643
3281.88593	16190.55357
3284.14448	16249.55357
3286.40168	16175.98214
3288.65753	16203.55357
3290.91202	16194.55357
3293.16516	16127.83929
3295.41695	16118.83929
3297.66738	16070.55357
3299.91647	15979.26786
3302.16421	15902.83929
3304.4106	15798.98214
3306.65564	15735.83929
3308.89933	15621.83929
3311.14169	15511.41071
3313.38269	15425.55357
3315.62236	15348.83929
3317.86068	15223.125
3320.09766	15135.26786
3322.3333	15037.69643
3324.5676	14968.125
3326.80056	14774.125
3329.03219	14666.26786
3331.26248	3.125
3333.49143	-0.44643
3335.71905	-0.30357
