Data from AgNPs_FTO_APTES_UA_20uM_CRN_500uM_R6G_10uM_NaF_0.1M_Addition_RamanShift__17__18-51-54-978.txt Node

Date: Thu Feb 17 18:51:54 GMT 2022
User: TCL
Spectrometer: QEP01345
Trigger mode: 4
Integration Time (sec): 1.000000E1
Scans to average: 7
Electric dark correction enabled: true
Nonlinearity correction enabled: false
Boxcar width: 0
XAxis mode: Raman Shifts
Number of Pixels in Spectrum: 1044
>>>>>Begin Spectral Data<<<<<
46.04893	-0.33929
50.45542	-0.76786
54.85868	0.94643
59.25871	-2.19643
63.6555	70.80357
68.04907	69.80357
72.43941	74.51786
76.82654	78.375
81.21044	77.80357
85.59113	84.23214
89.96862	88.375
94.34289	88.375
98.71396	93.66071
103.08183	91.23214
107.4465	96.66071
111.80798	99.94643
116.16626	101.51786
120.52136	105.375
124.87327	114.51786
129.222	114.23214
133.56755	113.94643
137.90993	135.375
142.24913	141.94643
146.58517	152.08929
150.91804	179.94643
155.24774	208.51786
159.57429	260.375
163.89768	329.51786
168.21792	431.66071
172.53501	590.375
176.84895	831.51786
181.15975	1166.94643
185.46741	1655.66071
189.77193	2297.66071
194.07331	3095.94643
198.37157	4009.375
202.6667	4994.23214
206.9587	5974.94643
211.24758	6917.66071
215.53334	7874.66071
219.81599	8871.51786
224.09553	9908.94643
228.37195	11087.94643
232.64527	12421.375
236.91549	13779.66071
241.18261	15212.80357
245.44663	16580.51786
249.70755	17771.23214
253.96539	18754.08929
258.22014	19670.375
262.4718	20368.23214
266.72039	20813.375
270.96589	21017.375
275.20832	21022.80357
279.44768	20816.23214
283.68397	20523.66071
287.91719	20253.23214
292.14735	20037.94643
296.37445	19916.375
300.59849	19938.94643
304.81948	20004.66071
309.03742	20045.94643
313.25231	19952.23214
317.46415	19747.51786
321.67296	19461.66071
325.87872	19181.08929
330.08145	19120.375
334.28114	19182.375
338.47781	19354.66071
342.67145	19566.94643
346.86207	19864.94643
351.04966	20223.51786
355.23424	20752.375
359.4158	21081.51786
363.59435	21402.66071
367.76989	21624.66071
371.94243	21800.375
376.11196	22005.08929
380.27849	22133.80357
384.44203	22250.94643
388.60257	22347.80357
392.76012	22402.08929
396.91468	22639.23214
401.06626	22755.66071
405.21485	23063.23214
409.36047	23017.375
413.50311	22750.51786
417.64277	22516.80357
421.77947	22388.80357
425.9132	22352.375
430.04396	22485.375
434.17176	22605.375
438.2966	22831.94643
442.41849	23206.51786
446.53742	23600.94643
450.6534	24037.51786
454.76644	24360.23214
458.87653	24521.375
462.98368	24465.375
467.08789	24356.80357
471.18916	24142.66071
475.2875	23919.375
479.38291	23674.08929
483.4754	23518.80357
487.56496	23405.94643
491.6516	23299.375
495.73531	23269.08929
499.81612	23290.08929
503.89401	23423.94643
507.96899	23543.51786
512.04106	23581.08929
516.11023	23668.51786
520.1765	23704.08929
524.23987	23779.23214
528.30034	23687.23214
532.35792	23680.66071
536.41261	23623.80357
540.46441	23484.51786
544.51333	23425.80357
548.55936	23468.08929
552.60252	23562.80357
556.64279	23856.80357
560.6802	23939.23214
564.71473	23989.66071
568.7464	24102.375
572.7752	24264.375
576.80114	24284.66071
580.82422	24283.375
584.84444	24426.80357
588.86181	24739.08929
592.87633	25175.08929
596.888	25428.80357
600.89682	25525.375
604.9028	26170.08929
608.90594	27998.08929
612.90624	30243.94643
616.90371	29446.51786
620.89834	26072.80357
624.89015	24406.23214
628.87913	24154.51786
632.86528	24169.375
636.84862	24253.66071
640.82913	24172.80357
644.80683	23899.66071
648.78172	23658.23214
652.75379	23590.66071
656.72306	23896.66071
660.68952	24169.94643
664.65319	24186.375
668.61405	23949.94643
672.57211	24012.94643
676.52738	24173.94643
680.47986	24273.66071
684.42955	24251.80357
688.37646	24105.08929
692.32058	24038.94643
696.26192	24069.08929
700.20048	24196.08929
704.13626	24221.08929
708.06928	24176.94643
711.99952	23991.375
715.927	23967.23214
719.85171	23957.375
723.77365	23959.94643
727.69284	23959.66071
731.60928	23847.66071
735.52295	23850.80357
739.43388	23852.23214
743.34206	23813.08929
747.24749	23864.375
751.15017	23908.23214
755.05012	23993.66071
758.94733	24286.23214
762.8418	24901.80357
766.73354	26113.66071
770.62254	27423.80357
774.50882	28108.94643
778.39237	27610.51786
782.27321	26336.66071
786.15132	25057.375
790.02671	24174.66071
793.89938	23790.94643
797.76935	23581.375
801.6366	23537.80357
805.50115	23528.08929
809.36299	23454.08929
813.22213	23368.375
817.07857	23260.66071
820.93231	23228.80357
824.78336	23243.08929
828.63172	23236.66071
832.47738	23228.08929
836.32036	23189.375
840.16066	23258.23214
843.99827	23248.51786
847.8332	23325.08929
851.66546	23253.08929
855.49504	23297.23214
859.32195	23371.08929
863.1462	23414.94643
866.96777	23407.375
870.78668	23427.375
874.60293	23425.80357
878.41652	23462.80357
882.22745	23489.375
886.03573	23468.94643
889.84136	23479.94643
893.64433	23436.51786
897.44466	23362.375
901.24235	23302.94643
905.0374	23185.375
908.8298	23107.23214
912.61957	23057.51786
916.40671	23101.66071
920.19121	23170.08929
923.97308	23303.375
927.75233	23312.66071
931.52895	23346.94643
935.30295	23327.94643
939.07433	23120.51786
942.84309	22917.66071
946.60924	22846.23214
950.37278	22692.66071
954.13371	22666.66071
957.89203	22576.375
961.64774	22524.375
965.40086	22510.94643
969.15137	22446.23214
972.89929	22376.375
976.64461	22379.66071
980.38733	22415.23214
984.12747	22425.375
987.86502	22575.375
991.59999	22707.94643
995.33237	22832.80357
999.06217	23125.94643
1002.78939	23396.23214
1006.51404	23623.94643
1010.23611	23678.51786
1013.95561	23866.375
1017.67255	23941.23214
1021.38692	23837.94643
1025.09872	23666.23214
1028.80796	23642.23214
1032.51465	23835.80357
1036.21877	23996.80357
1039.92035	24099.375
1043.61937	23996.23214
1047.31584	23825.51786
1051.00976	23677.375
1054.70114	23572.51786
1058.38998	23575.66071
1062.07627	23586.80357
1065.76003	23649.51786
1069.44126	23662.66071
1073.11995	23749.375
1076.79611	23861.94643
1080.46974	24027.375
1084.14085	24143.66071
1087.80943	24221.80357
1091.47549	24309.08929
1095.13903	24247.08929
1098.80005	24115.51786
1102.45857	23881.80357
1106.11456	23824.08929
1109.76805	23814.51786
1113.41903	23960.375
1117.06751	24099.08929
1120.71348	24260.08929
1124.35696	24470.23214
1127.99793	24670.94643
1131.63641	24724.94643
1135.2724	24603.51786
1138.90589	24360.23214
1142.5369	24196.94643
1146.16542	24052.51786
1149.79145	23946.08929
1153.415	23855.66071
1157.03607	23935.23214
1160.65467	24130.94643
1164.27079	24507.08929
1167.88443	25118.66071
1171.49561	25921.51786
1175.10432	26958.51786
1178.71056	28407.23214
1182.31434	29744.375
1185.91565	30399.94643
1189.51451	30286.94643
1193.11091	29620.80357
1196.70485	28756.23214
1200.29634	27942.94643
1203.88538	27286.23214
1207.47197	26678.51786
1211.05612	26041.66071
1214.63782	25645.66071
1218.21708	25532.08929
1221.79391	25484.08929
1225.36829	25590.66071
1228.94024	25571.23214
1232.50976	25346.08929
1236.07685	25133.80357
1239.6415	25055.08929
1243.20374	25034.23214
1246.76355	25137.80357
1250.32093	25276.94643
1253.8759	25545.66071
1257.42845	25871.23214
1260.97859	26195.08929
1264.52631	26522.94643
1268.07163	26877.23214
1271.61453	27282.80357
1275.15503	27664.375
1278.69312	27989.23214
1282.22882	28314.66071
1285.76211	28523.80357
1289.29301	28805.80357
1292.82151	29281.23214
1296.34761	29832.94643
1299.87133	30660.66071
1303.39266	31781.23214
1306.9116	33214.375
1310.42815	34846.94643
1313.94233	35787.51786
1317.45412	35667.23214
1320.96354	34734.08929
1324.47058	33615.375
1327.97525	32549.23214
1331.47754	31847.08929
1334.97747	31401.66071
1338.47502	31349.51786
1341.97022	31571.08929
1345.46305	32003.51786
1348.95352	32568.08929
1352.44163	33498.80357
1355.92738	34710.66071
1359.41078	36394.08929
1362.89183	37805.66071
1366.37053	37352.375
1369.84688	34560.51786
1373.32088	31376.66071
1376.79254	29239.94643
1380.26186	28151.51786
1383.72883	27602.51786
1387.19347	27265.80357
1390.65578	26815.375
1394.11575	26454.94643
1397.57339	26341.23214
1401.0287	26429.23214
1404.48168	26539.08929
1407.93234	26594.51786
1411.38068	26623.08929
1414.82669	26560.08929
1418.27039	26397.51786
1421.71177	26116.51786
1425.15083	25785.51786
1428.58758	25527.08929
1432.02203	25522.80357
1435.45416	25675.94643
1438.88399	25931.66071
1442.31151	26037.51786
1445.73673	26168.80357
1449.15965	26246.80357
1452.58027	26221.66071
1455.9986	26189.375
1459.41463	26226.94643
1462.82837	26371.94643
1466.23982	26660.94643
1469.64898	27103.80357
1473.05586	27386.94643
1476.46045	27573.94643
1479.86276	27711.66071
1483.26279	27734.375
1486.66054	27748.80357
1490.05602	27890.94643
1493.44922	28171.23214
1496.84016	28553.80357
1500.22882	29218.375
1503.61521	30327.94643
1506.99934	31540.375
1510.38121	32565.08929
1513.76081	32814.08929
1517.13816	31947.66071
1520.51324	30495.94643
1523.88607	29065.23214
1527.25665	28188.375
1530.62498	27689.23214
1533.99105	27453.08929
1537.35488	27303.94643
1540.71647	27199.94643
1544.07581	27090.51786
1547.4329	26892.66071
1550.78776	26786.51786
1554.14038	26611.66071
1557.49077	26601.66071
1560.83892	26605.80357
1564.18484	26716.94643
1567.52853	26866.375
1570.86999	27029.375
1574.20922	27205.80357
1577.54624	27195.66071
1580.88103	26956.66071
1584.2136	26443.51786
1587.54395	26335.66071
1590.87208	26656.66071
1594.19801	27501.375
1597.52172	28642.23214
1600.84321	29313.80357
1604.16251	29037.94643
1607.47959	28056.08929
1610.79447	26949.08929
1614.10715	25812.23214
1617.41763	24832.51786
1620.7259	24082.66071
1624.03199	23587.51786
1627.33587	23509.375
1630.63757	23694.375
1633.93707	24198.51786
1637.23439	25107.66071
1640.52951	26507.80357
1643.82246	28218.66071
1647.11321	29798.375
1650.40179	30437.23214
1653.68819	29480.80357
1656.97241	27350.66071
1660.25446	25153.08929
1663.53433	23573.51786
1666.81203	22563.51786
1670.08756	21928.80357
1673.36092	21539.94643
1676.63211	21230.23214
1679.90115	21066.94643
1683.16801	20851.94643
1686.43272	20724.23214
1689.69527	20598.08929
1692.95567	20503.08929
1696.2139	20427.94643
1699.46999	20411.08929
1702.72392	20380.375
1705.97571	20340.08929
1709.22535	20315.80357
1712.47284	20305.08929
1715.71819	20301.66071
1718.96139	20205.94643
1722.20246	20158.66071
1725.44139	20122.66071
1728.67818	20049.51786
1731.91284	19984.08929
1735.14537	19943.94643
1738.37576	19918.66071
1741.60403	19876.80357
1744.83017	19782.80357
1748.05418	19781.94643
1751.27607	19824.80357
1754.49584	19761.80357
1757.71349	19723.66071
1760.92903	19740.51786
1764.14244	19704.66071
1767.35375	19657.23214
1770.56294	19588.66071
1773.77002	19511.80357
1776.97499	19486.94643
1780.17785	19473.23214
1783.37861	19410.23214
1786.57727	19361.80357
1789.77382	19325.23214
1792.96828	19282.66071
1796.16064	19213.94643
1799.3509	19120.80357
1802.53907	19121.23214
1805.72514	19066.375
1808.90913	19030.80357
1812.09102	18989.80357
1815.27083	18956.80357
1818.44856	18962.23214
1821.6242	18921.51786
1824.79776	18935.80357
1827.96924	18876.08929
1831.13864	18831.23214
1834.30597	18827.08929
1837.47122	18782.08929
1840.6344	18807.23214
1843.7955	18810.51786
1846.95454	18768.66071
1850.11151	18774.66071
1853.26642	18714.23214
1856.41926	18704.80357
1859.57004	18706.66071
1862.71876	18694.94643
1865.86542	18687.51786
1869.01003	18668.94643
1872.15258	18642.80357
1875.29308	18644.375
1878.43152	18590.375
1881.56792	18594.66071
1884.70227	18582.08929
1887.83457	18502.23214
1890.96482	18526.66071
1894.09304	18490.51786
1897.21921	18452.80357
1900.34335	18466.375
1903.46544	18438.51786
1906.58551	18404.66071
1909.70353	18365.94643
1912.81953	18369.08929
1915.93349	18359.23214
1919.04543	18328.94643
1922.15534	18280.08929
1925.26322	18242.94643
1928.36908	18232.94643
1931.47292	18205.08929
1934.57473	18209.80357
1937.67453	18164.375
1940.77232	18124.08929
1943.86808	18030.23214
1946.96184	17981.80357
1950.05358	17950.23214
1953.14331	17892.80357
1956.23103	17876.80357
1959.31675	17838.51786
1962.40046	17764.23214
1965.48217	17711.375
1968.56188	17667.80357
1971.63959	17619.66071
1974.7153	17585.66071
1977.78901	17558.66071
1980.86073	17490.375
1983.93046	17406.66071
1986.99819	17357.375
1990.06394	17294.94643
1993.1277	17268.66071
1996.18947	17229.375
1999.24925	17172.94643
2002.30706	17097.08929
2005.36288	17052.66071
2008.41672	16996.51786
2011.46859	16922.94643
2014.51848	16889.51786
2017.56639	16827.08929
2020.61233	16786.23214
2023.6563	16784.94643
2026.6983	16713.08929
2029.73833	16716.08929
2032.7764	16635.375
2035.8125	16621.51786
2038.84664	16578.94643
2041.87881	16578.94643
2044.90903	16524.08929
2047.93729	16488.08929
2050.96359	16516.51786
2053.98794	16452.08929
2057.01034	16465.08929
2060.03078	16466.08929
2063.04927	16409.80357
2066.06582	16415.80357
2069.08042	16410.66071
2072.09307	16408.51786
2075.10378	16386.51786
2078.11255	16383.08929
2081.11938	16388.51786
2084.12426	16383.08929
2087.12722	16359.94643
2090.12824	16366.375
2093.12732	16361.08929
2096.12447	16355.80357
2099.11969	16374.08929
2102.11299	16356.23214
2105.10435	16327.375
2108.09379	16363.51786
2111.08131	16361.66071
2114.0669	16400.375
2117.05057	16406.51786
2120.03233	16392.375
2123.01216	16451.08929
2125.99008	16465.08929
2128.96609	16494.23214
2131.94018	16479.08929
2134.91236	16485.94643
2137.88263	16461.66071
2140.851	16511.94643
2143.81746	16494.23214
2146.78201	16516.51786
2149.74466	16495.80357
2152.7054	16534.51786
2155.66425	16514.66071
2158.6212	16497.23214
2161.57625	16496.80357
2164.52941	16492.08929
2167.48067	16475.51786
2170.43004	16451.375
2173.37752	16488.51786
2176.32311	16495.23214
2179.26681	16461.375
2182.20863	16480.94643
2185.14856	16474.23214
2188.08661	16471.375
2191.02278	16474.94643
2193.95707	16438.66071
2196.88948	16417.66071
2199.82001	16424.23214
2202.74867	16389.80357
2205.67545	16399.51786
2208.60037	16354.94643
2211.52341	16367.08929
2214.44458	16344.08929
2217.36388	16305.94643
2220.28132	16269.94643
2223.1969	16207.94643
2226.11061	16256.80357
2229.02246	16121.80357
2231.93245	16143.23214
2234.84058	16094.08929
2237.74686	16079.66071
2240.65128	16081.66071
2243.55385	16080.23214
2246.45456	16077.23214
2249.35343	16026.80357
2252.25044	15989.66071
2255.14561	15994.80357
2258.03893	15984.80357
2260.93041	15980.51786
2263.82004	15882.94643
2266.70783	15869.08929
2269.59378	15850.08929
2272.4779	15755.23214
2275.36017	15787.80357
2278.24061	15727.51786
2281.11922	15667.375
2283.996	15667.66071
2286.87094	15673.23214
2289.74405	15625.23214
2292.61534	15623.51786
2295.4848	15577.51786
2298.35243	15634.66071
2301.21824	15632.23214
2304.08223	15558.23214
2306.94439	15564.375
2309.80474	15535.94643
2312.66327	15543.375
2315.51999	15545.80357
2318.37489	15516.08929
2321.22797	15491.23214
2324.07925	15446.08929
2326.92871	15435.94643
2329.77637	15428.80357
2332.62222	15426.66071
2335.46626	15406.66071
2338.3085	15352.80357
2341.14893	15342.66071
2343.98756	15381.94643
2346.8244	15340.08929
2349.65943	15352.80357
2352.49267	15321.51786
2355.32411	15282.23214
2358.15376	15318.66071
2360.98161	15304.94643
2363.80768	15280.66071
2366.63195	15251.08929
2369.45444	15242.23214
2372.27514	15181.66071
2375.09405	15179.94643
2377.91118	15183.80357
2380.72652	15148.23214
2383.54009	15076.80357
2386.35187	15064.66071
2389.16188	15029.08929
2391.97011	15015.94643
2394.77657	14957.80357
2397.58125	15004.08929
2400.38416	14950.23214
2403.18529	14918.94643
2405.98466	14893.08929
2408.78226	14864.51786
2411.57809	14863.51786
2414.37216	14831.94643
2417.16446	14813.80357
2419.955	14823.66071
2422.74378	14817.51786
2425.5308	14753.51786
2428.31606	14765.08929
2431.09956	14755.375
2433.88131	14732.80357
2436.6613	14666.08929
2439.43954	14751.51786
2442.21603	14678.23214
2444.99077	14697.66071
2447.76377	14664.08929
2450.53501	14688.51786
2453.30451	14636.23214
2456.07226	14630.08929
2458.83827	14630.66071
2461.60254	14612.94643
2464.36507	14563.66071
2467.12586	14570.375
2469.88492	14553.23214
2472.64224	14521.23214
2475.39782	14543.94643
2478.15167	14538.08929
2480.90379	14525.375
2483.65417	14552.66071
2486.40283	14527.66071
2489.14976	14536.80357
2491.89497	14524.08929
2494.63845	14529.80357
2497.3802	14522.375
2500.12024	14507.51786
2502.85855	14480.66071
2505.59514	14457.80357
2508.33002	14434.94643
2511.06318	14400.08929
2513.79462	14414.375
2516.52435	14375.80357
2519.25237	14354.375
2521.97867	14360.08929
2524.70327	14341.80357
2527.42616	14351.66071
2530.14734	14304.375
2532.86681	14287.08929
2535.58458	14308.51786
2538.30065	14242.51786
2541.01501	14263.51786
2543.72768	14225.66071
2546.43864	14181.80357
2549.14791	14192.08929
2551.85548	14180.375
2554.56136	14128.94643
2557.26554	14106.80357
2559.96803	14121.51786
2562.66883	14064.375
2565.36794	14025.66071
2568.06536	14025.66071
2570.7611	14009.23214
2573.45514	13989.80357
2576.14751	13960.80357
2578.83819	13888.94643
2581.52719	13937.94643
2584.21451	13894.80357
2586.90015	13872.08929
2589.58411	13883.66071
2592.2664	13837.80357
2594.94701	13810.375
2597.62594	13799.23214
2600.30321	13761.51786
2602.9788	13749.23214
2605.65273	13699.94643
2608.32498	13761.80357
2610.99557	13743.375
2613.66449	13706.51786
2616.33175	13682.94643
2618.99734	13686.66071
2621.66128	13617.66071
2624.32355	13640.80357
2626.98416	13630.51786
2629.64311	13592.08929
2632.30041	13608.375
2634.95605	13563.51786
2637.61004	13556.375
2640.26238	13554.80357
2642.91306	13514.80357
2645.56209	13506.08929
2648.20948	13507.375
2650.85521	13491.51786
2653.4993	13507.08929
2656.14175	13533.51786
2658.78255	13502.80357
2661.42171	13506.23214
2664.05923	13523.66071
2666.6951	13524.94643
2669.32934	13541.94643
2671.96194	13528.66071
2674.59291	13535.51786
2677.22224	13491.08929
2679.84993	13490.94643
2682.476	13461.51786
2685.10043	13484.51786
2687.72324	13459.94643
2690.34441	13464.08929
2692.96396	13473.80357
2695.58188	13485.51786
2698.19818	13451.94643
2700.81285	13461.51786
2703.4259	13423.66071
2706.03733	13466.66071
2708.64714	13480.23214
2711.25533	13491.94643
2713.86191	13462.51786
2716.46687	13478.66071
2719.07021	13494.23214
2721.67194	13450.08929
2724.27206	13444.375
2726.87057	13452.08929
2729.46747	13439.08929
2732.06276	13432.66071
2734.65644	13436.51786
2737.24852	13433.08929
2739.83899	13431.94643
2742.42786	13397.66071
2745.01513	13373.23214
2747.60079	13353.80357
2750.18486	13338.66071
2752.76733	13323.94643
2755.3482	13329.80357
2757.92747	13358.80357
2760.50515	13314.94643
2763.08123	13307.51786
2765.65573	13211.66071
2768.22863	13275.94643
2770.79994	13259.08929
2773.36967	13238.94643
2775.9378	13227.08929
2778.50435	13198.08929
2781.06932	13182.08929
2783.6327	13209.08929
2786.1945	13168.23214
2788.75471	13156.23214
2791.31335	13112.51786
2793.87041	13130.375
2796.42589	13071.375
2798.97979	13060.51786
2801.53212	13022.51786
2804.08288	13009.08929
2806.63206	12970.08929
2809.17967	12947.51786
2811.72571	12938.375
2814.27018	12913.23214
2816.81308	12874.66071
2819.35442	12854.94643
2821.89419	12857.66071
2824.43239	12843.23214
2826.96904	12864.08929
2829.50412	12818.375
2832.03763	12760.375
2834.56959	12786.66071
2837.1	12776.08929
2839.62884	12760.51786
2842.15613	12756.23214
2844.68186	12754.08929
2847.20604	12733.51786
2849.72867	12741.94643
2852.24974	12725.94643
2854.76927	12736.375
2857.28724	12673.66071
2859.80367	12665.375
2862.31855	12682.23214
2864.83189	12651.08929
2867.34368	12615.375
2869.85393	12625.23214
2872.36264	12599.51786
2874.8698	12559.375
2877.37543	12602.80357
2879.87952	12598.80357
2882.38207	12588.94643
2884.88308	12584.375
2887.38256	12574.51786
2889.88051	12591.375
2892.37692	12629.66071
2894.8718	12600.66071
2897.36515	12616.375
2899.85698	12634.66071
2902.34727	12659.51786
2904.83604	12679.51786
2907.32328	12689.51786
2909.809	12666.80357
2912.29319	12700.51786
2914.77587	12704.80357
2917.25702	12707.375
2919.73665	12722.94643
2922.21476	12714.375
2924.69136	12755.51786
2927.16644	12693.23214
2929.64	12695.80357
2932.11205	12701.08929
2934.58258	12637.80357
2937.05161	12649.51786
2939.51912	12675.08929
2941.98513	12664.94643
2944.44962	12661.94643
2946.91261	12626.375
2949.37409	12616.23214
2951.83407	12601.08929
2954.29254	12623.08929
2956.74951	12562.51786
2959.20498	12590.08929
2961.65895	12575.51786
2964.11142	12594.80357
2966.56239	12516.23214
2969.01186	12513.94643
2971.45984	12485.80357
2973.90632	12476.375
2976.35131	12465.80357
2978.7948	12448.23214
2981.23681	12408.94643
2983.67732	12388.23214
2986.11635	12369.23214
2988.55388	12347.51786
2990.98993	12318.23214
2993.4245	12289.94643
2995.85758	12282.80357
2998.28917	12257.375
3000.71928	12234.375
3003.14791	12198.80357
3005.57506	12223.94643
3008.00073	12186.23214
3010.42493	12147.375
3012.84764	12138.66071
3015.26888	12129.51786
3017.68865	12082.94643
3020.10694	12118.66071
3022.52376	12074.51786
3024.9391	12038.94643
3027.35298	12051.66071
3029.76539	11997.23214
3032.17632	12054.375
3034.5858	12024.375
3036.9938	12006.23214
3039.40034	11991.08929
3041.80542	11978.375
3044.20903	11948.08929
3046.61118	11943.94643
3049.01187	11938.51786
3051.4111	11925.375
3053.80888	11877.23214
3056.20519	11875.08929
3058.60005	11857.94643
3060.99345	11832.94643
3063.3854	11798.23214
3065.7759	11774.08929
3068.16494	11758.23214
3070.55254	11724.23214
3072.93868	11719.08929
3075.32338	11672.66071
3077.70662	11675.08929
3080.08842	11645.51786
3082.46878	11624.23214
3084.84769	11609.80357
3087.22515	11645.80357
3089.60118	11630.66071
3091.97576	11645.80357
3094.3489	11631.23214
3096.72061	11682.375
3099.09087	11632.51786
3101.4597	11644.80357
3103.82709	11651.94643
3106.19305	11644.80357
3108.55757	11653.375
3110.92066	11620.94643
3113.28232	11628.66071
3115.64255	11597.80357
3118.00134	11564.08929
3120.35871	11558.375
3122.71466	11530.80357
3125.06917	11511.80357
3127.42226	11479.375
3129.77393	11524.375
3132.12417	11488.08929
3134.47299	11500.51786
3136.82039	11510.23214
3139.16636	11495.375
3141.51092	11512.375
3143.85406	11517.23214
3146.19579	11523.66071
3148.53609	11513.08929
3150.87499	11544.375
3153.21246	11500.375
3155.54853	11559.66071
3157.88318	11547.51786
3160.21642	11562.51786
3162.54826	11582.375
3164.87868	11583.23214
3167.2077	11578.375
3169.5353	11559.08929
3171.86151	11603.51786
3174.18631	11582.51786
3176.5097	11581.80357
3178.83169	11553.66071
3181.15228	11528.94643
3183.47147	11512.23214
3185.78926	11491.80357
3188.10565	11510.23214
3190.42065	11505.80357
3192.73424	11509.375
3195.04645	11505.08929
3197.35725	11526.23214
3199.66667	11511.08929
3201.97469	11537.375
3204.28132	11477.94643
3206.58656	11512.51786
3208.8904	11552.375
3211.19287	11548.08929
3213.49394	11585.375
3215.79363	11573.80357
3218.09193	11590.66071
3220.38884	11578.66071
3222.68438	11578.94643
3224.97853	11561.80357
3227.2713	11578.94643
3229.56269	11551.375
3231.8527	11555.375
3234.14133	11534.23214
3236.42858	11486.66071
3238.71446	11493.08929
3240.99896	11482.80357
3243.28209	11417.66071
3245.56384	11390.94643
3247.84423	11421.80357
3250.12324	11439.94643
3252.40088	11458.66071
3254.67715	11447.66071
3256.95205	11422.23214
3259.22558	11403.08929
3261.49775	11395.66071
3263.76855	11368.80357
3266.03799	11371.23214
3268.30606	11388.66071
3270.57277	11338.23214
3272.83812	11318.375
3275.10211	11276.66071
3277.36474	11278.23214
3279.62601	11275.94643
3281.88593	11257.80357
3284.14448	11297.51786
3286.40168	11283.66071
3288.65753	11251.66071
3290.91202	11251.66071
3293.16516	11232.80357
3295.41695	11201.375
3297.66738	11138.94643
3299.91647	11077.94643
3302.16421	11016.08929
3304.4106	10976.94643
3306.65564	10926.94643
3308.89933	10854.94643
3311.14169	10805.80357
3313.38269	10671.94643
3315.62236	10639.51786
3317.86068	10573.80357
3320.09766	10503.51786
3322.3333	10397.23214
3324.5676	10367.80357
3326.80056	10202.51786
3329.03219	10190.23214
3331.26248	2.375
3333.49143	-0.05357
3335.71905	-0.625
