Data from AgNPs_FTO_APTES_UA_20uM_CRN_100uM_R6G_10uM_NaF_0.1M_Addition_RamanShift__1__17-19-44-862.txt Node

Date: Thu Feb 17 17:19:44 GMT 2022
User: TCL
Spectrometer: QEP01345
Trigger mode: 4
Integration Time (sec): 1.000000E1
Scans to average: 7
Electric dark correction enabled: true
Nonlinearity correction enabled: false
Boxcar width: 0
XAxis mode: Raman Shifts
Number of Pixels in Spectrum: 1044
>>>>>Begin Spectral Data<<<<<
46.04893	-0.44643
50.45542	-0.58929
54.85868	-1.44643
59.25871	-3.16071
63.6555	85.26786
68.04907	88.83929
72.43941	92.26786
76.82654	97.55357
81.21044	99.26786
85.59113	101.83929
89.96862	111.83929
94.34289	108.125
98.71396	116.26786
103.08183	115.55357
107.4465	122.55357
111.80798	122.41071
116.16626	121.83929
120.52136	129.83929
124.87327	136.98214
129.222	137.125
133.56755	146.26786
137.90993	159.55357
142.24913	165.69643
146.58517	189.55357
150.91804	219.26786
155.24774	256.26786
159.57429	316.125
163.89768	406.41071
168.21792	530.83929
172.53501	733.125
176.84895	1021.69643
181.15975	1443.98214
185.46741	2036.55357
189.77193	2816.83929
194.07331	3775.26786
198.37157	4914.69643
202.6667	6105.125
206.9587	7279.41071
211.24758	8398.125
215.53334	9549.98214
219.81599	10719.26786
224.09553	12029.69643
228.37195	13449.41071
232.64527	15100.69643
236.91549	16746.83929
241.18261	18493.41071
245.44663	20074.55357
249.70755	21557.41071
253.96539	22834.41071
258.22014	23894.125
262.4718	24712.83929
266.72039	25343.83929
270.96589	25638.69643
275.20832	25641.55357
279.44768	25394.26786
283.68397	25001.55357
287.91719	24685.55357
292.14735	24461.69643
296.37445	24339.55357
300.59849	24378.55357
304.81948	24558.55357
309.03742	24671.125
313.25231	24771.69643
317.46415	24556.26786
321.67296	24283.69643
325.87872	23934.69643
330.08145	23852.26786
334.28114	23883.83929
338.47781	24086.41071
342.67145	24411.55357
346.86207	24831.55357
351.04966	25353.26786
355.23424	25854.41071
359.4158	26207.26786
363.59435	26522.55357
367.76989	26760.26786
371.94243	26834.83929
376.11196	26978.125
380.27849	27159.83929
384.44203	27303.98214
388.60257	27527.55357
392.76012	27654.55357
396.91468	27886.41071
401.06626	28196.98214
405.21485	28430.83929
409.36047	28396.41071
413.50311	28158.69643
417.64277	27828.98214
421.77947	27790.98214
425.9132	27840.41071
430.04396	27978.41071
434.17176	28166.55357
438.2966	28448.55357
442.41849	28846.83929
446.53742	29554.125
450.6534	30237.98214
454.76644	30580.98214
458.87653	30627.98214
462.98368	30459.69643
467.08789	30207.98214
471.18916	29869.26786
475.2875	29430.26786
479.38291	29014.26786
483.4754	28669.69643
487.56496	28482.26786
491.6516	28380.69643
495.73531	28363.125
499.81612	28405.55357
503.89401	28616.98214
507.96899	28750.98214
512.04106	28789.125
516.11023	28834.69643
520.1765	28912.125
524.23987	28937.69643
528.30034	29067.125
532.35792	28957.83929
536.41261	28847.69643
540.46441	28576.55357
544.51333	28465.55357
548.55936	28550.26786
552.60252	28872.26786
556.64279	29218.26786
560.6802	29510.83929
564.71473	29517.98214
568.7464	29473.55357
572.7752	29679.55357
576.80114	29882.26786
580.82422	30165.69643
584.84444	30806.83929
588.86181	31824.55357
592.87633	33071.41071
596.888	33748.125
600.89682	33196.26786
604.9028	33134.69643
608.90594	35030.83929
612.90624	37574.98214
616.90371	36394.98214
620.89834	32051.98214
624.89015	29981.83929
628.87913	29670.55357
632.86528	29804.125
636.84862	29879.26786
640.82913	29687.98214
644.80683	29224.125
648.78172	28907.55357
652.75379	28946.98214
656.72306	29284.69643
660.68952	29671.125
664.65319	29608.98214
668.61405	29271.98214
672.57211	29255.83929
676.52738	29375.125
680.47986	29403.98214
684.42955	29264.125
688.37646	29139.83929
692.32058	29241.26786
696.26192	29489.69643
700.20048	29739.26786
704.13626	29986.41071
708.06928	29794.98214
711.99952	29649.69643
715.927	29655.83929
719.85171	29714.83929
723.77365	29740.26786
727.69284	29580.83929
731.60928	29436.26786
735.52295	29354.83929
739.43388	29425.98214
743.34206	29551.83929
747.24749	29619.83929
751.15017	29666.55357
755.05012	29820.83929
758.94733	30265.83929
762.8418	31182.83929
766.73354	32803.41071
770.62254	34409.69643
774.50882	35085.26786
778.39237	34314.98214
782.27321	32719.125
786.15132	31194.83929
790.02671	30248.55357
793.89938	29768.98214
797.76935	29574.41071
801.6366	29532.69643
805.50115	29392.83929
809.36299	29376.125
813.22213	29209.69643
817.07857	29150.125
820.93231	29134.26786
824.78336	29157.55357
828.63172	29183.125
832.47738	29256.69643
836.32036	29240.83929
840.16066	29326.41071
843.99827	29378.83929
847.8332	29376.69643
851.66546	29357.41071
855.49504	29392.98214
859.32195	29461.41071
863.1462	29445.41071
866.96777	29447.69643
870.78668	29435.41071
874.60293	29482.69643
878.41652	29557.41071
882.22745	29662.55357
886.03573	29726.55357
889.84136	29723.125
893.64433	29635.41071
897.44466	29533.41071
901.24235	29517.98214
905.0374	29376.83929
908.8298	29287.69643
912.61957	29279.83929
916.40671	29324.125
920.19121	29487.98214
923.97308	29629.83929
927.75233	29752.98214
931.52895	29774.41071
935.30295	29627.83929
939.07433	29359.55357
942.84309	29195.69643
946.60924	29067.41071
950.37278	29004.26786
954.13371	28927.41071
957.89203	28834.83929
961.64774	28824.125
965.40086	28806.83929
969.15137	28770.83929
972.89929	28759.55357
976.64461	28836.41071
980.38733	28857.69643
984.12747	28995.55357
987.86502	29100.69643
991.59999	29362.98214
995.33237	29570.83929
999.06217	30018.41071
1002.78939	30478.83929
1006.51404	30850.55357
1010.23611	31151.69643
1013.95561	31395.41071
1017.67255	31518.69643
1021.38692	31314.83929
1025.09872	31084.26786
1028.80796	30961.41071
1032.51465	31140.83929
1036.21877	31500.55357
1039.92035	31571.98214
1043.61937	31503.125
1047.31584	31219.69643
1051.00976	30974.69643
1054.70114	30776.69643
1058.38998	30709.55357
1062.07627	30803.125
1065.76003	30904.55357
1069.44126	31002.98214
1073.11995	31282.55357
1076.79611	31630.69643
1080.46974	31907.125
1084.14085	32110.98214
1087.80943	32253.26786
1091.47549	32336.83929
1095.13903	32260.26786
1098.80005	31901.41071
1102.45857	31614.98214
1106.11456	31388.26786
1109.76805	31402.69643
1113.41903	31487.125
1117.06751	31661.83929
1120.71348	31889.26786
1124.35696	32204.69643
1127.99793	32443.55357
1131.63641	32533.26786
1135.2724	32343.98214
1138.90589	32092.69643
1142.5369	31886.83929
1146.16542	31837.98214
1149.79145	31812.83929
1153.415	31702.125
1157.03607	31660.55357
1160.65467	32038.98214
1164.27079	32765.26786
1167.88443	33648.98214
1171.49561	34819.69643
1175.10432	36474.26786
1178.71056	38614.83929
1182.31434	40564.98214
1185.91565	41614.26786
1189.51451	41416.83929
1193.11091	40483.125
1196.70485	39306.125
1200.29634	38209.55357
1203.88538	37190.83929
1207.47197	36265.69643
1211.05612	35554.98214
1214.63782	34925.69643
1218.21708	34693.41071
1221.79391	34558.69643
1225.36829	34725.26786
1228.94024	34732.98214
1232.50976	34442.69643
1236.07685	34059.98214
1239.6415	33811.69643
1243.20374	33830.41071
1246.76355	33978.83929
1250.32093	34291.83929
1253.8759	34659.69643
1257.42845	35188.83929
1260.97859	35832.55357
1264.52631	36458.98214
1268.07163	37134.69643
1271.61453	37777.69643
1275.15503	38337.26786
1278.69312	38824.41071
1282.22882	39190.26786
1285.76211	39778.26786
1289.29301	40527.26786
1292.82151	41439.41071
1296.34761	42496.98214
1299.87133	44030.125
1303.39266	45910.98214
1306.9116	48170.55357
1310.42815	50452.83929
1313.94233	51696.41071
1317.45412	51204.69643
1320.96354	49531.26786
1324.47058	47588.98214
1327.97525	45901.69643
1331.47754	44722.125
1334.97747	44043.98214
1338.47502	43920.125
1341.97022	43990.125
1345.46305	44361.55357
1348.95352	45209.69643
1352.44163	46514.41071
1355.92738	48420.41071
1359.41078	51053.55357
1362.89183	53005.125
1366.37053	52132.125
1369.84688	48162.26786
1373.32088	43681.26786
1376.79254	40607.26786
1380.26186	39248.41071
1383.72883	38716.98214
1387.19347	38180.69643
1390.65578	37580.41071
1394.11575	37124.69643
1397.57339	37091.98214
1401.0287	37162.83929
1404.48168	37225.69643
1407.93234	37192.55357
1411.38068	37178.41071
1414.82669	37090.26786
1418.27039	36809.125
1421.71177	36422.98214
1425.15083	35849.26786
1428.58758	35653.55357
1432.02203	35879.26786
1435.45416	36341.41071
1438.88399	36758.41071
1442.31151	36950.55357
1445.73673	36954.26786
1449.15965	36986.98214
1452.58027	36776.69643
1455.9986	36589.83929
1459.41463	36595.41071
1462.82837	36908.69643
1466.23982	37478.125
1469.64898	38132.83929
1473.05586	38596.55357
1476.46045	38977.55357
1479.86276	39162.69643
1483.26279	39287.83929
1486.66054	39466.98214
1490.05602	39880.55357
1493.44922	40466.41071
1496.84016	41120.55357
1500.22882	42140.98214
1503.61521	43518.55357
1506.99934	45098.83929
1510.38121	46226.55357
1513.76081	46060.41071
1517.13816	44588.41071
1520.51324	42427.83929
1523.88607	40667.55357
1527.25665	39673.69643
1530.62498	39265.55357
1533.99105	39038.26786
1537.35488	38784.69643
1540.71647	38465.125
1544.07581	38137.69643
1547.4329	37791.98214
1550.78776	37473.98214
1554.14038	37156.125
1557.49077	37050.98214
1560.83892	36988.26786
1564.18484	37167.26786
1567.52853	37419.55357
1570.86999	37698.98214
1574.20922	37986.41071
1577.54624	38135.83929
1580.88103	37733.125
1584.2136	37242.83929
1587.54395	37322.98214
1590.87208	38223.83929
1594.19801	39816.125
1597.52172	41696.83929
1600.84321	42719.55357
1604.16251	42145.98214
1607.47959	40405.125
1610.79447	38256.98214
1614.10715	36215.69643
1617.41763	34590.125
1620.7259	33471.83929
1624.03199	32957.41071
1627.33587	32929.41071
1630.63757	33367.69643
1633.93707	34362.26786
1637.23439	36164.83929
1640.52951	38794.55357
1643.82246	42259.98214
1647.11321	45028.98214
1650.40179	45719.83929
1653.68819	43340.55357
1656.97241	39283.98214
1660.25446	35574.125
1663.53433	33039.83929
1666.81203	31533.83929
1670.08756	30648.69643
1673.36092	30060.125
1676.63211	29656.69643
1679.90115	29375.98214
1683.16801	29156.125
1686.43272	28977.69643
1689.69527	28809.69643
1692.95567	28752.55357
1696.2139	28694.125
1699.46999	28654.83929
1702.72392	28638.26786
1705.97571	28577.26786
1709.22535	28540.125
1712.47284	28564.41071
1715.71819	28549.41071
1718.96139	28511.98214
1722.20246	28432.41071
1725.44139	28364.41071
1728.67818	28320.26786
1731.91284	28165.55357
1735.14537	28037.98214
1738.37576	28063.98214
1741.60403	27967.55357
1744.83017	27962.125
1748.05418	27922.26786
1751.27607	27834.55357
1754.49584	27824.125
1757.71349	27829.98214
1760.92903	27869.55357
1764.14244	27807.55357
1767.35375	27807.55357
1770.56294	27715.125
1773.77002	27697.83929
1776.97499	27722.83929
1780.17785	27743.69643
1783.37861	27650.125
1786.57727	27617.26786
1789.77382	27606.125
1792.96828	27586.69643
1796.16064	27538.125
1799.3509	27437.125
1802.53907	27455.55357
1805.72514	27372.69643
1808.90913	27361.69643
1812.09102	27312.41071
1815.27083	27250.41071
1818.44856	27267.26786
1821.6242	27217.55357
1824.79776	27176.55357
1827.96924	27164.26786
1831.13864	27131.55357
1834.30597	27186.26786
1837.47122	27164.98214
1840.6344	27125.26786
1843.7955	27169.125
1846.95454	27155.125
1850.11151	27127.83929
1853.26642	27107.125
1856.41926	27057.83929
1859.57004	27022.98214
1862.71876	27032.83929
1865.86542	27022.41071
1869.01003	27053.83929
1872.15258	27034.41071
1875.29308	26987.69643
1878.43152	26904.26786
1881.56792	26938.69643
1884.70227	26946.125
1887.83457	26920.83929
1890.96482	26861.83929
1894.09304	26887.83929
1897.21921	26839.41071
1900.34335	26831.26786
1903.46544	26819.26786
1906.58551	26801.69643
1909.70353	26780.98214
1912.81953	26725.83929
1915.93349	26713.125
1919.04543	26680.83929
1922.15534	26649.98214
1925.26322	26603.69643
1928.36908	26567.83929
1931.47292	26488.69643
1934.57473	26461.83929
1937.67453	26419.125
1940.77232	26406.98214
1943.86808	26339.125
1946.96184	26233.83929
1950.05358	26191.98214
1953.14331	26146.98214
1956.23103	26120.125
1959.31675	26096.83929
1962.40046	25978.125
1965.48217	25909.69643
1968.56188	25858.125
1971.63959	25783.55357
1974.7153	25678.98214
1977.78901	25671.26786
1980.86073	25577.26786
1983.93046	25521.55357
1986.99819	25421.125
1990.06394	25379.26786
1993.1277	25323.98214
1996.18947	25288.69643
1999.24925	25179.98214
2002.30706	25131.55357
2005.36288	25077.83929
2008.41672	24985.41071
2011.46859	24956.98214
2014.51848	24916.98214
2017.56639	24810.83929
2020.61233	24765.26786
2023.6563	24719.69643
2026.6983	24678.55357
2029.73833	24656.83929
2032.7764	24598.98214
2035.8125	24558.55357
2038.84664	24518.98214
2041.87881	24459.26786
2044.90903	24487.69643
2047.93729	24432.55357
2050.96359	24366.125
2053.98794	24355.69643
2057.01034	24312.26786
2060.03078	24280.83929
2063.04927	24296.83929
2066.06582	24333.83929
2069.08042	24284.26786
2072.09307	24257.41071
2075.10378	24301.125
2078.11255	24246.125
2081.11938	24292.69643
2084.12426	24335.26786
2087.12722	24352.125
2090.12824	24251.83929
2093.12732	24264.83929
2096.12447	24273.41071
2099.11969	24285.55357
2102.11299	24372.41071
2105.10435	24350.83929
2108.09379	24387.83929
2111.08131	24380.26786
2114.0669	24409.69643
2117.05057	24423.41071
2120.03233	24436.55357
2123.01216	24452.41071
2125.99008	24491.83929
2128.96609	24586.69643
2131.94018	24606.83929
2134.91236	24607.125
2137.88263	24627.41071
2140.851	24608.69643
2143.81746	24685.125
2146.78201	24659.69643
2149.74466	24706.125
2152.7054	24749.55357
2155.66425	24717.69643
2158.6212	24643.125
2161.57625	24700.55357
2164.52941	24669.41071
2167.48067	24630.26786
2170.43004	24718.83929
2173.37752	24676.41071
2176.32311	24690.98214
2179.26681	24691.55357
2182.20863	24708.83929
2185.14856	24759.125
2188.08661	24830.98214
2191.02278	24793.55357
2193.95707	24758.26786
2196.88948	24710.69643
2199.82001	24710.83929
2202.74867	24714.98214
2205.67545	24696.83929
2208.60037	24700.41071
2211.52341	24647.41071
2214.44458	24620.41071
2217.36388	24567.55357
2220.28132	24551.26786
2223.1969	24486.69643
2226.11061	24488.125
2229.02246	24373.41071
2231.93245	24380.41071
2234.84058	24302.55357
2237.74686	24292.69643
2240.65128	24304.98214
2243.55385	24326.98214
2246.45456	24326.41071
2249.35343	24252.55357
2252.25044	24230.125
2255.14561	24205.125
2258.03893	24182.69643
2260.93041	24138.26786
2263.82004	24056.69643
2266.70783	24016.125
2269.59378	24021.125
2272.4779	23955.98214
2275.36017	23877.26786
2278.24061	23875.26786
2281.11922	23838.41071
2283.996	23877.26786
2286.87094	23789.69643
2289.74405	23776.41071
2292.61534	23741.41071
2295.4848	23747.125
2298.35243	23763.69643
2301.21824	23742.83929
2304.08223	23751.83929
2306.94439	23751.69643
2309.80474	23730.125
2312.66327	23741.83929
2315.51999	23734.83929
2318.37489	23716.98214
2321.22797	23675.125
2324.07925	23642.98214
2326.92871	23638.69643
2329.77637	23541.83929
2332.62222	23544.69643
2335.46626	23557.26786
2338.3085	23535.125
2341.14893	23511.98214
2343.98756	23487.26786
2346.8244	23460.26786
2349.65943	23440.69643
2352.49267	23463.125
2355.32411	23469.55357
2358.15376	23450.98214
2360.98161	23423.55357
2363.80768	23372.26786
2366.63195	23409.55357
2369.45444	23379.55357
2372.27514	23361.125
2375.09405	23346.69643
2377.91118	23292.41071
2380.72652	23279.125
2383.54009	23181.26786
2386.35187	23173.83929
2389.16188	23118.55357
2391.97011	23101.55357
2394.77657	23066.125
2397.58125	23054.83929
2400.38416	23045.55357
2403.18529	23055.83929
2405.98466	23015.41071
2408.78226	22950.55357
2411.57809	22900.55357
2414.37216	22885.83929
2417.16446	22909.83929
2419.955	22863.41071
2422.74378	22827.83929
2425.5308	22824.125
2428.31606	22793.41071
2431.09956	22787.41071
2433.88131	22739.98214
2436.6613	22809.125
2439.43954	22803.69643
2442.21603	22750.125
2444.99077	22750.41071
2447.76377	22747.83929
2450.53501	22731.83929
2453.30451	22707.41071
2456.07226	22744.98214
2458.83827	22737.83929
2461.60254	22704.98214
2464.36507	22630.98214
2467.12586	22605.26786
2469.88492	22635.26786
2472.64224	22647.83929
2475.39782	22607.55357
2478.15167	22638.41071
2480.90379	22649.98214
2483.65417	22701.83929
2486.40283	22688.41071
2489.14976	22697.26786
2491.89497	22632.26786
2494.63845	22697.55357
2497.3802	22674.41071
2500.12024	22654.41071
2502.85855	22618.125
2505.59514	22601.83929
2508.33002	22573.41071
2511.06318	22556.69643
2513.79462	22535.55357
2516.52435	22520.125
2519.25237	22531.125
2521.97867	22491.125
2524.70327	22494.41071
2527.42616	22503.55357
2530.14734	22427.41071
2532.86681	22361.69643
2535.58458	22386.98214
2538.30065	22391.125
2541.01501	22376.83929
2543.72768	22332.83929
2546.43864	22313.41071
2549.14791	22283.98214
2551.85548	22256.98214
2554.56136	22251.41071
2557.26554	22168.98214
2559.96803	22186.83929
2562.66883	22165.69643
2565.36794	22123.83929
2568.06536	22102.125
2570.7611	22101.83929
2573.45514	22071.83929
2576.14751	22037.98214
2578.83819	21989.41071
2581.52719	21954.55357
2584.21451	21961.98214
2586.90015	21899.125
2589.58411	21882.41071
2592.2664	21883.83929
2594.94701	21824.55357
2597.62594	21820.26786
2600.30321	21754.98214
2602.9788	21757.26786
2605.65273	21737.41071
2608.32498	21736.26786
2610.99557	21752.98214
2613.66449	21714.26786
2616.33175	21694.98214
2618.99734	21713.83929
2621.66128	21735.69643
2624.32355	21666.98214
2626.98416	21637.98214
2629.64311	21573.55357
2632.30041	21567.26786
2634.95605	21549.98214
2637.61004	21566.41071
2640.26238	21444.41071
2642.91306	21499.83929
2645.56209	21511.69643
2648.20948	21522.98214
2650.85521	21496.69643
2653.4993	21486.41071
2656.14175	21496.41071
2658.78255	21434.26786
2661.42171	21450.98214
2664.05923	21497.125
2666.6951	21528.83929
2669.32934	21520.41071
2671.96194	21505.26786
2674.59291	21508.26786
2677.22224	21479.83929
2679.84993	21515.41071
2682.476	21502.55357
2685.10043	21488.55357
2687.72324	21461.26786
2690.34441	21456.98214
2692.96396	21512.98214
2695.58188	21503.41071
2698.19818	21495.83929
2700.81285	21464.69643
2703.4259	21467.125
2706.03733	21484.26786
2708.64714	21505.55357
2711.25533	21535.83929
2713.86191	21532.26786
2716.46687	21580.83929
2719.07021	21608.125
2721.67194	21579.41071
2724.27206	21561.125
2726.87057	21613.26786
2729.46747	21599.125
2732.06276	21559.55357
2734.65644	21567.125
2737.24852	21553.83929
2739.83899	21514.69643
2742.42786	21515.69643
2745.01513	21445.83929
2747.60079	21475.55357
2750.18486	21447.55357
2752.76733	21509.41071
2755.3482	21421.55357
2757.92747	21470.83929
2760.50515	21430.69643
2763.08123	21403.41071
2765.65573	21384.69643
2768.22863	21392.41071
2770.79994	21339.98214
2773.36967	21324.83929
2775.9378	21274.125
2778.50435	21253.26786
2781.06932	21274.125
2783.6327	21274.26786
2786.1945	21220.69643
2788.75471	21208.83929
2791.31335	21156.83929
2793.87041	21146.98214
2796.42589	21138.69643
2798.97979	21124.69643
2801.53212	21080.69643
2804.08288	21037.83929
2806.63206	20994.55357
2809.17967	20992.83929
2811.72571	20921.98214
2814.27018	20890.41071
2816.81308	20838.125
2819.35442	20835.55357
2821.89419	20751.83929
2824.43239	20714.55357
2826.96904	20740.83929
2829.50412	20698.41071
2832.03763	20693.55357
2834.56959	20725.98214
2837.1	20700.125
2839.62884	20649.83929
2842.15613	20603.83929
2844.68186	20634.26786
2847.20604	20608.55357
2849.72867	20608.83929
2852.24974	20617.83929
2854.76927	20620.83929
2857.28724	20595.83929
2859.80367	20592.41071
2862.31855	20530.69643
2864.83189	20519.83929
2867.34368	20509.55357
2869.85393	20507.69643
2872.36264	20456.98214
2874.8698	20451.125
2877.37543	20457.41071
2879.87952	20451.69643
2882.38207	20432.125
2884.88308	20405.83929
2887.38256	20429.83929
2889.88051	20460.83929
2892.37692	20452.98214
2894.8718	20447.69643
2897.36515	20488.69643
2899.85698	20509.26786
2902.34727	20520.69643
2904.83604	20546.55357
2907.32328	20579.26786
2909.809	20540.69643
2912.29319	20585.26786
2914.77587	20534.125
2917.25702	20544.125
2919.73665	20563.125
2922.21476	20581.69643
2924.69136	20558.98214
2927.16644	20626.98214
2929.64	20528.41071
2932.11205	20528.125
2934.58258	20460.83929
2937.05161	20512.83929
2939.51912	20515.83929
2941.98513	20504.41071
2944.44962	20442.98214
2946.91261	20409.55357
2949.37409	20479.55357
2951.83407	20493.69643
2954.29254	20478.69643
2956.74951	20441.98214
2959.20498	20465.125
2961.65895	20381.26786
2964.11142	20391.41071
2966.56239	20365.83929
2969.01186	20373.125
2971.45984	20364.55357
2973.90632	20368.83929
2976.35131	20327.55357
2978.7948	20294.26786
2981.23681	20234.55357
2983.67732	20279.125
2986.11635	20194.83929
2988.55388	20155.69643
2990.98993	20157.98214
2993.4245	20145.83929
2995.85758	20092.83929
2998.28917	20029.55357
3000.71928	19995.26786
3003.14791	19952.125
3005.57506	19965.55357
3008.00073	19929.41071
3010.42493	19927.55357
3012.84764	19901.26786
3015.26888	19899.26786
3017.68865	19842.98214
3020.10694	19855.98214
3022.52376	19809.26786
3024.9391	19829.41071
3027.35298	19754.69643
3029.76539	19702.41071
3032.17632	19725.69643
3034.5858	19693.69643
3036.9938	19698.69643
3039.40034	19686.83929
3041.80542	19677.69643
3044.20903	19643.55357
3046.61118	19643.26786
3049.01187	19629.69643
3051.4111	19615.55357
3053.80888	19550.55357
3056.20519	19527.98214
3058.60005	19480.125
3060.99345	19490.55357
3063.3854	19410.26786
3065.7759	19393.41071
3068.16494	19353.41071
3070.55254	19315.55357
3072.93868	19248.55357
3075.32338	19229.41071
3077.70662	19243.26786
3080.08842	19178.98214
3082.46878	19146.26786
3084.84769	19129.125
3087.22515	19137.83929
3089.60118	19173.55357
3091.97576	19165.125
3094.3489	19181.125
3096.72061	19205.26786
3099.09087	19192.69643
3101.4597	19137.125
3103.82709	19199.125
3106.19305	19174.41071
3108.55757	19182.55357
3110.92066	19151.26786
3113.28232	19102.41071
3115.64255	19073.83929
3118.00134	19034.83929
3120.35871	19034.83929
3122.71466	18988.41071
3125.06917	18919.83929
3127.42226	18892.41071
3129.77393	18896.125
3132.12417	18847.55357
3134.47299	18893.83929
3136.82039	18888.125
3139.16636	18863.55357
3141.51092	18865.69643
3143.85406	18890.98214
3146.19579	18900.26786
3148.53609	18870.26786
3150.87499	18853.26786
3153.21246	18868.55357
3155.54853	18960.26786
3157.88318	18919.69643
3160.21642	18986.41071
3162.54826	18948.98214
3164.87868	18977.41071
3167.2077	18953.26786
3169.5353	18989.125
3171.86151	18986.98214
3174.18631	18942.98214
3176.5097	18926.26786
3178.83169	18908.98214
3181.15228	18899.125
3183.47147	18853.55357
3185.78926	18871.26786
3188.10565	18886.55357
3190.42065	18861.98214
3192.73424	18848.26786
3195.04645	18797.98214
3197.35725	18800.26786
3199.66667	18777.41071
3201.97469	18802.55357
3204.28132	18757.125
3206.58656	18846.125
3208.8904	18832.83929
3211.19287	18878.55357
3213.49394	18844.83929
3215.79363	18865.83929
3218.09193	18854.41071
3220.38884	18875.98214
3222.68438	18921.98214
3224.97853	18915.26786
3227.2713	18858.69643
3229.56269	18808.98214
3231.8527	18838.26786
3234.14133	18838.98214
3236.42858	18728.83929
3238.71446	18745.26786
3240.99896	18672.83929
3243.28209	18666.26786
3245.56384	18625.26786
3247.84423	18696.69643
3250.12324	18631.41071
3252.40088	18678.26786
3254.67715	18627.98214
3256.95205	18628.69643
3259.22558	18608.125
3261.49775	18633.69643
3263.76855	18599.26786
3266.03799	18589.83929
3268.30606	18548.55357
3270.57277	18549.69643
3272.83812	18504.98214
3275.10211	18453.41071
3277.36474	18430.26786
3279.62601	18428.69643
3281.88593	18395.83929
3284.14448	18409.26786
3286.40168	18403.26786
3288.65753	18390.26786
3290.91202	18364.41071
3293.16516	18356.125
3295.41695	18332.26786
3297.66738	18211.26786
3299.91647	18152.98214
3302.16421	18031.26786
3304.4106	17986.125
3306.65564	17856.98214
3308.89933	17757.83929
3311.14169	17609.55357
3313.38269	17480.125
3315.62236	17377.98214
3317.86068	17291.55357
3320.09766	17193.69643
3322.3333	17036.98214
3324.5676	16971.55357
3326.80056	16762.41071
3329.03219	16622.26786
3331.26248	3.98214
3333.49143	-0.73214
3335.71905	0.69643
