Data from AgNPs_FTO_APTES_UA_20uM_CRN_100uM_R6G_10uM_NaF_0.1M_Addition_RamanShift__24__17-46-34-896.txt Node

Date: Thu Feb 17 17:46:34 GMT 2022
User: TCL
Spectrometer: QEP01345
Trigger mode: 4
Integration Time (sec): 1.000000E1
Scans to average: 7
Electric dark correction enabled: true
Nonlinearity correction enabled: false
Boxcar width: 0
XAxis mode: Raman Shifts
Number of Pixels in Spectrum: 1044
>>>>>Begin Spectral Data<<<<<
46.04893	-1.76786
50.45542	-0.33929
54.85868	-0.91071
59.25871	-1.625
63.6555	71.80357
68.04907	71.08929
72.43941	79.23214
76.82654	84.94643
81.21044	82.08929
85.59113	90.51786
89.96862	92.80357
94.34289	91.51786
98.71396	97.375
103.08183	102.94643
107.4465	103.51786
111.80798	104.08929
116.16626	104.66071
120.52136	108.375
124.87327	111.08929
129.222	115.66071
133.56755	120.66071
137.90993	138.23214
142.24913	137.66071
146.58517	154.375
150.91804	175.08929
155.24774	211.51786
159.57429	258.375
163.89768	329.80357
168.21792	430.375
172.53501	592.23214
176.84895	821.375
181.15975	1144.80357
185.46741	1609.23214
189.77193	2248.23214
194.07331	3010.80357
198.37157	3914.66071
202.6667	4862.375
206.9587	5837.23214
211.24758	6792.51786
215.53334	7805.80357
219.81599	8942.08929
224.09553	10239.375
228.37195	11618.23214
232.64527	13188.66071
236.91549	14719.94643
241.18261	16130.375
245.44663	17347.66071
249.70755	18403.08929
253.96539	19221.94643
258.22014	19868.66071
262.4718	20371.80357
266.72039	20662.94643
270.96589	20615.80357
275.20832	20375.375
279.44768	19912.94643
283.68397	19456.23214
287.91719	19105.375
292.14735	19087.94643
296.37445	19633.66071
300.59849	20573.51786
304.81948	21764.08929
309.03742	22708.51786
313.25231	22803.80357
317.46415	21788.66071
321.67296	20091.94643
325.87872	18578.80357
330.08145	17897.80357
334.28114	17928.08929
338.47781	18283.94643
342.67145	18940.375
346.86207	19858.08929
351.04966	21263.94643
355.23424	22809.94643
359.4158	24027.23214
363.59435	24600.94643
367.76989	24664.23214
371.94243	24545.66071
376.11196	24378.08929
380.27849	24143.08929
384.44203	23846.23214
388.60257	23430.23214
392.76012	23147.66071
396.91468	23243.94643
401.06626	23764.51786
405.21485	24227.23214
409.36047	23806.23214
413.50311	22426.08929
417.64277	21028.80357
421.77947	20281.80357
425.9132	19978.80357
430.04396	19950.94643
434.17176	20028.80357
438.2966	20342.66071
442.41849	20985.08929
446.53742	21616.80357
450.6534	22280.08929
454.76644	22618.08929
458.87653	22646.375
462.98368	22367.66071
467.08789	21929.94643
471.18916	21433.80357
475.2875	20841.08929
479.38291	20363.23214
483.4754	19993.66071
487.56496	19755.66071
491.6516	19625.66071
495.73531	19527.94643
499.81612	19539.66071
503.89401	19778.23214
507.96899	20157.08929
512.04106	20645.375
516.11023	21138.66071
520.1765	21562.66071
524.23987	21558.80357
528.30034	21236.51786
532.35792	20892.08929
536.41261	20473.66071
540.46441	19990.80357
544.51333	19741.80357
548.55936	19736.51786
552.60252	20073.66071
556.64279	20575.375
560.6802	20808.94643
564.71473	21196.23214
568.7464	22107.80357
572.7752	22589.80357
576.80114	21709.375
580.82422	20632.51786
584.84444	20217.51786
588.86181	20242.94643
592.87633	20555.375
596.888	20957.08929
600.89682	21720.94643
604.9028	24316.66071
608.90594	31686.23214
612.90624	41905.375
616.90371	40833.375
620.89834	28528.51786
624.89015	22480.80357
628.87913	21389.375
632.86528	21534.80357
636.84862	21813.08929
640.82913	21459.375
644.80683	20435.23214
648.78172	19739.08929
652.75379	19731.23214
656.72306	20601.23214
660.68952	21728.51786
664.65319	21440.23214
668.61405	20323.66071
672.57211	19792.66071
676.52738	19787.94643
680.47986	19799.23214
684.42955	19637.66071
688.37646	19590.80357
692.32058	19635.23214
696.26192	19796.08929
700.20048	20053.66071
704.13626	20200.94643
708.06928	20089.08929
711.99952	19860.66071
715.927	19869.08929
719.85171	20004.23214
723.77365	20048.375
727.69284	19986.51786
731.60928	19818.51786
735.52295	19805.23214
739.43388	19900.94643
743.34206	20027.51786
747.24749	20133.80357
751.15017	20162.94643
755.05012	20474.23214
758.94733	21469.23214
762.8418	23836.23214
766.73354	27790.80357
770.62254	31728.375
774.50882	34128.80357
778.39237	33438.80357
782.27321	29166.94643
786.15132	24506.80357
790.02671	21867.51786
793.89938	20661.80357
797.76935	20280.94643
801.6366	20079.23214
805.50115	19954.94643
809.36299	19961.23214
813.22213	19942.23214
817.07857	19890.80357
820.93231	19831.08929
824.78336	19923.08929
828.63172	20030.23214
832.47738	20123.51786
836.32036	20051.66071
840.16066	19932.23214
843.99827	19908.375
847.8332	19854.375
851.66546	19862.23214
855.49504	19889.375
859.32195	19882.80357
863.1462	19787.66071
866.96777	19780.08929
870.78668	19761.66071
874.60293	19846.375
878.41652	19953.66071
882.22745	20056.80357
886.03573	20207.51786
889.84136	20158.66071
893.64433	20057.23214
897.44466	20027.94643
901.24235	20026.08929
905.0374	19910.51786
908.8298	19806.94643
912.61957	19678.51786
916.40671	19688.51786
920.19121	19783.08929
923.97308	19949.80357
927.75233	20308.94643
931.52895	20715.94643
935.30295	20566.94643
939.07433	20009.51786
942.84309	19529.94643
946.60924	19239.80357
950.37278	19103.23214
954.13371	19020.375
957.89203	18949.94643
961.64774	18836.51786
965.40086	18811.51786
969.15137	18733.23214
972.89929	18709.80357
976.64461	18729.08929
980.38733	18727.375
984.12747	18802.94643
987.86502	18940.08929
991.59999	19083.23214
995.33237	19321.51786
999.06217	19861.51786
1002.78939	20355.66071
1006.51404	20787.80357
1010.23611	21125.66071
1013.95561	21329.66071
1017.67255	21388.80357
1021.38692	21166.94643
1025.09872	20995.66071
1028.80796	21041.23214
1032.51465	21374.51786
1036.21877	21797.80357
1039.92035	21922.51786
1043.61937	21772.66071
1047.31584	21421.80357
1051.00976	21054.23214
1054.70114	20741.375
1058.38998	20642.375
1062.07627	20640.375
1065.76003	20628.80357
1069.44126	20661.94643
1073.11995	20796.66071
1076.79611	21110.08929
1080.46974	21575.94643
1084.14085	22215.80357
1087.80943	22770.08929
1091.47549	22898.375
1095.13903	22436.08929
1098.80005	21717.94643
1102.45857	21217.80357
1106.11456	21124.94643
1109.76805	21430.51786
1113.41903	22075.23214
1117.06751	22936.51786
1120.71348	24163.94643
1124.35696	25408.94643
1127.99793	26211.375
1131.63641	25697.66071
1135.2724	24296.66071
1138.90589	23058.08929
1142.5369	22288.80357
1146.16542	21820.51786
1149.79145	21491.80357
1153.415	21410.80357
1157.03607	21533.23214
1160.65467	21874.375
1164.27079	22499.80357
1167.88443	23538.08929
1171.49561	25224.08929
1175.10432	28001.94643
1178.71056	31841.375
1182.31434	34951.08929
1185.91565	35758.66071
1189.51451	34684.375
1193.11091	32310.375
1196.70485	29908.94643
1200.29634	28241.23214
1203.88538	27070.94643
1207.47197	25516.23214
1211.05612	24138.08929
1214.63782	23408.66071
1218.21708	23225.51786
1221.79391	23166.375
1225.36829	23234.51786
1228.94024	23227.51786
1232.50976	23106.66071
1236.07685	22988.23214
1239.6415	23068.08929
1243.20374	23362.08929
1246.76355	23594.66071
1250.32093	23972.66071
1253.8759	24502.08929
1257.42845	25182.375
1260.97859	25927.23214
1264.52631	26632.80357
1268.07163	27310.94643
1271.61453	27886.51786
1275.15503	28263.23214
1278.69312	28565.80357
1282.22882	28861.23214
1285.76211	29413.80357
1289.29301	30256.375
1292.82151	31090.08929
1296.34761	32082.51786
1299.87133	33809.23214
1303.39266	36863.66071
1306.9116	41582.08929
1310.42815	46391.375
1313.94233	48145.51786
1317.45412	45606.80357
1320.96354	41181.23214
1324.47058	36851.51786
1327.97525	33721.80357
1331.47754	31967.80357
1334.97747	31697.08929
1338.47502	32516.66071
1341.97022	34117.94643
1345.46305	36225.94643
1348.95352	38811.94643
1352.44163	42030.08929
1355.92738	46968.66071
1359.41078	54222.51786
1362.89183	59717.23214
1366.37053	56039.23214
1369.84688	46706.80357
1373.32088	38772.08929
1376.79254	33777.80357
1380.26186	30890.375
1383.72883	29214.66071
1387.19347	28029.375
1390.65578	26936.94643
1394.11575	26065.08929
1397.57339	25723.66071
1401.0287	25780.80357
1404.48168	25970.80357
1407.93234	26371.51786
1411.38068	26918.80357
1414.82669	27366.23214
1418.27039	27313.375
1421.71177	26997.23214
1425.15083	26585.51786
1428.58758	26485.80357
1432.02203	26751.94643
1435.45416	26961.08929
1438.88399	26969.80357
1442.31151	26813.08929
1445.73673	26885.375
1449.15965	26992.80357
1452.58027	26826.23214
1455.9986	26524.23214
1459.41463	26333.23214
1462.82837	26538.80357
1466.23982	27102.23214
1469.64898	27624.51786
1473.05586	27993.80357
1476.46045	28341.80357
1479.86276	28805.375
1483.26279	29586.94643
1486.66054	30525.66071
1490.05602	31723.375
1493.44922	33372.66071
1496.84016	35795.08929
1500.22882	39542.66071
1503.61521	44870.94643
1506.99934	50983.94643
1510.38121	55771.23214
1513.76081	56334.23214
1517.13816	51739.66071
1520.51324	44405.66071
1523.88607	37922.08929
1527.25665	33784.80357
1530.62498	31570.375
1533.99105	30302.51786
1537.35488	29583.66071
1540.71647	29352.80357
1544.07581	29408.08929
1547.4329	29606.94643
1550.78776	29776.375
1554.14038	29838.23214
1557.49077	29976.08929
1560.83892	30407.375
1564.18484	31179.51786
1567.52853	32072.375
1570.86999	32859.23214
1574.20922	33234.80357
1577.54624	32845.375
1580.88103	31158.94643
1584.2136	29041.94643
1587.54395	27998.94643
1590.87208	28359.51786
1594.19801	29947.375
1597.52172	32113.66071
1600.84321	33307.23214
1604.16251	32601.08929
1607.47959	30749.80357
1610.79447	28658.80357
1614.10715	26590.23214
1617.41763	25053.66071
1620.7259	24133.66071
1624.03199	23721.23214
1627.33587	23816.51786
1630.63757	24365.375
1633.93707	25455.80357
1637.23439	27119.51786
1640.52951	29535.08929
1643.82246	32972.66071
1647.11321	37058.08929
1650.40179	39755.80357
1653.68819	38170.94643
1656.97241	33211.23214
1660.25446	28231.23214
1663.53433	24800.80357
1666.81203	22862.375
1670.08756	21746.66071
1673.36092	21007.51786
1676.63211	20624.94643
1679.90115	20286.94643
1683.16801	20042.375
1686.43272	19867.375
1689.69527	19717.94643
1692.95567	19616.23214
1696.2139	19594.375
1699.46999	19589.66071
1702.72392	19524.66071
1705.97571	19528.375
1709.22535	19533.51786
1712.47284	19523.08929
1715.71819	19500.375
1718.96139	19534.66071
1722.20246	19424.66071
1725.44139	19353.80357
1728.67818	19294.80357
1731.91284	19176.66071
1735.14537	19083.51786
1738.37576	19023.66071
1741.60403	18917.23214
1744.83017	18885.375
1748.05418	18875.94643
1751.27607	18824.08929
1754.49584	18751.94643
1757.71349	18770.94643
1760.92903	18793.94643
1764.14244	18692.80357
1767.35375	18706.23214
1770.56294	18638.375
1773.77002	18589.51786
1776.97499	18595.94643
1780.17785	18549.80357
1783.37861	18544.80357
1786.57727	18472.08929
1789.77382	18486.94643
1792.96828	18415.80357
1796.16064	18425.08929
1799.3509	18408.80357
1802.53907	18394.66071
1805.72514	18339.51786
1808.90913	18274.66071
1812.09102	18279.94643
1815.27083	18219.66071
1818.44856	18194.66071
1821.6242	18161.94643
1824.79776	18136.23214
1827.96924	18087.375
1831.13864	18056.51786
1834.30597	18066.08929
1837.47122	18071.66071
1840.6344	18038.94643
1843.7955	18069.94643
1846.95454	18028.08929
1850.11151	18054.08929
1853.26642	18038.51786
1856.41926	18040.51786
1859.57004	18003.51786
1862.71876	18017.23214
1865.86542	18016.08929
1869.01003	18059.94643
1872.15258	18029.94643
1875.29308	18032.23214
1878.43152	18005.66071
1881.56792	18038.08929
1884.70227	18013.51786
1887.83457	18004.94643
1890.96482	17983.80357
1894.09304	17973.375
1897.21921	17988.80357
1900.34335	17988.94643
1903.46544	17942.375
1906.58551	17930.80357
1909.70353	17925.23214
1912.81953	17896.23214
1915.93349	17834.51786
1919.04543	17852.94643
1922.15534	17851.375
1925.26322	17817.51786
1928.36908	17782.08929
1931.47292	17754.375
1934.57473	17700.80357
1937.67453	17722.08929
1940.77232	17654.94643
1943.86808	17634.375
1946.96184	17545.08929
1950.05358	17506.375
1953.14331	17460.23214
1956.23103	17438.66071
1959.31675	17428.23214
1962.40046	17345.94643
1965.48217	17360.375
1968.56188	17303.80357
1971.63959	17276.94643
1974.7153	17187.23214
1977.78901	17118.375
1980.86073	17099.80357
1983.93046	17042.66071
1986.99819	16969.66071
1990.06394	16922.51786
1993.1277	16886.51786
1996.18947	16800.80357
1999.24925	16768.51786
2002.30706	16737.51786
2005.36288	16661.94643
2008.41672	16638.66071
2011.46859	16607.80357
2014.51848	16570.23214
2017.56639	16508.375
2020.61233	16478.94643
2023.6563	16456.51786
2026.6983	16388.23214
2029.73833	16351.80357
2032.7764	16350.51786
2035.8125	16336.23214
2038.84664	16285.94643
2041.87881	16254.66071
2044.90903	16258.08929
2047.93729	16207.66071
2050.96359	16205.51786
2053.98794	16181.08929
2057.01034	16151.80357
2060.03078	16132.80357
2063.04927	16083.80357
2066.06582	16080.80357
2069.08042	16104.23214
2072.09307	16104.94643
2075.10378	16082.94643
2078.11255	16056.80357
2081.11938	16066.66071
2084.12426	16088.23214
2087.12722	16081.94643
2090.12824	16068.51786
2093.12732	16044.23214
2096.12447	16076.375
2099.11969	16064.94643
2102.11299	16085.80357
2105.10435	16092.51786
2108.09379	16062.94643
2111.08131	16090.23214
2114.0669	16111.80357
2117.05057	16125.375
2120.03233	16135.66071
2123.01216	16142.94643
2125.99008	16200.23214
2128.96609	16214.80357
2131.94018	16235.94643
2134.91236	16248.80357
2137.88263	16205.08929
2140.851	16233.23214
2143.81746	16287.23214
2146.78201	16238.66071
2149.74466	16254.375
2152.7054	16281.08929
2155.66425	16285.08929
2158.6212	16212.66071
2161.57625	16219.94643
2164.52941	16207.80357
2167.48067	16193.51786
2170.43004	16213.51786
2173.37752	16196.08929
2176.32311	16201.80357
2179.26681	16204.80357
2182.20863	16210.66071
2185.14856	16250.66071
2188.08661	16230.66071
2191.02278	16275.80357
2193.95707	16221.94643
2196.88948	16212.08929
2199.82001	16233.375
2202.74867	16204.66071
2205.67545	16179.80357
2208.60037	16177.08929
2211.52341	16168.94643
2214.44458	16149.08929
2217.36388	16136.80357
2220.28132	16110.375
2223.1969	16063.08929
2226.11061	16028.51786
2229.02246	15985.23214
2231.93245	15975.94643
2234.84058	15931.80357
2237.74686	15910.94643
2240.65128	15912.375
2243.55385	15935.94643
2246.45456	15918.375
2249.35343	15877.51786
2252.25044	15868.80357
2255.14561	15858.23214
2258.03893	15854.23214
2260.93041	15835.375
2263.82004	15829.08929
2266.70783	15735.23214
2269.59378	15743.375
2272.4779	15713.94643
2275.36017	15699.23214
2278.24061	15652.23214
2281.11922	15638.51786
2283.996	15633.94643
2286.87094	15611.08929
2289.74405	15553.08929
2292.61534	15509.51786
2295.4848	15516.08929
2298.35243	15498.08929
2301.21824	15519.23214
2304.08223	15521.80357
2306.94439	15500.66071
2309.80474	15515.80357
2312.66327	15525.66071
2315.51999	15517.80357
2318.37489	15516.80357
2321.22797	15492.66071
2324.07925	15460.08929
2326.92871	15477.80357
2329.77637	15416.66071
2332.62222	15403.94643
2335.46626	15444.23214
2338.3085	15402.80357
2341.14893	15409.23214
2343.98756	15429.08929
2346.8244	15436.23214
2349.65943	15432.80357
2352.49267	15412.94643
2355.32411	15439.23214
2358.15376	15429.51786
2360.98161	15444.375
2363.80768	15441.94643
2366.63195	15421.375
2369.45444	15427.23214
2372.27514	15393.94643
2375.09405	15345.80357
2377.91118	15352.94643
2380.72652	15254.51786
2383.54009	15223.375
2386.35187	15186.23214
2389.16188	15150.08929
2391.97011	15119.80357
2394.77657	15083.51786
2397.58125	15058.08929
2400.38416	15059.51786
2403.18529	15012.66071
2405.98466	15031.66071
2408.78226	14964.23214
2411.57809	14917.375
2414.37216	14918.375
2417.16446	14846.66071
2419.955	14860.23214
2422.74378	14835.66071
2425.5308	14826.66071
2428.31606	14820.08929
2431.09956	14811.94643
2433.88131	14809.80357
2436.6613	14816.51786
2439.43954	14826.66071
2442.21603	14808.08929
2444.99077	14815.66071
2447.76377	14837.23214
2450.53501	14819.23214
2453.30451	14799.66071
2456.07226	14783.51786
2458.83827	14796.80357
2461.60254	14772.08929
2464.36507	14757.23214
2467.12586	14709.23214
2469.88492	14693.80357
2472.64224	14724.66071
2475.39782	14711.94643
2478.15167	14760.08929
2480.90379	14774.51786
2483.65417	14842.80357
2486.40283	14877.66071
2489.14976	14917.23214
2491.89497	14859.51786
2494.63845	14902.23214
2497.3802	14857.23214
2500.12024	14850.375
2502.85855	14845.66071
2505.59514	14795.08929
2508.33002	14712.23214
2511.06318	14685.375
2513.79462	14639.51786
2516.52435	14590.66071
2519.25237	14578.80357
2521.97867	14566.51786
2524.70327	14522.375
2527.42616	14495.08929
2530.14734	14477.66071
2532.86681	14487.94643
2535.58458	14457.08929
2538.30065	14474.80357
2541.01501	14467.66071
2543.72768	14473.23214
2546.43864	14496.375
2549.14791	14446.80357
2551.85548	14418.23214
2554.56136	14415.23214
2557.26554	14369.23214
2559.96803	14368.51786
2562.66883	14353.08929
2565.36794	14314.66071
2568.06536	14311.51786
2570.7611	14291.08929
2573.45514	14278.375
2576.14751	14260.66071
2578.83819	14215.23214
2581.52719	14212.51786
2584.21451	14181.08929
2586.90015	14202.08929
2589.58411	14163.375
2592.2664	14156.23214
2594.94701	14135.23214
2597.62594	14103.66071
2600.30321	14083.375
2602.9788	14081.23214
2605.65273	14078.375
2608.32498	14088.375
2610.99557	14113.94643
2613.66449	14086.94643
2616.33175	14079.08929
2618.99734	14099.375
2621.66128	14073.08929
2624.32355	14056.80357
2626.98416	14040.94643
2629.64311	14043.66071
2632.30041	14004.23214
2634.95605	13963.66071
2637.61004	14001.94643
2640.26238	13953.51786
2642.91306	13961.08929
2645.56209	13961.66071
2648.20948	13929.08929
2650.85521	13876.80357
2653.4993	13917.66071
2656.14175	13886.08929
2658.78255	13883.08929
2661.42171	13913.08929
2664.05923	13922.23214
2666.6951	13954.66071
2669.32934	13945.51786
2671.96194	13930.66071
2674.59291	13972.66071
2677.22224	14007.66071
2679.84993	13971.80357
2682.476	13968.51786
2685.10043	13967.80357
2687.72324	13916.66071
2690.34441	13907.80357
2692.96396	13918.23214
2695.58188	13933.08929
2698.19818	13906.94643
2700.81285	13907.94643
2703.4259	13904.23214
2706.03733	13927.08929
2708.64714	13950.23214
2711.25533	13945.375
2713.86191	13954.23214
2716.46687	13966.94643
2719.07021	13973.375
2721.67194	13961.94643
2724.27206	13973.23214
2726.87057	13963.51786
2729.46747	13943.80357
2732.06276	13944.66071
2734.65644	13922.94643
2737.24852	13897.80357
2739.83899	13893.23214
2742.42786	13894.80357
2745.01513	13864.80357
2747.60079	13865.375
2750.18486	13844.66071
2752.76733	13865.375
2755.3482	13815.94643
2757.92747	13837.23214
2760.50515	13824.23214
2763.08123	13815.23214
2765.65573	13766.66071
2768.22863	13790.66071
2770.79994	13739.375
2773.36967	13760.51786
2775.9378	13742.375
2778.50435	13731.66071
2781.06932	13714.23214
2783.6327	13723.23214
2786.1945	13720.23214
2788.75471	13723.80357
2791.31335	13688.375
2793.87041	13655.23214
2796.42589	13643.375
2798.97979	13670.94643
2801.53212	13624.375
2804.08288	13635.23214
2806.63206	13617.08929
2809.17967	13622.94643
2811.72571	13566.51786
2814.27018	13589.80357
2816.81308	13572.66071
2819.35442	13524.51786
2821.89419	13543.94643
2824.43239	13542.66071
2826.96904	13538.23214
2829.50412	13539.80357
2832.03763	13534.375
2834.56959	13525.51786
2837.1	13525.23214
2839.62884	13537.80357
2842.15613	13496.66071
2844.68186	13562.66071
2847.20604	13548.51786
2849.72867	13560.08929
2852.24974	13551.80357
2854.76927	13559.23214
2857.28724	13567.375
2859.80367	13562.94643
2862.31855	13531.94643
2864.83189	13549.51786
2867.34368	13504.80357
2869.85393	13547.51786
2872.36264	13544.23214
2874.8698	13499.375
2877.37543	13529.80357
2879.87952	13476.80357
2882.38207	13453.08929
2884.88308	13455.51786
2887.38256	13454.94643
2889.88051	13423.08929
2892.37692	13477.23214
2894.8718	13425.80357
2897.36515	13460.51786
2899.85698	13480.375
2902.34727	13493.66071
2904.83604	13507.80357
2907.32328	13477.51786
2909.809	13483.375
2912.29319	13473.23214
2914.77587	13486.66071
2917.25702	13457.23214
2919.73665	13449.51786
2922.21476	13468.375
2924.69136	13426.23214
2927.16644	13449.94643
2929.64	13376.66071
2932.11205	13384.23214
2934.58258	13334.80357
2937.05161	13374.80357
2939.51912	13346.08929
2941.98513	13358.66071
2944.44962	13307.94643
2946.91261	13273.66071
2949.37409	13268.08929
2951.83407	13271.375
2954.29254	13267.375
2956.74951	13241.94643
2959.20498	13240.23214
2961.65895	13160.08929
2964.11142	13186.08929
2966.56239	13161.80357
2969.01186	13190.375
2971.45984	13132.51786
2973.90632	13128.08929
2976.35131	13044.94643
2978.7948	13069.94643
2981.23681	13044.51786
2983.67732	13037.80357
2986.11635	12996.23214
2988.55388	12965.375
2990.98993	12979.94643
2993.4245	12956.375
2995.85758	12926.08929
2998.28917	12894.51786
3000.71928	12884.375
3003.14791	12851.66071
3005.57506	12860.375
3008.00073	12815.23214
3010.42493	12796.51786
3012.84764	12800.51786
3015.26888	12818.375
3017.68865	12804.08929
3020.10694	12742.94643
3022.52376	12745.08929
3024.9391	12711.94643
3027.35298	12690.08929
3029.76539	12671.51786
3032.17632	12642.23214
3034.5858	12641.80357
3036.9938	12604.94643
3039.40034	12608.51786
3041.80542	12567.375
3044.20903	12559.375
3046.61118	12555.51786
3049.01187	12520.94643
3051.4111	12533.23214
3053.80888	12520.80357
3056.20519	12491.23214
3058.60005	12424.08929
3060.99345	12432.94643
3063.3854	12374.66071
3065.7759	12313.23214
3068.16494	12311.08929
3070.55254	12284.08929
3072.93868	12238.51786
3075.32338	12223.51786
3077.70662	12209.94643
3080.08842	12169.08929
3082.46878	12146.94643
3084.84769	12133.375
3087.22515	12138.66071
3089.60118	12148.80357
3091.97576	12146.51786
3094.3489	12146.23214
3096.72061	12149.375
3099.09087	12124.80357
3101.4597	12126.66071
3103.82709	12125.23214
3106.19305	12129.375
3108.55757	12131.80357
3110.92066	12101.94643
3113.28232	12082.23214
3115.64255	12039.66071
3118.00134	12053.375
3120.35871	12014.94643
3122.71466	11998.66071
3125.06917	11985.23214
3127.42226	11952.94643
3129.77393	11976.94643
3132.12417	11974.23214
3134.47299	11931.375
3136.82039	11945.375
3139.16636	11939.51786
3141.51092	11961.66071
3143.85406	11983.08929
3146.19579	11979.66071
3148.53609	11965.375
3150.87499	12009.51786
3153.21246	12029.66071
3155.54853	12017.375
3157.88318	12018.375
3160.21642	12034.94643
3162.54826	12041.66071
3164.87868	12018.66071
3167.2077	12008.375
3169.5353	12024.66071
3171.86151	12038.94643
3174.18631	11995.375
3176.5097	12012.51786
3178.83169	11976.375
3181.15228	12001.80357
3183.47147	11966.80357
3185.78926	11999.94643
3188.10565	11982.94643
3190.42065	11979.94643
3192.73424	11986.08929
3195.04645	11977.66071
3197.35725	11966.51786
3199.66667	11948.51786
3201.97469	11990.94643
3204.28132	11967.08929
3206.58656	12020.08929
3208.8904	12022.23214
3211.19287	12041.94643
3213.49394	12041.80357
3215.79363	12025.80357
3218.09193	12048.23214
3220.38884	12101.375
3222.68438	12086.94643
3224.97853	12053.80357
3227.2713	12036.23214
3229.56269	12058.94643
3231.8527	12069.66071
3234.14133	12031.80357
3236.42858	11978.375
3238.71446	11984.23214
3240.99896	11957.51786
3243.28209	11926.80357
3245.56384	11943.80357
3247.84423	11941.51786
3250.12324	11909.08929
3252.40088	11929.94643
3254.67715	11927.51786
3256.95205	11917.375
3259.22558	11921.23214
3261.49775	11903.23214
3263.76855	11876.51786
3266.03799	11871.375
3268.30606	11882.80357
3270.57277	11846.80357
3272.83812	11845.23214
3275.10211	11810.94643
3277.36474	11810.94643
3279.62601	11788.94643
3281.88593	11796.23214
3284.14448	11770.51786
3286.40168	11738.66071
3288.65753	11765.80357
3290.91202	11744.375
3293.16516	11709.51786
3295.41695	11707.94643
3297.66738	11648.23214
3299.91647	11597.375
3302.16421	11527.51786
3304.4106	11474.66071
3306.65564	11439.51786
3308.89933	11316.80357
3311.14169	11243.08929
3313.38269	11179.66071
3315.62236	11128.08929
3317.86068	11031.23214
3320.09766	10961.51786
3322.3333	10854.66071
3324.5676	10822.51786
3326.80056	10660.375
3329.03219	10617.80357
3331.26248	2.80357
3333.49143	0.08929
3335.71905	0.08929
