Data from AgNPs_FTO_APTES_UA_10uM_CRN_50uM_R6G_10uM_NaF_0.1M_Addition_RamanShift__13__16-50-34-826.txt Node

Date: Thu Feb 17 16:50:34 GMT 2022
User: TCL
Spectrometer: QEP01345
Trigger mode: 4
Integration Time (sec): 1.000000E1
Scans to average: 7
Electric dark correction enabled: true
Nonlinearity correction enabled: false
Boxcar width: 0
XAxis mode: Raman Shifts
Number of Pixels in Spectrum: 1044
>>>>>Begin Spectral Data<<<<<
46.04893	0.16071
50.45542	-0.125
54.85868	-0.41071
59.25871	-1.98214
63.6555	69.44643
68.04907	70.875
72.43941	74.16071
76.82654	79.01786
81.21044	80.58929
85.59113	81.73214
89.96862	88.44643
94.34289	84.875
98.71396	88.73214
103.08183	90.16071
107.4465	96.73214
111.80798	98.73214
116.16626	96.58929
120.52136	105.44643
124.87327	108.58929
129.222	106.30357
133.56755	108.16071
137.90993	123.01786
142.24913	129.01786
146.58517	141.30357
150.91804	161.875
155.24774	189.44643
159.57429	238.16071
163.89768	291.16071
168.21792	374.875
172.53501	523.58929
176.84895	726.01786
181.15975	1022.01786
185.46741	1447.30357
189.77193	2010.44643
194.07331	2711.875
198.37157	3506.44643
202.6667	4332.73214
206.9587	5176.58929
211.24758	5994.73214
215.53334	6788.44643
219.81599	7629.16071
224.09553	8531.44643
228.37195	9544.58929
232.64527	10643.16071
236.91549	11823.875
241.18261	13016.73214
245.44663	14252.30357
249.70755	15394.16071
253.96539	16354.01786
258.22014	17160.01786
262.4718	17810.16071
266.72039	18265.30357
270.96589	18455.16071
275.20832	18460.73214
279.44768	18341.44643
283.68397	18050.16071
287.91719	17774.58929
292.14735	17534.44643
296.37445	17432.30357
300.59849	17356.73214
304.81948	17401.875
309.03742	17338.58929
313.25231	17252.01786
317.46415	17093.73214
321.67296	16899.01786
325.87872	16762.44643
330.08145	16762.01786
334.28114	16867.875
338.47781	17041.16071
342.67145	17294.875
346.86207	17528.73214
351.04966	17831.73214
355.23424	18129.16071
359.4158	18460.73214
363.59435	18794.875
367.76989	18996.01786
371.94243	19197.875
376.11196	19375.58929
380.27849	19481.01786
384.44203	19646.44643
388.60257	19683.16071
392.76012	19826.44643
396.91468	20007.30357
401.06626	20183.44643
405.21485	20345.44643
409.36047	20354.16071
413.50311	20236.44643
417.64277	20056.44643
421.77947	19962.44643
425.9132	19966.01786
430.04396	20061.01786
434.17176	20169.01786
438.2966	20269.30357
442.41849	20456.875
446.53742	20644.73214
450.6534	20893.44643
454.76644	21128.73214
458.87653	21237.30357
462.98368	21308.01786
467.08789	21299.875
471.18916	21342.01786
475.2875	21252.73214
479.38291	21181.44643
483.4754	21104.30357
487.56496	21093.30357
491.6516	21090.44643
495.73531	21120.30357
499.81612	21144.01786
503.89401	21253.875
507.96899	21363.875
512.04106	21421.01786
516.11023	21489.875
520.1765	21551.01786
524.23987	21616.16071
528.30034	21559.44643
532.35792	21588.73214
536.41261	21531.44643
540.46441	21444.73214
544.51333	21398.44643
548.55936	21470.16071
552.60252	21550.58929
556.64279	21699.30357
560.6802	21755.01786
564.71473	21847.73214
568.7464	21839.30357
572.7752	21869.16071
576.80114	21815.44643
580.82422	21759.01786
584.84444	21800.875
588.86181	21846.30357
592.87633	21894.30357
596.888	22006.44643
600.89682	22246.73214
604.9028	22838.875
608.90594	24313.73214
612.90624	25973.16071
616.90371	25540.58929
620.89834	23369.58929
624.89015	22344.875
628.87913	22195.58929
632.86528	22329.875
636.84862	22458.73214
640.82913	22454.16071
644.80683	22305.875
648.78172	22203.875
652.75379	22223.16071
656.72306	22389.58929
660.68952	22629.58929
664.65319	22674.16071
668.61405	22594.58929
672.57211	22604.73214
676.52738	22737.30357
680.47986	22796.44643
684.42955	22730.30357
688.37646	22708.58929
692.32058	22749.01786
696.26192	22853.58929
700.20048	22890.16071
704.13626	22989.16071
708.06928	22935.16071
711.99952	22834.73214
715.927	22790.44643
719.85171	22816.44643
723.77365	22842.73214
727.69284	22823.30357
731.60928	22795.16071
735.52295	22757.44643
739.43388	22764.44643
743.34206	22772.01786
747.24749	22818.30357
751.15017	22791.30357
755.05012	22797.875
758.94733	22998.01786
762.8418	23298.16071
766.73354	24026.875
770.62254	24848.73214
774.50882	25317.30357
778.39237	25176.44643
782.27321	24462.58929
786.15132	23752.58929
790.02671	23201.73214
793.89938	22962.44643
797.76935	22875.01786
801.6366	22796.16071
805.50115	22730.875
809.36299	22721.58929
813.22213	22701.58929
817.07857	22699.58929
820.93231	22713.16071
824.78336	22714.01786
828.63172	22759.16071
832.47738	22810.44643
836.32036	22778.58929
840.16066	22769.30357
843.99827	22793.58929
847.8332	22853.30357
851.66546	22808.58929
855.49504	22872.58929
859.32195	22894.875
863.1462	22944.875
866.96777	22941.875
870.78668	22991.01786
874.60293	23024.73214
878.41652	23059.01786
882.22745	23120.16071
886.03573	23140.44643
889.84136	23095.30357
893.64433	23065.58929
897.44466	23071.01786
901.24235	23019.44643
905.0374	22996.58929
908.8298	22941.30357
912.61957	22904.16071
916.40671	22893.44643
920.19121	22871.58929
923.97308	22918.01786
927.75233	22964.58929
931.52895	22934.875
935.30295	22923.73214
939.07433	22885.01786
942.84309	22743.30357
946.60924	22650.16071
950.37278	22601.58929
954.13371	22568.16071
957.89203	22594.73214
961.64774	22508.58929
965.40086	22464.875
969.15137	22470.30357
972.89929	22432.30357
976.64461	22462.16071
980.38733	22441.875
984.12747	22470.44643
987.86502	22495.44643
991.59999	22562.58929
995.33237	22573.16071
999.06217	22652.73214
1002.78939	22736.01786
1006.51404	22886.16071
1010.23611	22987.01786
1013.95561	23009.16071
1017.67255	23030.58929
1021.38692	23083.44643
1025.09872	23075.30357
1028.80796	22988.58929
1032.51465	22941.16071
1036.21877	22978.01786
1039.92035	23003.16071
1043.61937	23062.875
1047.31584	23082.58929
1051.00976	23094.875
1054.70114	23112.58929
1058.38998	23158.58929
1062.07627	23190.01786
1065.76003	23274.73214
1069.44126	23332.16071
1073.11995	23465.44643
1076.79611	23626.01786
1080.46974	23720.875
1084.14085	23742.73214
1087.80943	23804.01786
1091.47549	23822.58929
1095.13903	23806.73214
1098.80005	23751.875
1102.45857	23708.73214
1106.11456	23645.01786
1109.76805	23578.875
1113.41903	23576.58929
1117.06751	23574.16071
1120.71348	23655.16071
1124.35696	23777.01786
1127.99793	23866.44643
1131.63641	23989.30357
1135.2724	23797.44643
1138.90589	23617.875
1142.5369	23463.875
1146.16542	23350.58929
1149.79145	23209.01786
1153.415	23131.73214
1157.03607	23085.58929
1160.65467	23114.875
1164.27079	23283.73214
1167.88443	23529.73214
1171.49561	23878.44643
1175.10432	24431.875
1178.71056	25120.875
1182.31434	25796.875
1185.91565	26186.44643
1189.51451	26279.30357
1193.11091	26034.44643
1196.70485	25700.58929
1200.29634	25391.01786
1203.88538	24986.16071
1207.47197	24578.16071
1211.05612	24191.875
1214.63782	23896.30357
1218.21708	23777.58929
1221.79391	23672.44643
1225.36829	23588.01786
1228.94024	23565.30357
1232.50976	23550.875
1236.07685	23500.73214
1239.6415	23602.58929
1243.20374	23669.30357
1246.76355	23740.58929
1250.32093	23800.44643
1253.8759	23877.58929
1257.42845	24081.16071
1260.97859	24301.01786
1264.52631	24488.44643
1268.07163	24658.875
1271.61453	24782.01786
1275.15503	24901.16071
1278.69312	24960.30357
1282.22882	24940.16071
1285.76211	24926.30357
1289.29301	25067.875
1292.82151	25199.44643
1296.34761	25377.30357
1299.87133	25655.30357
1303.39266	26097.16071
1306.9116	26801.73214
1310.42815	27485.44643
1313.94233	27839.58929
1317.45412	27755.01786
1320.96354	27397.16071
1324.47058	26872.01786
1327.97525	26308.58929
1331.47754	25846.73214
1334.97747	25697.73214
1338.47502	25771.58929
1341.97022	25975.58929
1345.46305	26478.30357
1348.95352	27106.01786
1352.44163	27701.01786
1355.92738	28329.16071
1359.41078	29102.01786
1362.89183	29807.16071
1366.37053	29451.16071
1369.84688	27986.30357
1373.32088	26278.58929
1376.79254	25198.44643
1380.26186	24486.73214
1383.72883	24098.73214
1387.19347	23801.58929
1390.65578	23460.16071
1394.11575	23141.58929
1397.57339	22925.58929
1401.0287	22796.73214
1404.48168	22683.58929
1407.93234	22673.875
1411.38068	22750.875
1414.82669	22738.58929
1418.27039	22752.44643
1421.71177	22725.30357
1425.15083	22695.73214
1428.58758	22588.16071
1432.02203	22488.01786
1435.45416	22553.58929
1438.88399	22486.73214
1442.31151	22452.73214
1445.73673	22455.73214
1449.15965	22490.58929
1452.58027	22518.44643
1455.9986	22493.73214
1459.41463	22506.16071
1462.82837	22561.875
1466.23982	22782.01786
1469.64898	22930.58929
1473.05586	23082.16071
1476.46045	23234.44643
1479.86276	23326.875
1483.26279	23470.44643
1486.66054	23592.30357
1490.05602	23811.01786
1493.44922	24162.16071
1496.84016	24678.16071
1500.22882	25425.73214
1503.61521	26466.01786
1506.99934	27549.44643
1510.38121	28223.16071
1513.76081	28260.73214
1517.13816	27517.58929
1520.51324	26387.73214
1523.88607	25318.58929
1527.25665	24521.73214
1530.62498	24139.01786
1533.99105	23808.875
1537.35488	23677.73214
1540.71647	23596.01786
1544.07581	23542.44643
1547.4329	23554.30357
1550.78776	23571.73214
1554.14038	23560.44643
1557.49077	23590.01786
1560.83892	23668.58929
1564.18484	23834.30357
1567.52853	24022.30357
1570.86999	24184.30357
1574.20922	24301.73214
1577.54624	24299.73214
1580.88103	24027.875
1584.2136	23628.44643
1587.54395	23369.44643
1590.87208	23347.01786
1594.19801	23549.01786
1597.52172	23885.16071
1600.84321	24097.30357
1604.16251	24028.01786
1607.47959	23886.58929
1610.79447	23545.01786
1614.10715	23106.16071
1617.41763	22707.01786
1620.7259	22350.44643
1624.03199	22156.16071
1627.33587	22037.58929
1630.63757	22030.16071
1633.93707	22142.73214
1637.23439	22420.16071
1640.52951	22928.58929
1643.82246	23668.30357
1647.11321	24511.73214
1650.40179	25025.58929
1653.68819	24818.01786
1656.97241	23890.01786
1660.25446	22852.44643
1663.53433	22055.16071
1666.81203	21551.875
1670.08756	21281.01786
1673.36092	21069.44643
1676.63211	20978.01786
1679.90115	20894.30357
1683.16801	20781.16071
1686.43272	20704.73214
1689.69527	20653.875
1692.95567	20612.73214
1696.2139	20617.16071
1699.46999	20540.16071
1702.72392	20494.30357
1705.97571	20544.16071
1709.22535	20524.73214
1712.47284	20528.44643
1715.71819	20512.58929
1718.96139	20528.73214
1722.20246	20452.58929
1725.44139	20412.875
1728.67818	20389.16071
1731.91284	20333.875
1735.14537	20262.30357
1738.37576	20216.01786
1741.60403	20151.875
1744.83017	20084.58929
1748.05418	20114.73214
1751.27607	20118.01786
1754.49584	20119.01786
1757.71349	20087.875
1760.92903	20043.01786
1764.14244	20012.16071
1767.35375	20029.01786
1770.56294	19896.73214
1773.77002	19936.30357
1776.97499	19884.44643
1780.17785	19886.73214
1783.37861	19856.16071
1786.57727	19815.73214
1789.77382	19808.58929
1792.96828	19734.73214
1796.16064	19729.73214
1799.3509	19673.875
1802.53907	19605.73214
1805.72514	19579.73214
1808.90913	19588.16071
1812.09102	19551.73214
1815.27083	19502.16071
1818.44856	19463.58929
1821.6242	19440.44643
1824.79776	19445.875
1827.96924	19411.875
1831.13864	19345.44643
1834.30597	19328.01786
1837.47122	19364.58929
1840.6344	19347.01786
1843.7955	19323.58929
1846.95454	19263.58929
1850.11151	19284.30357
1853.26642	19228.73214
1856.41926	19201.01786
1859.57004	19208.875
1862.71876	19216.44643
1865.86542	19224.16071
1869.01003	19206.58929
1872.15258	19145.01786
1875.29308	19113.44643
1878.43152	19075.44643
1881.56792	19075.58929
1884.70227	19043.16071
1887.83457	19016.16071
1890.96482	19014.30357
1894.09304	18967.44643
1897.21921	18996.30357
1900.34335	18942.16071
1903.46544	18937.73214
1906.58551	18900.58929
1909.70353	18849.44643
1912.81953	18835.58929
1915.93349	18814.73214
1919.04543	18796.58929
1922.15534	18753.16071
1925.26322	18753.58929
1928.36908	18677.875
1931.47292	18635.73214
1934.57473	18618.01786
1937.67453	18592.30357
1940.77232	18541.875
1943.86808	18513.58929
1946.96184	18424.58929
1950.05358	18354.73214
1953.14331	18332.73214
1956.23103	18303.58929
1959.31675	18236.44643
1962.40046	18210.875
1965.48217	18112.73214
1968.56188	18119.01786
1971.63959	18041.875
1974.7153	18000.58929
1977.78901	17963.30357
1980.86073	17913.73214
1983.93046	17866.16071
1986.99819	17778.16071
1990.06394	17756.73214
1993.1277	17664.16071
1996.18947	17625.58929
1999.24925	17587.01786
2002.30706	17577.16071
2005.36288	17470.16071
2008.41672	17420.875
2011.46859	17366.44643
2014.51848	17340.875
2017.56639	17314.30357
2020.61233	17194.01786
2023.6563	17161.30357
2026.6983	17128.16071
2029.73833	17098.875
2032.7764	17053.73214
2035.8125	16973.30357
2038.84664	16939.16071
2041.87881	16925.73214
2044.90903	16869.58929
2047.93729	16891.01786
2050.96359	16869.01786
2053.98794	16828.73214
2057.01034	16804.30357
2060.03078	16778.73214
2063.04927	16781.58929
2066.06582	16748.44643
2069.08042	16769.73214
2072.09307	16753.44643
2075.10378	16773.44643
2078.11255	16697.73214
2081.11938	16688.58929
2084.12426	16727.30357
2087.12722	16706.01786
2090.12824	16738.73214
2093.12732	16711.73214
2096.12447	16704.73214
2099.11969	16704.44643
2102.11299	16676.73214
2105.10435	16698.44643
2108.09379	16700.01786
2111.08131	16691.01786
2114.0669	16728.73214
2117.05057	16746.44643
2120.03233	16748.58929
2123.01216	16788.30357
2125.99008	16813.01786
2128.96609	16836.01786
2131.94018	16831.01786
2134.91236	16820.30357
2137.88263	16843.01786
2140.851	16848.73214
2143.81746	16866.44643
2146.78201	16870.30357
2149.74466	16889.58929
2152.7054	16865.73214
2155.66425	16860.73214
2158.6212	16841.30357
2161.57625	16855.875
2164.52941	16798.58929
2167.48067	16824.30357
2170.43004	16788.58929
2173.37752	16825.58929
2176.32311	16786.01786
2179.26681	16806.58929
2182.20863	16765.44643
2185.14856	16778.16071
2188.08661	16726.16071
2191.02278	16782.30357
2193.95707	16777.73214
2196.88948	16755.58929
2199.82001	16704.73214
2202.74867	16717.58929
2205.67545	16707.16071
2208.60037	16680.875
2211.52341	16654.16071
2214.44458	16629.58929
2217.36388	16592.30357
2220.28132	16552.875
2223.1969	16476.875
2226.11061	16472.01786
2229.02246	16432.30357
2231.93245	16430.58929
2234.84058	16356.73214
2237.74686	16336.875
2240.65128	16345.58929
2243.55385	16326.01786
2246.45456	16316.73214
2249.35343	16289.44643
2252.25044	16296.44643
2255.14561	16287.73214
2258.03893	16222.73214
2260.93041	16211.875
2263.82004	16163.73214
2266.70783	16121.30357
2269.59378	16071.01786
2272.4779	16049.30357
2275.36017	16026.58929
2278.24061	15986.58929
2281.11922	15941.16071
2283.996	15925.875
2286.87094	15940.01786
2289.74405	15900.16071
2292.61534	15886.30357
2295.4848	15832.01786
2298.35243	15848.73214
2301.21824	15829.58929
2304.08223	15821.16071
2306.94439	15774.30357
2309.80474	15778.30357
2312.66327	15768.44643
2315.51999	15757.30357
2318.37489	15734.16071
2321.22797	15690.30357
2324.07925	15703.58929
2326.92871	15596.01786
2329.77637	15601.16071
2332.62222	15553.16071
2335.46626	15537.01786
2338.3085	15516.58929
2341.14893	15528.16071
2343.98756	15496.01786
2346.8244	15448.58929
2349.65943	15394.58929
2352.49267	15396.44643
2355.32411	15368.16071
2358.15376	15378.30357
2360.98161	15406.875
2363.80768	15362.73214
2366.63195	15342.44643
2369.45444	15324.30357
2372.27514	15296.875
2375.09405	15260.58929
2377.91118	15258.01786
2380.72652	15235.44643
2383.54009	15188.30357
2386.35187	15165.01786
2389.16188	15118.44643
2391.97011	15104.16071
2394.77657	15078.16071
2397.58125	15068.16071
2400.38416	15065.875
2403.18529	15039.30357
2405.98466	15016.01786
2408.78226	14951.30357
2411.57809	14943.30357
2414.37216	14930.875
2417.16446	14894.875
2419.955	14869.73214
2422.74378	14881.01786
2425.5308	14820.58929
2428.31606	14826.30357
2431.09956	14827.73214
2433.88131	14782.44643
2436.6613	14783.73214
2439.43954	14766.01786
2442.21603	14731.875
2444.99077	14717.16071
2447.76377	14738.01786
2450.53501	14732.58929
2453.30451	14717.73214
2456.07226	14668.875
2458.83827	14642.30357
2461.60254	14632.30357
2464.36507	14610.16071
2467.12586	14598.16071
2469.88492	14565.30357
2472.64224	14505.44643
2475.39782	14533.16071
2478.15167	14545.875
2480.90379	14526.44643
2483.65417	14548.73214
2486.40283	14548.58929
2489.14976	14540.16071
2491.89497	14518.30357
2494.63845	14498.30357
2497.3802	14451.875
2500.12024	14488.875
2502.85855	14446.73214
2505.59514	14425.01786
2508.33002	14411.875
2511.06318	14356.73214
2513.79462	14339.01786
2516.52435	14341.30357
2519.25237	14315.16071
2521.97867	14289.875
2524.70327	14254.58929
2527.42616	14250.16071
2530.14734	14238.01786
2532.86681	14167.58929
2535.58458	14191.58929
2538.30065	14187.30357
2541.01501	14174.73214
2543.72768	14142.01786
2546.43864	14112.44643
2549.14791	14043.44643
2551.85548	14050.30357
2554.56136	14019.30357
2557.26554	13990.73214
2559.96803	13958.875
2562.66883	13994.58929
2565.36794	13893.73214
2568.06536	13869.30357
2570.7611	13801.875
2573.45514	13810.875
2576.14751	13784.58929
2578.83819	13753.16071
2581.52719	13751.16071
2584.21451	13729.73214
2586.90015	13688.73214
2589.58411	13646.58929
2592.2664	13642.73214
2594.94701	13607.16071
2597.62594	13599.01786
2600.30321	13565.01786
2602.9788	13514.16071
2605.65273	13478.73214
2608.32498	13482.73214
2610.99557	13462.16071
2613.66449	13434.44643
2616.33175	13414.73214
2618.99734	13404.875
2621.66128	13386.73214
2624.32355	13313.44643
2626.98416	13336.58929
2629.64311	13298.875
2632.30041	13292.16071
2634.95605	13248.01786
2637.61004	13230.58929
2640.26238	13183.01786
2642.91306	13219.01786
2645.56209	13228.58929
2648.20948	13207.30357
2650.85521	13211.16071
2653.4993	13188.16071
2656.14175	13174.44643
2658.78255	13164.73214
2661.42171	13186.875
2664.05923	13184.73214
2666.6951	13145.73214
2669.32934	13155.875
2671.96194	13151.73214
2674.59291	13123.16071
2677.22224	13112.44643
2679.84993	13146.01786
2682.476	13098.44643
2685.10043	13133.16071
2687.72324	13126.44643
2690.34441	13114.44643
2692.96396	13107.30357
2695.58188	13108.30357
2698.19818	13047.875
2700.81285	13066.58929
2703.4259	13019.58929
2706.03733	13025.01786
2708.64714	13030.73214
2711.25533	13069.58929
2713.86191	13060.73214
2716.46687	13078.30357
2719.07021	13060.16071
2721.67194	13060.01786
2724.27206	13037.44643
2726.87057	13086.44643
2729.46747	13056.01786
2732.06276	13017.73214
2734.65644	13028.73214
2737.24852	12987.44643
2739.83899	12995.58929
2742.42786	12987.16071
2745.01513	12952.16071
2747.60079	12906.30357
2750.18486	12930.01786
2752.76733	12904.30357
2755.3482	12868.73214
2757.92747	12854.16071
2760.50515	12849.875
2763.08123	12849.58929
2765.65573	12807.73214
2768.22863	12812.44643
2770.79994	12776.01786
2773.36967	12735.44643
2775.9378	12727.16071
2778.50435	12718.16071
2781.06932	12699.875
2783.6327	12648.875
2786.1945	12643.01786
2788.75471	12619.30357
2791.31335	12592.73214
2793.87041	12596.01786
2796.42589	12569.73214
2798.97979	12535.875
2801.53212	12476.16071
2804.08288	12491.73214
2806.63206	12457.30357
2809.17967	12411.44643
2811.72571	12420.30357
2814.27018	12381.30357
2816.81308	12346.73214
2819.35442	12321.44643
2821.89419	12287.875
2824.43239	12245.44643
2826.96904	12233.58929
2829.50412	12202.73214
2832.03763	12231.01786
2834.56959	12236.58929
2837.1	12178.875
2839.62884	12188.58929
2842.15613	12154.44643
2844.68186	12149.16071
2847.20604	12131.01786
2849.72867	12112.44643
2852.24974	12108.16071
2854.76927	12091.44643
2857.28724	12099.16071
2859.80367	12041.30357
2862.31855	12023.44643
2864.83189	12028.58929
2867.34368	11998.73214
2869.85393	11983.01786
2872.36264	11984.44643
2874.8698	11938.30357
2877.37543	11946.875
2879.87952	11911.875
2882.38207	11932.16071
2884.88308	11903.30357
2887.38256	11937.73214
2889.88051	11924.58929
2892.37692	11926.73214
2894.8718	11918.58929
2897.36515	11901.30357
2899.85698	11896.30357
2902.34727	11941.01786
2904.83604	11934.73214
2907.32328	11933.58929
2909.809	11919.16071
2912.29319	11929.01786
2914.77587	11877.875
2917.25702	11917.30357
2919.73665	11888.73214
2922.21476	11884.875
2924.69136	11890.58929
2927.16644	11898.16071
2929.64	11861.44643
2932.11205	11884.16071
2934.58258	11842.01786
2937.05161	11853.73214
2939.51912	11855.30357
2941.98513	11872.73214
2944.44962	11806.875
2946.91261	11819.58929
2949.37409	11864.44643
2951.83407	11834.58929
2954.29254	11808.16071
2956.74951	11830.30357
2959.20498	11821.44643
2961.65895	11795.16071
2964.11142	11779.58929
2966.56239	11751.01786
2969.01186	11771.875
2971.45984	11740.58929
2973.90632	11745.58929
2976.35131	11747.58929
2978.7948	11710.30357
2981.23681	11708.01786
2983.67732	11666.30357
2986.11635	11638.01786
2988.55388	11606.44643
2990.98993	11616.73214
2993.4245	11578.30357
2995.85758	11592.58929
2998.28917	11559.16071
3000.71928	11529.58929
3003.14791	11525.16071
3005.57506	11486.875
3008.00073	11457.01786
3010.42493	11467.30357
3012.84764	11404.44643
3015.26888	11462.73214
3017.68865	11418.58929
3020.10694	11405.16071
3022.52376	11364.16071
3024.9391	11362.01786
3027.35298	11328.30357
3029.76539	11324.01786
3032.17632	11300.01786
3034.5858	11281.875
3036.9938	11269.01786
3039.40034	11262.58929
3041.80542	11247.16071
3044.20903	11229.01786
3046.61118	11252.44643
3049.01187	11195.58929
3051.4111	11215.01786
3053.80888	11155.30357
3056.20519	11184.875
3058.60005	11131.01786
3060.99345	11128.44643
3063.3854	11083.30357
3065.7759	11066.58929
3068.16494	11050.30357
3070.55254	11026.30357
3072.93868	10988.875
3075.32338	10996.30357
3077.70662	10975.44643
3080.08842	10988.01786
3082.46878	10952.01786
3084.84769	10951.01786
3087.22515	10946.58929
3089.60118	10951.58929
3091.97576	10951.30357
3094.3489	10957.30357
3096.72061	10942.44643
3099.09087	10961.875
3101.4597	10967.01786
3103.82709	10948.73214
3106.19305	10932.73214
3108.55757	10961.01786
3110.92066	10951.01786
3113.28232	10930.58929
3115.64255	10923.73214
3118.00134	10888.44643
3120.35871	10860.58929
3122.71466	10868.73214
3125.06917	10841.16071
3127.42226	10777.875
3129.77393	10804.16071
3132.12417	10796.73214
3134.47299	10799.01786
3136.82039	10793.30357
3139.16636	10788.58929
3141.51092	10787.73214
3143.85406	10800.58929
3146.19579	10802.58929
3148.53609	10792.01786
3150.87499	10790.73214
3153.21246	10811.44643
3155.54853	10838.01786
3157.88318	10829.01786
3160.21642	10850.30357
3162.54826	10860.16071
3164.87868	10869.16071
3167.2077	10857.58929
3169.5353	10874.875
3171.86151	10855.44643
3174.18631	10855.16071
3176.5097	10836.73214
3178.83169	10848.44643
3181.15228	10830.73214
3183.47147	10792.30357
3185.78926	10803.44643
3188.10565	10754.44643
3190.42065	10785.16071
3192.73424	10793.30357
3195.04645	10757.01786
3197.35725	10768.30357
3199.66667	10718.16071
3201.97469	10786.01786
3204.28132	10760.30357
3206.58656	10774.73214
3208.8904	10782.58929
3211.19287	10800.73214
3213.49394	10806.73214
3215.79363	10810.875
3218.09193	10820.44643
3220.38884	10823.30357
3222.68438	10832.73214
3224.97853	10793.16071
3227.2713	10803.44643
3229.56269	10756.73214
3231.8527	10780.01786
3234.14133	10778.01786
3236.42858	10716.16071
3238.71446	10696.30357
3240.99896	10710.58929
3243.28209	10653.73214
3245.56384	10671.30357
3247.84423	10672.16071
3250.12324	10645.875
3252.40088	10632.44643
3254.67715	10656.875
3256.95205	10632.44643
3259.22558	10639.73214
3261.49775	10661.44643
3263.76855	10627.44643
3266.03799	10597.73214
3268.30606	10595.16071
3270.57277	10589.44643
3272.83812	10528.44643
3275.10211	10495.30357
3277.36474	10509.44643
3279.62601	10493.875
3281.88593	10488.44643
3284.14448	10479.30357
3286.40168	10473.01786
3288.65753	10444.16071
3290.91202	10434.16071
3293.16516	10421.875
3295.41695	10405.58929
3297.66738	10371.73214
3299.91647	10279.16071
3302.16421	10246.16071
3304.4106	10181.875
3306.65564	10131.30357
3308.89933	10049.44643
3311.14169	9963.30357
3313.38269	9913.30357
3315.62236	9849.73214
3317.86068	9774.44643
3320.09766	9707.875
3322.3333	9629.16071
3324.5676	9592.16071
3326.80056	9450.73214
3329.03219	9400.01786
3331.26248	1.16071
3333.49143	-0.55357
3335.71905	0.16071
