Data from AgNPs_FTO_APTES_UA_20uM_CRN_500uM_R6G_10uM_NaF_0.1M_Addition_RamanShift__21__18-56-34-984.txt Node

Date: Thu Feb 17 18:56:34 GMT 2022
User: TCL
Spectrometer: QEP01345
Trigger mode: 4
Integration Time (sec): 1.000000E1
Scans to average: 7
Electric dark correction enabled: true
Nonlinearity correction enabled: false
Boxcar width: 0
XAxis mode: Raman Shifts
Number of Pixels in Spectrum: 1044
>>>>>Begin Spectral Data<<<<<
46.04893	-1.08929
50.45542	0.33929
54.85868	0.625
59.25871	-2.23214
63.6555	71.76786
68.04907	72.33929
72.43941	82.91071
76.82654	85.19643
81.21044	86.76786
85.59113	90.76786
89.96862	93.05357
94.34289	94.48214
98.71396	97.33929
103.08183	102.48214
107.4465	105.05357
111.80798	103.33929
116.16626	111.625
120.52136	113.625
124.87327	121.91071
129.222	121.76786
133.56755	130.33929
137.90993	142.625
142.24913	151.48214
146.58517	171.625
150.91804	188.625
155.24774	228.05357
159.57429	281.91071
163.89768	371.625
168.21792	486.625
172.53501	652.19643
176.84895	929.33929
181.15975	1302.48214
185.46741	1837.625
189.77193	2550.33929
194.07331	3438.19643
198.37157	4478.76786
202.6667	5534.625
206.9587	6629.91071
211.24758	7726.19643
215.53334	8786.05357
219.81599	9932.91071
224.09553	11175.19643
228.37195	12553.48214
232.64527	14096.19643
236.91549	15739.19643
241.18261	17310.48214
245.44663	18786.625
249.70755	20098.05357
253.96539	21174.48214
258.22014	22050.76786
262.4718	22761.19643
266.72039	23288.19643
270.96589	23512.19643
275.20832	23467.625
279.44768	23197.625
283.68397	22829.91071
287.91719	22481.625
292.14735	22293.625
296.37445	22287.76786
300.59849	22491.625
304.81948	22783.625
309.03742	22905.19643
313.25231	22893.91071
317.46415	22473.48214
321.67296	21846.625
325.87872	21341.05357
330.08145	21123.76786
334.28114	21223.05357
338.47781	21432.48214
342.67145	21733.33929
346.86207	22181.48214
351.04966	22789.625
355.23424	23435.91071
359.4158	24057.19643
363.59435	24499.33929
367.76989	24776.48214
371.94243	24968.48214
376.11196	25081.48214
380.27849	25199.625
384.44203	25287.19643
388.60257	25246.48214
392.76012	25289.76786
396.91468	25416.48214
401.06626	25752.33929
405.21485	25992.19643
409.36047	25915.19643
413.50311	25467.76786
417.64277	25001.48214
421.77947	24744.05357
425.9132	24686.19643
430.04396	24756.05357
434.17176	24958.76786
438.2966	25294.19643
442.41849	25745.76786
446.53742	26336.91071
450.6534	26946.19643
454.76644	27353.48214
458.87653	27567.19643
462.98368	27426.91071
467.08789	27112.05357
471.18916	26712.625
475.2875	26280.91071
479.38291	26042.91071
483.4754	25775.76786
487.56496	25584.76786
491.6516	25443.19643
495.73531	25391.19643
499.81612	25364.05357
503.89401	25494.625
507.96899	25711.76786
512.04106	25814.76786
516.11023	25939.76786
520.1765	26051.625
524.23987	26103.05357
528.30034	26050.05357
532.35792	25963.91071
536.41261	25869.33929
540.46441	25634.91071
544.51333	25530.05357
548.55936	25509.48214
552.60252	25719.05357
556.64279	26013.625
560.6802	26237.05357
564.71473	26291.91071
568.7464	26560.19643
572.7752	26776.48214
576.80114	26648.48214
580.82422	26565.76786
584.84444	26637.625
588.86181	26998.625
592.87633	27614.05357
596.888	28019.19643
600.89682	28177.05357
604.9028	29186.19643
608.90594	32194.91071
612.90624	36100.91071
616.90371	35044.625
620.89834	29603.19643
624.89015	26946.19643
628.87913	26446.33929
632.86528	26525.76786
636.84862	26592.19643
640.82913	26439.48214
644.80683	25918.33929
648.78172	25504.33929
652.75379	25497.19643
656.72306	25871.91071
660.68952	26374.05357
664.65319	26307.625
668.61405	25914.05357
672.57211	25860.05357
676.52738	26063.91071
680.47986	26130.05357
684.42955	25985.625
688.37646	25850.05357
692.32058	25757.33929
696.26192	25828.91071
700.20048	25967.625
704.13626	26117.625
708.06928	25989.76786
711.99952	25786.91071
715.927	25658.76786
719.85171	25657.19643
723.77365	25710.48214
727.69284	25652.48214
731.60928	25598.76786
735.52295	25601.19643
739.43388	25598.625
743.34206	25695.05357
747.24749	25696.91071
751.15017	25729.625
755.05012	25897.76786
758.94733	26345.76786
762.8418	27399.33929
766.73354	29228.625
770.62254	31256.91071
774.50882	32355.05357
778.39237	31631.33929
782.27321	29515.76786
786.15132	27489.91071
790.02671	26203.91071
793.89938	25541.625
797.76935	25350.76786
801.6366	25279.19643
805.50115	25210.33929
809.36299	25109.33929
813.22213	24977.91071
817.07857	24955.19643
820.93231	24863.91071
824.78336	24866.76786
828.63172	24933.19643
832.47738	24929.19643
836.32036	24914.48214
840.16066	24924.48214
843.99827	24972.625
847.8332	24971.48214
851.66546	24914.625
855.49504	24936.48214
859.32195	25041.625
863.1462	25056.48214
866.96777	25084.33929
870.78668	25094.625
874.60293	25097.48214
878.41652	25055.76786
882.22745	25079.19643
886.03573	25155.91071
889.84136	25150.48214
893.64433	25040.76786
897.44466	24957.05357
901.24235	24897.19643
905.0374	24768.91071
908.8298	24654.91071
912.61957	24544.33929
916.40671	24608.05357
920.19121	24723.05357
923.97308	24917.76786
927.75233	25065.91071
931.52895	25118.05357
935.30295	25058.625
939.07433	24831.05357
942.84309	24538.76786
946.60924	24340.48214
950.37278	24228.76786
954.13371	24084.91071
957.89203	23993.91071
961.64774	23921.05357
965.40086	23775.33929
969.15137	23809.76786
972.89929	23711.76786
976.64461	23713.91071
980.38733	23755.91071
984.12747	23808.05357
987.86502	23934.91071
991.59999	24106.33929
995.33237	24404.76786
999.06217	24818.625
1002.78939	25257.48214
1006.51404	25592.05357
1010.23611	25785.33929
1013.95561	25934.33929
1017.67255	26040.76786
1021.38692	25930.33929
1025.09872	25717.48214
1028.80796	25775.76786
1032.51465	26115.05357
1036.21877	26419.05357
1039.92035	26474.48214
1043.61937	26316.19643
1047.31584	25972.19643
1051.00976	25637.19643
1054.70114	25384.48214
1058.38998	25296.48214
1062.07627	25257.05357
1065.76003	25241.05357
1069.44126	25281.19643
1073.11995	25380.19643
1076.79611	25529.48214
1080.46974	25712.19643
1084.14085	25947.33929
1087.80943	26131.76786
1091.47549	26277.19643
1095.13903	26142.76786
1098.80005	25863.625
1102.45857	25606.76786
1106.11456	25462.05357
1109.76805	25623.05357
1113.41903	25862.625
1117.06751	26167.625
1120.71348	26574.91071
1124.35696	26933.91071
1127.99793	27264.05357
1131.63641	27365.33929
1135.2724	27029.76786
1138.90589	26612.91071
1142.5369	26269.76786
1146.16542	25967.91071
1149.79145	25819.76786
1153.415	25766.76786
1157.03607	25842.19643
1160.65467	26154.625
1164.27079	26640.19643
1167.88443	27455.91071
1171.49561	28625.91071
1175.10432	30138.76786
1178.71056	32241.625
1182.31434	34323.33929
1185.91565	35221.76786
1189.51451	34891.48214
1193.11091	33700.33929
1196.70485	32294.91071
1200.29634	31188.91071
1203.88538	30335.625
1207.47197	29492.48214
1211.05612	28672.76786
1214.63782	28226.19643
1218.21708	28041.48214
1221.79391	28083.48214
1225.36829	28192.19643
1228.94024	28116.05357
1232.50976	27784.76786
1236.07685	27503.76786
1239.6415	27378.05357
1243.20374	27450.33929
1246.76355	27567.05357
1250.32093	27848.91071
1253.8759	28179.91071
1257.42845	28692.33929
1260.97859	29179.91071
1264.52631	29572.625
1268.07163	30070.91071
1271.61453	30579.19643
1275.15503	31215.48214
1278.69312	31649.76786
1282.22882	32048.48214
1285.76211	32499.48214
1289.29301	32979.05357
1292.82151	33613.625
1296.34761	34480.33929
1299.87133	35751.48214
1303.39266	37554.625
1306.9116	39962.19643
1310.42815	42617.33929
1313.94233	44012.625
1317.45412	43415.91071
1320.96354	41627.33929
1324.47058	39650.05357
1327.97525	38022.19643
1331.47754	36905.48214
1334.97747	36458.91071
1338.47502	36620.76786
1341.97022	37186.48214
1345.46305	37840.76786
1348.95352	38754.05357
1352.44163	40017.91071
1355.92738	41936.05357
1359.41078	44830.91071
1362.89183	47570.33929
1366.37053	46724.19643
1369.84688	42096.76786
1373.32088	37114.76786
1376.79254	33900.19643
1380.26186	32252.33929
1383.72883	31527.91071
1387.19347	30966.76786
1390.65578	30412.33929
1394.11575	29992.05357
1397.57339	29927.48214
1401.0287	30199.19643
1404.48168	30509.48214
1407.93234	30867.76786
1411.38068	31104.19643
1414.82669	31165.33929
1418.27039	30876.76786
1421.71177	30399.05357
1425.15083	29797.33929
1428.58758	29504.19643
1432.02203	29541.625
1435.45416	29830.19643
1438.88399	30075.91071
1442.31151	30213.76786
1445.73673	30323.76786
1449.15965	30449.91071
1452.58027	30455.625
1455.9986	30358.91071
1459.41463	30243.19643
1462.82837	30490.625
1466.23982	30935.33929
1469.64898	31455.76786
1473.05586	31922.05357
1476.46045	32181.625
1479.86276	32385.625
1483.26279	32517.33929
1486.66054	32663.05357
1490.05602	32903.76786
1493.44922	33304.05357
1496.84016	33903.05357
1500.22882	35009.76786
1503.61521	36658.76786
1506.99934	38955.33929
1510.38121	40710.19643
1513.76081	41046.19643
1517.13816	39382.33929
1520.51324	36681.625
1523.88607	34217.625
1527.25665	32679.91071
1530.62498	31940.91071
1533.99105	31449.05357
1537.35488	31295.05357
1540.71647	31166.48214
1544.07581	31063.48214
1547.4329	30950.48214
1550.78776	30814.19643
1554.14038	30705.91071
1557.49077	30635.91071
1560.83892	30745.33929
1564.18484	30924.19643
1567.52853	31132.48214
1570.86999	31376.625
1574.20922	31593.91071
1577.54624	31520.05357
1580.88103	31033.91071
1584.2136	30322.33929
1587.54395	30125.48214
1590.87208	30757.05357
1594.19801	32156.19643
1597.52172	33973.76786
1600.84321	34926.76786
1604.16251	34459.48214
1607.47959	32956.76786
1610.79447	31144.48214
1614.10715	29332.48214
1617.41763	27945.48214
1620.7259	26954.76786
1624.03199	26357.48214
1627.33587	26275.33929
1630.63757	26644.91071
1633.93707	27451.05357
1637.23439	28815.33929
1640.52951	30682.33929
1643.82246	33109.19643
1647.11321	35469.05357
1650.40179	36501.625
1653.68819	35088.48214
1656.97241	31854.48214
1660.25446	28632.48214
1663.53433	26322.76786
1666.81203	24907.05357
1670.08756	24058.48214
1673.36092	23498.19643
1676.63211	23099.19643
1679.90115	22831.05357
1683.16801	22606.91071
1686.43272	22389.76786
1689.69527	22287.05357
1692.95567	22122.05357
1696.2139	22116.05357
1699.46999	22026.625
1702.72392	21980.48214
1705.97571	21937.625
1709.22535	21924.48214
1712.47284	21905.76786
1715.71819	21854.33929
1718.96139	21826.76786
1722.20246	21739.33929
1725.44139	21655.48214
1728.67818	21635.625
1731.91284	21528.48214
1735.14537	21459.91071
1738.37576	21418.48214
1741.60403	21367.625
1744.83017	21313.33929
1748.05418	21260.33929
1751.27607	21290.625
1754.49584	21218.48214
1757.71349	21188.76786
1760.92903	21168.48214
1764.14244	21156.05357
1767.35375	21116.76786
1770.56294	21043.48214
1773.77002	20963.76786
1776.97499	20928.625
1780.17785	20934.19643
1783.37861	20845.625
1786.57727	20816.19643
1789.77382	20775.625
1792.96828	20733.19643
1796.16064	20678.05357
1799.3509	20653.19643
1802.53907	20583.625
1805.72514	20579.76786
1808.90913	20487.33929
1812.09102	20491.48214
1815.27083	20410.91071
1818.44856	20433.48214
1821.6242	20371.625
1824.79776	20380.48214
1827.96924	20340.91071
1831.13864	20293.76786
1834.30597	20331.76786
1837.47122	20280.91071
1840.6344	20269.91071
1843.7955	20257.48214
1846.95454	20211.19643
1850.11151	20218.76786
1853.26642	20175.76786
1856.41926	20184.19643
1859.57004	20173.76786
1862.71876	20166.48214
1865.86542	20194.33929
1869.01003	20181.76786
1872.15258	20154.05357
1875.29308	20183.91071
1878.43152	20097.05357
1881.56792	20096.33929
1884.70227	20126.19643
1887.83457	20076.33929
1890.96482	20051.05357
1894.09304	20022.91071
1897.21921	19976.48214
1900.34335	19988.76786
1903.46544	19967.33929
1906.58551	19950.48214
1909.70353	19930.625
1912.81953	19877.33929
1915.93349	19872.05357
1919.04543	19851.05357
1922.15534	19812.48214
1925.26322	19814.76786
1928.36908	19749.625
1931.47292	19763.05357
1934.57473	19732.91071
1937.67453	19705.19643
1940.77232	19602.76786
1943.86808	19573.48214
1946.96184	19498.33929
1950.05358	19488.625
1953.14331	19457.33929
1956.23103	19383.625
1959.31675	19330.33929
1962.40046	19257.625
1965.48217	19218.91071
1968.56188	19186.48214
1971.63959	19107.76786
1974.7153	19066.19643
1977.78901	19017.91071
1980.86073	18953.05357
1983.93046	18896.76786
1986.99819	18801.48214
1990.06394	18806.76786
1993.1277	18732.91071
1996.18947	18688.76786
1999.24925	18590.76786
2002.30706	18549.91071
2005.36288	18518.91071
2008.41672	18481.48214
2011.46859	18413.91071
2014.51848	18368.76786
2017.56639	18330.76786
2020.61233	18243.76786
2023.6563	18198.625
2026.6983	18129.19643
2029.73833	18122.33929
2032.7764	18078.19643
2035.8125	18048.76786
2038.84664	18018.19643
2041.87881	18012.05357
2044.90903	17976.19643
2047.93729	17915.91071
2050.96359	17987.48214
2053.98794	17903.76786
2057.01034	17903.33929
2060.03078	17883.76786
2063.04927	17850.91071
2066.06582	17872.19643
2069.08042	17829.76786
2072.09307	17815.19643
2075.10378	17825.33929
2078.11255	17788.625
2081.11938	17813.91071
2084.12426	17775.19643
2087.12722	17797.33929
2090.12824	17802.48214
2093.12732	17807.48214
2096.12447	17797.91071
2099.11969	17800.33929
2102.11299	17766.05357
2105.10435	17755.625
2108.09379	17764.48214
2111.08131	17820.91071
2114.0669	17817.625
2117.05057	17803.76786
2120.03233	17848.19643
2123.01216	17846.33929
2125.99008	17894.05357
2128.96609	17907.05357
2131.94018	17955.48214
2134.91236	17932.19643
2137.88263	17939.91071
2140.851	17916.76786
2143.81746	17963.05357
2146.78201	17922.625
2149.74466	17940.05357
2152.7054	17958.48214
2155.66425	17936.91071
2158.6212	17936.625
2161.57625	17937.33929
2164.52941	17904.625
2167.48067	17890.91071
2170.43004	17906.625
2173.37752	17900.76786
2176.32311	17943.19643
2179.26681	17922.19643
2182.20863	17922.48214
2185.14856	17945.05357
2188.08661	17934.91071
2191.02278	17963.76786
2193.95707	17916.19643
2196.88948	17902.33929
2199.82001	17882.05357
2202.74867	17888.33929
2205.67545	17831.91071
2208.60037	17862.76786
2211.52341	17824.625
2214.44458	17790.33929
2217.36388	17814.33929
2220.28132	17763.625
2223.1969	17739.625
2226.11061	17721.48214
2229.02246	17635.91071
2231.93245	17599.48214
2234.84058	17607.625
2237.74686	17561.33929
2240.65128	17601.91071
2243.55385	17571.05357
2246.45456	17523.48214
2249.35343	17458.33929
2252.25044	17469.76786
2255.14561	17466.625
2258.03893	17433.48214
2260.93041	17444.19643
2263.82004	17348.625
2266.70783	17347.76786
2269.59378	17250.33929
2272.4779	17236.625
2275.36017	17199.91071
2278.24061	17174.48214
2281.11922	17122.91071
2283.996	17109.91071
2286.87094	17102.05357
2289.74405	17101.625
2292.61534	17053.625
2295.4848	17024.625
2298.35243	17062.91071
2301.21824	17056.76786
2304.08223	17027.19643
2306.94439	17033.19643
2309.80474	17043.33929
2312.66327	16971.76786
2315.51999	17027.05357
2318.37489	16998.05357
2321.22797	17001.625
2324.07925	16928.48214
2326.92871	16915.19643
2329.77637	16913.33929
2332.62222	16870.91071
2335.46626	16887.48214
2338.3085	16897.625
2341.14893	16859.91071
2343.98756	16891.625
2346.8244	16876.19643
2349.65943	16843.33929
2352.49267	16832.76786
2355.32411	16852.48214
2358.15376	16845.91071
2360.98161	16856.625
2363.80768	16818.05357
2366.63195	16772.91071
2369.45444	16743.48214
2372.27514	16743.48214
2375.09405	16725.33929
2377.91118	16637.05357
2380.72652	16627.05357
2383.54009	16596.625
2386.35187	16552.48214
2389.16188	16495.91071
2391.97011	16475.91071
2394.77657	16474.33929
2397.58125	16440.91071
2400.38416	16435.76786
2403.18529	16445.33929
2405.98466	16380.625
2408.78226	16348.05357
2411.57809	16299.625
2414.37216	16305.33929
2417.16446	16283.48214
2419.955	16249.76786
2422.74378	16256.05357
2425.5308	16263.33929
2428.31606	16219.33929
2431.09956	16247.05357
2433.88131	16175.33929
2436.6613	16185.33929
2439.43954	16181.05357
2442.21603	16193.05357
2444.99077	16142.05357
2447.76377	16166.91071
2450.53501	16104.48214
2453.30451	16133.625
2456.07226	16111.91071
2458.83827	16083.91071
2461.60254	16114.19643
2464.36507	16062.48214
2467.12586	16018.625
2469.88492	16013.76786
2472.64224	16020.19643
2475.39782	16054.19643
2478.15167	16075.48214
2480.90379	16080.625
2483.65417	16101.625
2486.40283	16042.33929
2489.14976	16084.625
2491.89497	16073.91071
2494.63845	16071.76786
2497.3802	16065.76786
2500.12024	16102.33929
2502.85855	16037.05357
2505.59514	16004.48214
2508.33002	15964.76786
2511.06318	15938.48214
2513.79462	15911.05357
2516.52435	15893.33929
2519.25237	15899.625
2521.97867	15885.625
2524.70327	15868.91071
2527.42616	15818.91071
2530.14734	15821.33929
2532.86681	15811.33929
2535.58458	15802.48214
2538.30065	15779.48214
2541.01501	15790.48214
2543.72768	15772.91071
2546.43864	15715.91071
2549.14791	15709.625
2551.85548	15701.19643
2554.56136	15672.19643
2557.26554	15651.91071
2559.96803	15650.625
2562.66883	15609.48214
2565.36794	15575.91071
2568.06536	15542.48214
2570.7611	15556.76786
2573.45514	15513.05357
2576.14751	15465.91071
2578.83819	15458.33929
2581.52719	15447.91071
2584.21451	15459.19643
2586.90015	15405.33929
2589.58411	15420.91071
2592.2664	15419.76786
2594.94701	15356.48214
2597.62594	15347.48214
2600.30321	15331.33929
2602.9788	15311.05357
2605.65273	15282.48214
2608.32498	15292.625
2610.99557	15298.05357
2613.66449	15298.76786
2616.33175	15306.19643
2618.99734	15270.76786
2621.66128	15239.19643
2624.32355	15244.33929
2626.98416	15248.19643
2629.64311	15224.76786
2632.30041	15228.33929
2634.95605	15195.48214
2637.61004	15184.05357
2640.26238	15142.19643
2642.91306	15158.625
2645.56209	15110.48214
2648.20948	15128.91071
2650.85521	15127.91071
2653.4993	15119.19643
2656.14175	15113.76786
2658.78255	15120.33929
2661.42171	15144.625
2664.05923	15172.91071
2666.6951	15132.625
2669.32934	15135.19643
2671.96194	15133.76786
2674.59291	15153.625
2677.22224	15120.625
2679.84993	15137.19643
2682.476	15128.91071
2685.10043	15101.48214
2687.72324	15106.19643
2690.34441	15083.91071
2692.96396	15110.76786
2695.58188	15097.19643
2698.19818	15054.76786
2700.81285	15131.05357
2703.4259	15077.33929
2706.03733	15096.19643
2708.64714	15101.91071
2711.25533	15083.19643
2713.86191	15064.48214
2716.46687	15146.91071
2719.07021	15118.625
2721.67194	15090.76786
2724.27206	15111.33929
2726.87057	15065.48214
2729.46747	15098.05357
2732.06276	15112.625
2734.65644	15094.76786
2737.24852	15097.625
2739.83899	15096.625
2742.42786	15100.91071
2745.01513	15059.33929
2747.60079	15014.33929
2750.18486	14981.91071
2752.76733	15006.91071
2755.3482	14991.33929
2757.92747	14997.05357
2760.50515	14980.48214
2763.08123	14993.76786
2765.65573	14958.76786
2768.22863	14952.76786
2770.79994	14940.91071
2773.36967	14928.48214
2775.9378	14903.91071
2778.50435	14907.05357
2781.06932	14877.19643
2783.6327	14891.76786
2786.1945	14869.76786
2788.75471	14834.33929
2791.31335	14820.33929
2793.87041	14781.76786
2796.42589	14785.91071
2798.97979	14760.19643
2801.53212	14739.48214
2804.08288	14704.19643
2806.63206	14686.05357
2809.17967	14669.05357
2811.72571	14631.19643
2814.27018	14642.48214
2816.81308	14581.48214
2819.35442	14574.625
2821.89419	14554.19643
2824.43239	14515.33929
2826.96904	14542.33929
2829.50412	14554.19643
2832.03763	14523.05357
2834.56959	14518.05357
2837.1	14519.91071
2839.62884	14521.625
2842.15613	14454.05357
2844.68186	14469.19643
2847.20604	14462.76786
2849.72867	14471.76786
2852.24974	14452.91071
2854.76927	14420.91071
2857.28724	14388.625
2859.80367	14376.05357
2862.31855	14357.91071
2864.83189	14344.05357
2867.34368	14347.48214
2869.85393	14339.19643
2872.36264	14330.19643
2874.8698	14335.19643
2877.37543	14302.19643
2879.87952	14353.48214
2882.38207	14331.05357
2884.88308	14331.19643
2887.38256	14358.19643
2889.88051	14337.91071
2892.37692	14372.48214
2894.8718	14376.48214
2897.36515	14396.05357
2899.85698	14422.05357
2902.34727	14474.33929
2904.83604	14396.33929
2907.32328	14458.48214
2909.809	14490.48214
2912.29319	14480.625
2914.77587	14511.05357
2917.25702	14509.76786
2919.73665	14503.91071
2922.21476	14521.48214
2924.69136	14474.91071
2927.16644	14520.625
2929.64	14446.625
2932.11205	14440.33929
2934.58258	14408.48214
2937.05161	14415.625
2939.51912	14448.48214
2941.98513	14438.76786
2944.44962	14439.19643
2946.91261	14399.625
2949.37409	14401.19643
2951.83407	14375.91071
2954.29254	14377.48214
2956.74951	14337.33929
2959.20498	14322.48214
2961.65895	14316.91071
2964.11142	14287.76786
2966.56239	14286.76786
2969.01186	14236.33929
2971.45984	14233.19643
2973.90632	14193.05357
2976.35131	14161.19643
2978.7948	14145.76786
2981.23681	14095.33929
2983.67732	14068.33929
2986.11635	14034.625
2988.55388	14036.625
2990.98993	14017.625
2993.4245	13963.33929
2995.85758	13969.625
2998.28917	13933.19643
3000.71928	13927.76786
3003.14791	13911.05357
3005.57506	13884.05357
3008.00073	13859.91071
3010.42493	13815.76786
3012.84764	13803.19643
3015.26888	13802.33929
3017.68865	13762.19643
3020.10694	13761.625
3022.52376	13702.625
3024.9391	13709.19643
3027.35298	13702.91071
3029.76539	13666.19643
3032.17632	13692.33929
3034.5858	13642.19643
3036.9938	13648.91071
3039.40034	13616.91071
3041.80542	13624.19643
3044.20903	13595.625
3046.61118	13614.76786
3049.01187	13540.05357
3051.4111	13559.91071
3053.80888	13527.91071
3056.20519	13512.05357
3058.60005	13478.91071
3060.99345	13432.91071
3063.3854	13429.625
3065.7759	13357.05357
3068.16494	13353.33929
3070.55254	13313.05357
3072.93868	13298.625
3075.32338	13231.05357
3077.70662	13277.33929
3080.08842	13217.33929
3082.46878	13190.76786
3084.84769	13182.19643
3087.22515	13191.19643
3089.60118	13187.05357
3091.97576	13215.05357
3094.3489	13211.91071
3096.72061	13211.91071
3099.09087	13234.19643
3101.4597	13181.625
3103.82709	13199.48214
3106.19305	13196.91071
3108.55757	13198.33929
3110.92066	13155.91071
3113.28232	13149.33929
3115.64255	13123.48214
3118.00134	13087.05357
3120.35871	13082.33929
3122.71466	13080.19643
3125.06917	13053.48214
3127.42226	13032.19643
3129.77393	13031.48214
3132.12417	13030.33929
3134.47299	13027.19643
3136.82039	12980.76786
3139.16636	13037.19643
3141.51092	12996.33929
3143.85406	13007.05357
3146.19579	13029.33929
3148.53609	13000.19643
3150.87499	13044.33929
3153.21246	13011.625
3155.54853	13093.625
3157.88318	13027.91071
3160.21642	13099.76786
3162.54826	13091.05357
3164.87868	13085.91071
3167.2077	13051.91071
3169.5353	13072.19643
3171.86151	13088.625
3174.18631	13060.76786
3176.5097	13064.19643
3178.83169	13059.33929
3181.15228	13061.48214
3183.47147	13019.625
3185.78926	13027.91071
3188.10565	13009.625
3190.42065	13004.33929
3192.73424	12991.91071
3195.04645	13017.05357
3197.35725	13003.33929
3199.66667	12985.48214
3201.97469	13029.19643
3204.28132	12960.91071
3206.58656	13043.33929
3208.8904	13042.19643
3211.19287	13055.625
3213.49394	13069.76786
3215.79363	13060.05357
3218.09193	13081.48214
3220.38884	13060.91071
3222.68438	13121.625
3224.97853	13078.33929
3227.2713	13080.33929
3229.56269	13065.33929
3231.8527	13080.05357
3234.14133	13046.91071
3236.42858	12986.05357
3238.71446	12991.625
3240.99896	12976.48214
3243.28209	12954.05357
3245.56384	12903.19643
3247.84423	12927.48214
3250.12324	12929.625
3252.40088	12911.76786
3254.67715	12925.48214
3256.95205	12925.91071
3259.22558	12905.05357
3261.49775	12908.48214
3263.76855	12884.33929
3266.03799	12879.33929
3268.30606	12873.76786
3270.57277	12851.33929
3272.83812	12801.76786
3275.10211	12786.33929
3277.36474	12755.19643
3279.62601	12741.19643
3281.88593	12735.19643
3284.14448	12732.19643
3286.40168	12753.48214
3288.65753	12769.19643
3290.91202	12735.625
3293.16516	12704.33929
3295.41695	12717.33929
3297.66738	12623.48214
3299.91647	12590.19643
3302.16421	12499.33929
3304.4106	12439.625
3306.65564	12354.05357
3308.89933	12310.76786
3311.14169	12224.91071
3313.38269	12111.33929
3315.62236	12063.625
3317.86068	11961.625
3320.09766	11902.48214
3322.3333	11828.33929
3324.5676	11741.05357
3326.80056	11584.48214
3329.03219	11541.48214
3331.26248	1.19643
3333.49143	-0.23214
3335.71905	0.05357
