Data from AgNPs_FTO_APTES_UA_10uM_CRN_50uM_R6G_10uM_NaF_0.1M_Addition_RamanShift__14__16-51-44-827.txt Node

Date: Thu Feb 17 16:51:44 GMT 2022
User: TCL
Spectrometer: QEP01345
Trigger mode: 4
Integration Time (sec): 1.000000E1
Scans to average: 7
Electric dark correction enabled: true
Nonlinearity correction enabled: false
Boxcar width: 0
XAxis mode: Raman Shifts
Number of Pixels in Spectrum: 1044
>>>>>Begin Spectral Data<<<<<
46.04893	0.875
50.45542	-2.125
54.85868	0.30357
59.25871	-3.26786
63.6555	70.30357
68.04907	69.16071
72.43941	77.30357
76.82654	82.73214
81.21044	79.30357
85.59113	84.44643
89.96862	91.01786
94.34289	89.30357
98.71396	93.16071
103.08183	94.44643
107.4465	102.73214
111.80798	98.30357
116.16626	103.01786
120.52136	109.16071
124.87327	115.16071
129.222	116.58929
133.56755	123.58929
137.90993	132.875
142.24913	139.30357
146.58517	151.875
150.91804	176.73214
155.24774	205.875
159.57429	255.30357
163.89768	321.44643
168.21792	429.01786
172.53501	584.30357
176.84895	815.01786
181.15975	1144.44643
185.46741	1621.44643
189.77193	2243.01786
194.07331	3017.73214
198.37157	3906.58929
202.6667	4839.16071
206.9587	5793.58929
211.24758	6716.73214
215.53334	7604.875
219.81599	8550.16071
224.09553	9565.16071
228.37195	10724.30357
232.64527	11970.01786
236.91549	13323.875
241.18261	14668.875
245.44663	15985.16071
249.70755	17212.16071
253.96539	18274.30357
258.22014	19168.01786
262.4718	19849.30357
266.72039	20348.16071
270.96589	20604.01786
275.20832	20563.30357
279.44768	20408.58929
283.68397	20095.875
287.91719	19757.875
292.14735	19606.16071
296.37445	19455.44643
300.59849	19475.875
304.81948	19527.58929
309.03742	19523.44643
313.25231	19392.875
317.46415	19116.58929
321.67296	18825.16071
325.87872	18578.30357
330.08145	18549.73214
334.28114	18628.73214
338.47781	18846.16071
342.67145	19109.875
346.86207	19400.16071
351.04966	19830.44643
355.23424	20274.44643
359.4158	20631.73214
363.59435	20947.44643
367.76989	21151.875
371.94243	21383.30357
376.11196	21545.875
380.27849	21666.58929
384.44203	21757.58929
388.60257	21854.44643
392.76012	21978.01786
396.91468	22134.01786
401.06626	22324.30357
405.21485	22499.30357
409.36047	22457.16071
413.50311	22240.16071
417.64277	21945.30357
421.77947	21877.875
425.9132	21796.44643
430.04396	21878.73214
434.17176	21966.16071
438.2966	22108.44643
442.41849	22354.58929
446.53742	22567.58929
450.6534	22860.875
454.76644	23112.58929
458.87653	23287.16071
462.98368	23302.16071
467.08789	23323.44643
471.18916	23244.44643
475.2875	23157.01786
479.38291	22992.875
483.4754	22894.875
487.56496	22802.58929
491.6516	22830.73214
495.73531	22799.30357
499.81612	22845.875
503.89401	22983.44643
507.96899	23066.44643
512.04106	23148.30357
516.11023	23288.30357
520.1765	23338.16071
524.23987	23356.30357
528.30034	23380.30357
532.35792	23308.16071
536.41261	23258.875
540.46441	23211.875
544.51333	23074.01786
548.55936	23082.44643
552.60252	23180.73214
556.64279	23348.58929
560.6802	23379.01786
564.71473	23379.875
568.7464	23389.875
572.7752	23417.875
576.80114	23381.16071
580.82422	23286.16071
584.84444	23332.44643
588.86181	23404.44643
592.87633	23469.58929
596.888	23642.01786
600.89682	23967.58929
604.9028	24750.73214
608.90594	26731.16071
612.90624	29116.58929
616.90371	28434.58929
620.89834	25259.30357
624.89015	23894.73214
628.87913	23693.01786
632.86528	23800.875
636.84862	23913.73214
640.82913	23906.16071
644.80683	23604.875
648.78172	23475.16071
652.75379	23417.16071
656.72306	23642.16071
660.68952	23939.16071
664.65319	23972.01786
668.61405	23792.73214
672.57211	23861.30357
676.52738	23992.16071
680.47986	24066.44643
684.42955	23958.30357
688.37646	23849.875
692.32058	23827.16071
696.26192	23841.30357
700.20048	23972.44643
704.13626	24030.30357
708.06928	23933.875
711.99952	23801.30357
715.927	23751.01786
719.85171	23797.58929
723.77365	23820.875
727.69284	23837.73214
731.60928	23804.875
735.52295	23761.16071
739.43388	23755.875
743.34206	23808.16071
747.24749	23777.875
751.15017	23742.875
755.05012	23742.44643
758.94733	23947.73214
762.8418	24426.01786
766.73354	25479.16071
770.62254	26684.58929
774.50882	27425.44643
778.39237	27135.01786
782.27321	26064.58929
786.15132	24900.01786
790.02671	24127.01786
793.89938	23763.16071
797.76935	23555.01786
801.6366	23496.30357
805.50115	23490.44643
809.36299	23423.01786
813.22213	23308.73214
817.07857	23290.30357
820.93231	23325.44643
824.78336	23309.30357
828.63172	23368.44643
832.47738	23379.875
836.32036	23388.73214
840.16066	23367.16071
843.99827	23367.16071
847.8332	23414.16071
851.66546	23391.44643
855.49504	23378.875
859.32195	23468.44643
863.1462	23505.73214
866.96777	23522.73214
870.78668	23509.01786
874.60293	23549.58929
878.41652	23594.30357
882.22745	23679.16071
886.03573	23619.30357
889.84136	23666.01786
893.64433	23570.73214
897.44466	23534.01786
901.24235	23390.44643
905.0374	23335.58929
908.8298	23264.16071
912.61957	23204.44643
916.40671	23163.875
920.19121	23207.875
923.97308	23283.58929
927.75233	23358.73214
931.52895	23411.30357
935.30295	23356.44643
939.07433	23204.01786
942.84309	23072.30357
946.60924	22952.16071
950.37278	22841.73214
954.13371	22894.30357
957.89203	22761.30357
961.64774	22705.16071
965.40086	22650.16071
969.15137	22622.44643
972.89929	22559.30357
976.64461	22558.875
980.38733	22614.875
984.12747	22631.73214
987.86502	22729.875
991.59999	22761.58929
995.33237	22882.58929
999.06217	23087.16071
1002.78939	23243.01786
1006.51404	23347.875
1010.23611	23455.875
1013.95561	23554.875
1017.67255	23609.01786
1021.38692	23641.01786
1025.09872	23483.01786
1028.80796	23418.44643
1032.51465	23503.16071
1036.21877	23684.875
1039.92035	23703.875
1043.61937	23740.875
1047.31584	23607.01786
1051.00976	23569.44643
1054.70114	23533.73214
1058.38998	23474.44643
1062.07627	23512.44643
1065.76003	23570.16071
1069.44126	23572.44643
1073.11995	23715.58929
1076.79611	23873.58929
1080.46974	24070.01786
1084.14085	24111.44643
1087.80943	24181.73214
1091.47549	24206.73214
1095.13903	24170.44643
1098.80005	24060.58929
1102.45857	23927.16071
1106.11456	23826.01786
1109.76805	23861.73214
1113.41903	23855.58929
1117.06751	23984.73214
1120.71348	24102.16071
1124.35696	24259.875
1127.99793	24469.73214
1131.63641	24630.16071
1135.2724	24433.875
1138.90589	24209.16071
1142.5369	23904.01786
1146.16542	23747.73214
1149.79145	23549.01786
1153.415	23372.73214
1157.03607	23349.875
1160.65467	23427.58929
1164.27079	23655.73214
1167.88443	24093.44643
1171.49561	24637.16071
1175.10432	25415.16071
1178.71056	26418.58929
1182.31434	27497.58929
1185.91565	28019.58929
1189.51451	27994.58929
1193.11091	27523.875
1196.70485	26840.30357
1200.29634	26212.01786
1203.88538	25684.01786
1207.47197	25156.30357
1211.05612	24613.30357
1214.63782	24306.01786
1218.21708	24088.73214
1221.79391	24049.16071
1225.36829	24094.73214
1228.94024	24017.30357
1232.50976	23993.73214
1236.07685	23910.58929
1239.6415	23922.01786
1243.20374	24004.44643
1246.76355	24104.44643
1250.32093	24214.16071
1253.8759	24394.58929
1257.42845	24668.875
1260.97859	24956.44643
1264.52631	25226.01786
1268.07163	25500.30357
1271.61453	25752.01786
1275.15503	26046.875
1278.69312	26167.58929
1282.22882	26309.30357
1285.76211	26396.16071
1289.29301	26554.01786
1292.82151	26805.58929
1296.34761	27110.01786
1299.87133	27567.875
1303.39266	28364.44643
1306.9116	29422.01786
1310.42815	30490.30357
1313.94233	31153.16071
1317.45412	30902.16071
1320.96354	30069.44643
1324.47058	29200.44643
1327.97525	28276.30357
1331.47754	27615.30357
1334.97747	27266.44643
1338.47502	27303.16071
1341.97022	27564.16071
1345.46305	28113.44643
1348.95352	28919.16071
1352.44163	29825.30357
1355.92738	31011.16071
1359.41078	32394.58929
1362.89183	33607.58929
1366.37053	33127.30357
1369.84688	30757.01786
1373.32088	28250.30357
1376.79254	26571.16071
1380.26186	25620.44643
1383.72883	25136.01786
1387.19347	24768.875
1390.65578	24298.16071
1394.11575	23887.73214
1397.57339	23654.01786
1401.0287	23532.875
1404.48168	23456.30357
1407.93234	23435.875
1411.38068	23470.73214
1414.82669	23549.73214
1418.27039	23516.16071
1421.71177	23470.30357
1425.15083	23354.01786
1428.58758	23239.01786
1432.02203	23257.16071
1435.45416	23332.875
1438.88399	23356.30357
1442.31151	23407.01786
1445.73673	23421.01786
1449.15965	23439.58929
1452.58027	23503.875
1455.9986	23519.58929
1459.41463	23550.58929
1462.82837	23686.01786
1466.23982	23977.16071
1469.64898	24149.30357
1473.05586	24308.30357
1476.46045	24470.01786
1479.86276	24592.01786
1483.26279	24667.73214
1486.66054	24825.30357
1490.05602	25095.44643
1493.44922	25468.30357
1496.84016	25988.01786
1500.22882	26881.73214
1503.61521	28206.73214
1506.99934	29647.30357
1510.38121	30773.73214
1513.76081	31028.01786
1517.13816	30027.58929
1520.51324	28442.44643
1523.88607	26944.58929
1527.25665	25842.73214
1530.62498	25272.875
1533.99105	24848.44643
1537.35488	24618.875
1540.71647	24523.30357
1544.07581	24416.73214
1547.4329	24394.01786
1550.78776	24435.73214
1554.14038	24420.73214
1557.49077	24514.73214
1560.83892	24683.30357
1564.18484	24834.58929
1567.52853	25089.01786
1570.86999	25268.875
1574.20922	25414.16071
1577.54624	25452.73214
1580.88103	25011.875
1584.2136	24480.01786
1587.54395	24169.58929
1590.87208	24250.44643
1594.19801	24594.73214
1597.52172	25265.16071
1600.84321	25626.01786
1604.16251	25389.16071
1607.47959	24934.44643
1610.79447	24357.01786
1614.10715	23673.44643
1617.41763	23125.30357
1620.7259	22679.875
1624.03199	22409.16071
1627.33587	22355.875
1630.63757	22376.16071
1633.93707	22648.30357
1637.23439	23122.875
1640.52951	23917.73214
1643.82246	25047.73214
1647.11321	26202.44643
1650.40179	26947.16071
1653.68819	26538.16071
1656.97241	25084.875
1660.25446	23538.01786
1663.53433	22431.30357
1666.81203	21693.44643
1670.08756	21284.44643
1673.36092	21012.30357
1676.63211	20841.30357
1679.90115	20707.875
1683.16801	20586.16071
1686.43272	20482.01786
1689.69527	20456.30357
1692.95567	20385.875
1696.2139	20331.875
1699.46999	20323.58929
1702.72392	20280.44643
1705.97571	20239.01786
1709.22535	20260.44643
1712.47284	20284.58929
1715.71819	20237.73214
1718.96139	20224.16071
1722.20246	20182.30357
1725.44139	20132.30357
1728.67818	20092.16071
1731.91284	20024.875
1735.14537	19969.58929
1738.37576	19907.30357
1741.60403	19869.30357
1744.83017	19811.73214
1748.05418	19858.30357
1751.27607	19807.44643
1754.49584	19811.58929
1757.71349	19753.44643
1760.92903	19791.30357
1764.14244	19724.73214
1767.35375	19728.01786
1770.56294	19639.16071
1773.77002	19622.73214
1776.97499	19568.01786
1780.17785	19576.30357
1783.37861	19534.01786
1786.57727	19476.875
1789.77382	19457.44643
1792.96828	19415.01786
1796.16064	19396.44643
1799.3509	19326.73214
1802.53907	19292.16071
1805.72514	19279.73214
1808.90913	19217.44643
1812.09102	19207.875
1815.27083	19128.58929
1818.44856	19140.30357
1821.6242	19117.44643
1824.79776	19065.58929
1827.96924	19047.01786
1831.13864	18956.58929
1834.30597	19003.01786
1837.47122	18989.30357
1840.6344	18992.01786
1843.7955	18968.01786
1846.95454	18924.44643
1850.11151	18934.58929
1853.26642	18957.16071
1856.41926	18870.16071
1859.57004	18877.16071
1862.71876	18848.44643
1865.86542	18905.30357
1869.01003	18839.01786
1872.15258	18797.01786
1875.29308	18815.30357
1878.43152	18776.16071
1881.56792	18758.44643
1884.70227	18754.875
1887.83457	18722.73214
1890.96482	18659.73214
1894.09304	18667.30357
1897.21921	18683.30357
1900.34335	18653.01786
1903.46544	18591.16071
1906.58551	18578.44643
1909.70353	18531.875
1912.81953	18547.01786
1915.93349	18511.875
1919.04543	18494.44643
1922.15534	18498.875
1925.26322	18418.875
1928.36908	18412.875
1931.47292	18323.44643
1934.57473	18311.73214
1937.67453	18281.58929
1940.77232	18272.58929
1943.86808	18179.01786
1946.96184	18155.01786
1950.05358	18057.44643
1953.14331	18059.58929
1956.23103	17978.875
1959.31675	17984.58929
1962.40046	17900.73214
1965.48217	17882.01786
1968.56188	17808.44643
1971.63959	17792.875
1974.7153	17748.30357
1977.78901	17669.30357
1980.86073	17640.73214
1983.93046	17620.73214
1986.99819	17547.30357
1990.06394	17445.875
1993.1277	17405.16071
1996.18947	17379.58929
1999.24925	17302.44643
2002.30706	17317.01786
2005.36288	17279.73214
2008.41672	17185.58929
2011.46859	17130.44643
2014.51848	17074.73214
2017.56639	17004.01786
2020.61233	16976.44643
2023.6563	16921.16071
2026.6983	16845.58929
2029.73833	16818.44643
2032.7764	16799.73214
2035.8125	16755.44643
2038.84664	16726.44643
2041.87881	16695.30357
2044.90903	16665.58929
2047.93729	16635.58929
2050.96359	16632.44643
2053.98794	16607.875
2057.01034	16594.30357
2060.03078	16554.16071
2063.04927	16570.58929
2066.06582	16531.73214
2069.08042	16554.16071
2072.09307	16511.30357
2075.10378	16526.30357
2078.11255	16491.58929
2081.11938	16496.73214
2084.12426	16489.01786
2087.12722	16525.16071
2090.12824	16458.58929
2093.12732	16459.73214
2096.12447	16520.01786
2099.11969	16487.58929
2102.11299	16459.73214
2105.10435	16499.30357
2108.09379	16499.16071
2111.08131	16515.58929
2114.0669	16524.875
2117.05057	16531.58929
2120.03233	16545.44643
2123.01216	16551.58929
2125.99008	16607.30357
2128.96609	16607.875
2131.94018	16647.01786
2134.91236	16618.16071
2137.88263	16605.44643
2140.851	16641.16071
2143.81746	16655.01786
2146.78201	16659.16071
2149.74466	16674.58929
2152.7054	16671.73214
2155.66425	16631.30357
2158.6212	16667.44643
2161.57625	16644.01786
2164.52941	16624.44643
2167.48067	16634.58929
2170.43004	16593.58929
2173.37752	16645.73214
2176.32311	16612.01786
2179.26681	16625.16071
2182.20863	16568.30357
2185.14856	16592.16071
2188.08661	16592.58929
2191.02278	16601.875
2193.95707	16618.30357
2196.88948	16544.58929
2199.82001	16530.73214
2202.74867	16536.58929
2205.67545	16554.44643
2208.60037	16484.01786
2211.52341	16505.16071
2214.44458	16474.30357
2217.36388	16432.44643
2220.28132	16408.73214
2223.1969	16322.58929
2226.11061	16322.58929
2229.02246	16238.58929
2231.93245	16242.44643
2234.84058	16214.58929
2237.74686	16167.30357
2240.65128	16192.875
2243.55385	16171.30357
2246.45456	16133.44643
2249.35343	16171.01786
2252.25044	16108.875
2255.14561	16129.73214
2258.03893	16093.16071
2260.93041	16077.30357
2263.82004	16009.58929
2266.70783	16029.30357
2269.59378	15932.73214
2272.4779	15927.16071
2275.36017	15903.16071
2278.24061	15812.44643
2281.11922	15824.58929
2283.996	15793.44643
2286.87094	15796.44643
2289.74405	15741.30357
2292.61534	15752.01786
2295.4848	15720.01786
2298.35243	15693.44643
2301.21824	15692.73214
2304.08223	15717.01786
2306.94439	15653.01786
2309.80474	15647.58929
2312.66327	15634.58929
2315.51999	15685.875
2318.37489	15621.16071
2321.22797	15601.30357
2324.07925	15588.73214
2326.92871	15553.01786
2329.77637	15494.01786
2332.62222	15440.30357
2335.46626	15473.44643
2338.3085	15433.30357
2341.14893	15413.58929
2343.98756	15428.73214
2346.8244	15391.01786
2349.65943	15345.16071
2352.49267	15377.16071
2355.32411	15352.16071
2358.15376	15309.01786
2360.98161	15337.30357
2363.80768	15349.875
2366.63195	15320.875
2369.45444	15287.01786
2372.27514	15268.875
2375.09405	15247.16071
2377.91118	15221.16071
2380.72652	15215.44643
2383.54009	15149.875
2386.35187	15126.875
2389.16188	15074.875
2391.97011	15059.44643
2394.77657	15063.30357
2397.58125	15037.58929
2400.38416	15032.73214
2403.18529	14969.875
2405.98466	14928.73214
2408.78226	14904.73214
2411.57809	14938.30357
2414.37216	14901.16071
2417.16446	14842.01786
2419.955	14842.30357
2422.74378	14844.30357
2425.5308	14831.30357
2428.31606	14820.875
2431.09956	14815.73214
2433.88131	14761.01786
2436.6613	14749.30357
2439.43954	14750.875
2442.21603	14738.01786
2444.99077	14718.875
2447.76377	14732.30357
2450.53501	14742.30357
2453.30451	14717.16071
2456.07226	14666.30357
2458.83827	14681.01786
2461.60254	14653.58929
2464.36507	14613.58929
2467.12586	14569.01786
2469.88492	14561.01786
2472.64224	14566.44643
2475.39782	14535.30357
2478.15167	14594.01786
2480.90379	14570.44643
2483.65417	14598.875
2486.40283	14586.30357
2489.14976	14600.73214
2491.89497	14545.73214
2494.63845	14543.16071
2497.3802	14560.30357
2500.12024	14553.44643
2502.85855	14518.58929
2505.59514	14498.01786
2508.33002	14477.58929
2511.06318	14416.16071
2513.79462	14407.30357
2516.52435	14401.73214
2519.25237	14377.01786
2521.97867	14344.58929
2524.70327	14320.30357
2527.42616	14291.44643
2530.14734	14279.44643
2532.86681	14258.44643
2535.58458	14258.58929
2538.30065	14254.73214
2541.01501	14281.73214
2543.72768	14222.01786
2546.43864	14201.16071
2549.14791	14161.30357
2551.85548	14149.01786
2554.56136	14118.30357
2557.26554	14080.01786
2559.96803	14102.875
2562.66883	14093.44643
2565.36794	14008.16071
2568.06536	14019.73214
2570.7611	13946.875
2573.45514	13935.73214
2576.14751	13907.44643
2578.83819	13862.30357
2581.52719	13888.01786
2584.21451	13881.875
2586.90015	13848.875
2589.58411	13822.73214
2592.2664	13781.44643
2594.94701	13742.875
2597.62594	13733.73214
2600.30321	13688.01786
2602.9788	13698.01786
2605.65273	13687.875
2608.32498	13646.73214
2610.99557	13616.875
2613.66449	13633.58929
2616.33175	13552.16071
2618.99734	13589.58929
2621.66128	13561.44643
2624.32355	13523.30357
2626.98416	13481.875
2629.64311	13471.16071
2632.30041	13480.875
2634.95605	13448.875
2637.61004	13420.44643
2640.26238	13422.16071
2642.91306	13401.01786
2645.56209	13421.875
2648.20948	13421.30357
2650.85521	13409.44643
2653.4993	13386.01786
2656.14175	13388.58929
2658.78255	13374.01786
2661.42171	13400.16071
2664.05923	13397.01786
2666.6951	13393.44643
2669.32934	13373.01786
2671.96194	13383.44643
2674.59291	13377.58929
2677.22224	13360.01786
2679.84993	13349.73214
2682.476	13354.44643
2685.10043	13342.44643
2687.72324	13334.58929
2690.34441	13314.01786
2692.96396	13308.58929
2695.58188	13347.73214
2698.19818	13296.58929
2700.81285	13306.73214
2703.4259	13306.16071
2706.03733	13273.73214
2708.64714	13279.875
2711.25533	13279.875
2713.86191	13304.01786
2716.46687	13304.01786
2719.07021	13336.16071
2721.67194	13308.30357
2724.27206	13304.73214
2726.87057	13327.44643
2729.46747	13289.73214
2732.06276	13311.30357
2734.65644	13275.875
2737.24852	13280.16071
2739.83899	13268.44643
2742.42786	13239.875
2745.01513	13207.58929
2747.60079	13181.875
2750.18486	13187.01786
2752.76733	13150.16071
2755.3482	13183.875
2757.92747	13142.73214
2760.50515	13138.01786
2763.08123	13139.30357
2765.65573	13091.58929
2768.22863	13104.01786
2770.79994	13090.73214
2773.36967	13072.73214
2775.9378	13074.875
2778.50435	12995.73214
2781.06932	13006.73214
2783.6327	13002.16071
2786.1945	12964.58929
2788.75471	12954.30357
2791.31335	12908.44643
2793.87041	12931.58929
2796.42589	12863.30357
2798.97979	12847.875
2801.53212	12824.30357
2804.08288	12807.16071
2806.63206	12799.875
2809.17967	12755.73214
2811.72571	12745.30357
2814.27018	12736.875
2816.81308	12686.16071
2819.35442	12678.30357
2821.89419	12624.58929
2824.43239	12590.58929
2826.96904	12580.73214
2829.50412	12574.44643
2832.03763	12577.30357
2834.56959	12602.58929
2837.1	12530.73214
2839.62884	12571.44643
2842.15613	12537.01786
2844.68186	12555.16071
2847.20604	12491.44643
2849.72867	12532.875
2852.24974	12505.16071
2854.76927	12493.58929
2857.28724	12465.44643
2859.80367	12476.01786
2862.31855	12425.73214
2864.83189	12398.73214
2867.34368	12410.16071
2869.85393	12406.58929
2872.36264	12392.44643
2874.8698	12358.73214
2877.37543	12352.58929
2879.87952	12334.16071
2882.38207	12339.58929
2884.88308	12308.30357
2887.38256	12345.44643
2889.88051	12357.875
2892.37692	12376.44643
2894.8718	12338.58929
2897.36515	12359.16071
2899.85698	12355.58929
2902.34727	12389.30357
2904.83604	12389.16071
2907.32328	12397.30357
2909.809	12405.16071
2912.29319	12408.30357
2914.77587	12383.01786
2917.25702	12398.16071
2919.73665	12404.875
2922.21476	12413.58929
2924.69136	12377.01786
2927.16644	12394.16071
2929.64	12360.58929
2932.11205	12364.16071
2934.58258	12360.73214
2937.05161	12367.875
2939.51912	12325.44643
2941.98513	12336.16071
2944.44962	12291.01786
2946.91261	12298.58929
2949.37409	12324.58929
2951.83407	12314.01786
2954.29254	12316.30357
2956.74951	12296.58929
2959.20498	12295.73214
2961.65895	12282.73214
2964.11142	12257.30357
2966.56239	12259.01786
2969.01186	12223.44643
2971.45984	12225.01786
2973.90632	12246.58929
2976.35131	12190.58929
2978.7948	12208.30357
2981.23681	12161.01786
2983.67732	12135.73214
2986.11635	12109.30357
2988.55388	12092.16071
2990.98993	12084.58929
2993.4245	12096.73214
2995.85758	12069.30357
2998.28917	12010.44643
3000.71928	12003.30357
3003.14791	12004.16071
3005.57506	11962.44643
3008.00073	11931.58929
3010.42493	11937.73214
3012.84764	11945.73214
3015.26888	11942.73214
3017.68865	11891.58929
3020.10694	11884.01786
3022.52376	11883.73214
3024.9391	11850.16071
3027.35298	11819.44643
3029.76539	11796.16071
3032.17632	11827.16071
3034.5858	11762.16071
3036.9938	11756.01786
3039.40034	11753.44643
3041.80542	11760.875
3044.20903	11730.30357
3046.61118	11747.01786
3049.01187	11710.30357
3051.4111	11707.44643
3053.80888	11689.16071
3056.20519	11689.30357
3058.60005	11631.73214
3060.99345	11628.30357
3063.3854	11596.73214
3065.7759	11556.875
3068.16494	11558.73214
3070.55254	11517.875
3072.93868	11509.16071
3075.32338	11527.16071
3077.70662	11505.30357
3080.08842	11469.73214
3082.46878	11450.875
3084.84769	11439.30357
3087.22515	11439.01786
3089.60118	11461.16071
3091.97576	11484.875
3094.3489	11468.875
3096.72061	11462.875
3099.09087	11458.16071
3101.4597	11448.73214
3103.82709	11463.875
3106.19305	11456.30357
3108.55757	11479.44643
3110.92066	11442.58929
3113.28232	11437.30357
3115.64255	11427.73214
3118.00134	11412.875
3120.35871	11415.875
3122.71466	11347.875
3125.06917	11352.01786
3127.42226	11329.44643
3129.77393	11350.44643
3132.12417	11332.16071
3134.47299	11349.58929
3136.82039	11334.58929
3139.16636	11345.73214
3141.51092	11356.30357
3143.85406	11351.44643
3146.19579	11341.01786
3148.53609	11337.58929
3150.87499	11323.44643
3153.21246	11364.58929
3155.54853	11381.875
3157.88318	11400.30357
3160.21642	11394.16071
3162.54826	11423.73214
3164.87868	11392.01786
3167.2077	11416.73214
3169.5353	11424.16071
3171.86151	11437.44643
3174.18631	11413.875
3176.5097	11424.01786
3178.83169	11379.30357
3181.15228	11373.16071
3183.47147	11377.16071
3185.78926	11368.30357
3188.10565	11379.875
3190.42065	11349.44643
3192.73424	11366.01786
3195.04645	11379.01786
3197.35725	11349.30357
3199.66667	11335.30357
3201.97469	11354.16071
3204.28132	11329.58929
3206.58656	11369.01786
3208.8904	11408.30357
3211.19287	11363.73214
3213.49394	11419.30357
3215.79363	11384.44643
3218.09193	11423.44643
3220.38884	11405.875
3222.68438	11432.44643
3224.97853	11396.44643
3227.2713	11394.58929
3229.56269	11366.875
3231.8527	11352.73214
3234.14133	11366.44643
3236.42858	11338.01786
3238.71446	11337.875
3240.99896	11287.58929
3243.28209	11310.44643
3245.56384	11269.875
3247.84423	11269.16071
3250.12324	11257.44643
3252.40088	11272.01786
3254.67715	11265.73214
3256.95205	11241.16071
3259.22558	11289.73214
3261.49775	11260.30357
3263.76855	11273.30357
3266.03799	11257.01786
3268.30606	11234.44643
3270.57277	11201.30357
3272.83812	11183.01786
3275.10211	11147.44643
3277.36474	11153.44643
3279.62601	11124.01786
3281.88593	11110.01786
3284.14448	11127.58929
3286.40168	11082.44643
3288.65753	11074.875
3290.91202	11103.58929
3293.16516	11073.01786
3295.41695	11055.58929
3297.66738	11004.01786
3299.91647	10936.58929
3302.16421	10863.58929
3304.4106	10839.44643
3306.65564	10752.44643
3308.89933	10697.30357
3311.14169	10599.16071
3313.38269	10530.58929
3315.62236	10500.58929
3317.86068	10399.01786
3320.09766	10327.44643
3322.3333	10271.16071
3324.5676	10242.875
3326.80056	10097.30357
3329.03219	10012.44643
3331.26248	2.44643
3333.49143	-0.26786
3335.71905	0.58929
