Data from AgNPs_FTO_APTES_UA_20uM_CRN_200uM_R6G_10uM_NaF_0.1M_Addition_RamanShift__19__18-14-34-930.txt Node

Date: Thu Feb 17 18:14:34 GMT 2022
User: TCL
Spectrometer: QEP01345
Trigger mode: 4
Integration Time (sec): 1.000000E1
Scans to average: 7
Electric dark correction enabled: true
Nonlinearity correction enabled: false
Boxcar width: 0
XAxis mode: Raman Shifts
Number of Pixels in Spectrum: 1044
>>>>>Begin Spectral Data<<<<<
46.04893	0.57143
50.45542	0.14286
54.85868	-0.85714
59.25871	-2
63.6555	71.14286
68.04907	76.14286
72.43941	80.57143
76.82654	80.14286
81.21044	87
85.59113	91.71429
89.96862	96
94.34289	93.57143
98.71396	103.42857
103.08183	102.42857
107.4465	110
111.80798	104.57143
116.16626	104.71429
120.52136	112.85714
124.87327	119.57143
129.222	120.14286
133.56755	125.71429
137.90993	143.57143
142.24913	142.42857
146.58517	164.71429
150.91804	188.85714
155.24774	224.57143
159.57429	269.14286
163.89768	350
168.21792	454.85714
172.53501	618.42857
176.84895	866.42857
181.15975	1230.85714
185.46741	1736.14286
189.77193	2405.85714
194.07331	3253.14286
198.37157	4215.71429
202.6667	5232.42857
206.9587	6261.42857
211.24758	7240.57143
215.53334	8229.57143
219.81599	9235.57143
224.09553	10337
228.37195	11589.71429
232.64527	12922.28571
236.91549	14398.42857
241.18261	15860.71429
245.44663	17324.14286
249.70755	18593.71429
253.96539	19757.57143
258.22014	20665.28571
262.4718	21428.42857
266.72039	21895.28571
270.96589	22174.71429
275.20832	22182.71429
279.44768	22010.42857
283.68397	21698.57143
287.91719	21409
292.14735	21169.57143
296.37445	21061.28571
300.59849	21063.71429
304.81948	21083.71429
309.03742	21138.14286
313.25231	21018.57143
317.46415	20807.57143
321.67296	20437.28571
325.87872	20252.71429
330.08145	20157
334.28114	20211
338.47781	20428.28571
342.67145	20618.28571
346.86207	20972.71429
351.04966	21370.14286
355.23424	21797
359.4158	22166
363.59435	22499
367.76989	22748.71429
371.94243	22930.71429
376.11196	23116.71429
380.27849	23236.42857
384.44203	23443.42857
388.60257	23540
392.76012	23655.14286
396.91468	23790
401.06626	24116.42857
405.21485	24275.42857
409.36047	24280.28571
413.50311	24085.71429
417.64277	23857.71429
421.77947	23741.57143
425.9132	23765.28571
430.04396	23879.71429
434.17176	23999.42857
438.2966	24221.42857
442.41849	24581.71429
446.53742	25029.28571
450.6534	25537.85714
454.76644	25942.57143
458.87653	26105.71429
462.98368	26047.28571
467.08789	25806
471.18916	25564
475.2875	25344.28571
479.38291	25082.85714
483.4754	24974.57143
487.56496	24848.14286
491.6516	24737.14286
495.73531	24677.42857
499.81612	24704.42857
503.89401	24902.71429
507.96899	24981.57143
512.04106	25042
516.11023	25055
520.1765	25071.28571
524.23987	25129.28571
528.30034	25033.42857
532.35792	25019.85714
536.41261	24941.14286
540.46441	24781.28571
544.51333	24738
548.55936	24794.71429
552.60252	24999.28571
556.64279	25221.85714
560.6802	25333.71429
564.71473	25391.71429
568.7464	25484.71429
572.7752	25669.57143
576.80114	25777.42857
580.82422	25859.28571
584.84444	26092
588.86181	26451.57143
592.87633	26907
596.888	27212.71429
600.89682	27211.14286
604.9028	27763.57143
608.90594	29527.85714
612.90624	31687.14286
616.90371	30743
620.89834	27356.71429
624.89015	25763.85714
628.87913	25537.71429
632.86528	25582.71429
636.84862	25664.28571
640.82913	25485
644.80683	25148.57143
648.78172	24897.42857
652.75379	24875.71429
656.72306	25136.14286
660.68952	25426.57143
664.65319	25380.42857
668.61405	25191.57143
672.57211	25194.42857
676.52738	25355.14286
680.47986	25443.57143
684.42955	25401.71429
688.37646	25295.42857
692.32058	25310
696.26192	25312.57143
700.20048	25452.42857
704.13626	25549.14286
708.06928	25487
711.99952	25342.57143
715.927	25255.14286
719.85171	25306.57143
723.77365	25291.28571
727.69284	25223
731.60928	25167
735.52295	25139.85714
739.43388	25139.42857
743.34206	25210
747.24749	25212.71429
751.15017	25258.57143
755.05012	25330.42857
758.94733	25638.14286
762.8418	26298.71429
766.73354	27448.57143
770.62254	28756.14286
774.50882	29477.71429
778.39237	28917
782.27321	27543
786.15132	26290.28571
790.02671	25529.71429
793.89938	25084.85714
797.76935	24920.57143
801.6366	24896.14286
805.50115	24876.14286
809.36299	24799.28571
813.22213	24616.28571
817.07857	24582.42857
820.93231	24527.42857
824.78336	24521.28571
828.63172	24548
832.47738	24583.57143
836.32036	24574.14286
840.16066	24611.85714
843.99827	24679.57143
847.8332	24662.14286
851.66546	24663.28571
855.49504	24690
859.32195	24737.28571
863.1462	24754.14286
866.96777	24786.71429
870.78668	24766.28571
874.60293	24784
878.41652	24792.42857
882.22745	24819.14286
886.03573	24835.85714
889.84136	24830.85714
893.64433	24739.57143
897.44466	24642.57143
901.24235	24577.42857
905.0374	24499.85714
908.8298	24420.85714
912.61957	24359
916.40671	24415.28571
920.19121	24559.28571
923.97308	24688.57143
927.75233	24756.14286
931.52895	24747
935.30295	24689.71429
939.07433	24483.28571
942.84309	24255.28571
946.60924	24139.14286
950.37278	24094.85714
954.13371	23979.85714
957.89203	23919
961.64774	23860.57143
965.40086	23821.85714
969.15137	23750.71429
972.89929	23706.71429
976.64461	23674.28571
980.38733	23760.85714
984.12747	23807.85714
987.86502	23919
991.59999	24085.85714
995.33237	24291.28571
999.06217	24637.71429
1002.78939	24992.57143
1006.51404	25249
1010.23611	25365.85714
1013.95561	25473
1017.67255	25553.42857
1021.38692	25475.71429
1025.09872	25296.14286
1028.80796	25318.71429
1032.51465	25589.14286
1036.21877	25964.57143
1039.92035	25930.28571
1043.61937	25794
1047.31584	25549.71429
1051.00976	25269.71429
1054.70114	25092.85714
1058.38998	25044.71429
1062.07627	25078.57143
1065.76003	25099.57143
1069.44126	25162
1073.11995	25192.71429
1076.79611	25377.85714
1080.46974	25484.57143
1084.14085	25604.57143
1087.80943	25791.42857
1091.47549	25847.57143
1095.13903	25776.85714
1098.80005	25633.14286
1102.45857	25372
1106.11456	25266.85714
1109.76805	25371.71429
1113.41903	25469.28571
1117.06751	25608.42857
1120.71348	25752.57143
1124.35696	25972
1127.99793	26091.28571
1131.63641	26199.42857
1135.2724	26135.85714
1138.90589	25884.42857
1142.5369	25748.71429
1146.16542	25584.28571
1149.79145	25482.28571
1153.415	25408.28571
1157.03607	25560.71429
1160.65467	25810.14286
1164.27079	26261.71429
1167.88443	26981.85714
1171.49561	27896
1175.10432	29023.28571
1178.71056	30600.57143
1182.31434	32073.85714
1185.91565	32854.71429
1189.51451	32734.85714
1193.11091	31871
1196.70485	30839.28571
1200.29634	29981.57143
1203.88538	29305.14286
1207.47197	28651.14286
1211.05612	28085.71429
1214.63782	27718.71429
1218.21708	27596
1221.79391	27569.14286
1225.36829	27641.42857
1228.94024	27617
1232.50976	27307.28571
1236.07685	26993
1239.6415	26866.28571
1243.20374	26869.42857
1246.76355	26943
1250.32093	27151.14286
1253.8759	27463.57143
1257.42845	27813.71429
1260.97859	28208
1264.52631	28653
1268.07163	29034.42857
1271.61453	29516
1275.15503	30059
1278.69312	30511.14286
1282.22882	30873.42857
1285.76211	31198.57143
1289.29301	31596
1292.82151	32054.71429
1296.34761	32774.14286
1299.87133	33831.42857
1303.39266	35138
1306.9116	36826.85714
1310.42815	38602.42857
1313.94233	39682.85714
1317.45412	39522.14286
1320.96354	38460.85714
1324.47058	37229.85714
1327.97525	36068.42857
1331.47754	35329.85714
1334.97747	34928.42857
1338.47502	34777.42857
1341.97022	34903
1345.46305	35181.57143
1348.95352	35670.42857
1352.44163	36427.28571
1355.92738	37583
1359.41078	39407.42857
1362.89183	40909.14286
1366.37053	40345.71429
1369.84688	37405.14286
1373.32088	33997.85714
1376.79254	31733.85714
1380.26186	30537.28571
1383.72883	30035.42857
1387.19347	29741.85714
1390.65578	29312
1394.11575	28922.71429
1397.57339	28882.57143
1401.0287	29099.14286
1404.48168	29374.71429
1407.93234	29477.57143
1411.38068	29445
1414.82669	29313.71429
1418.27039	28984.85714
1421.71177	28620.85714
1425.15083	28198
1428.58758	27865.28571
1432.02203	27845.42857
1435.45416	28067.42857
1438.88399	28408.71429
1442.31151	28661.71429
1445.73673	28775.71429
1449.15965	28924
1452.58027	28905.71429
1455.9986	28803.28571
1459.41463	28805.71429
1462.82837	29033.71429
1466.23982	29430.71429
1469.64898	29872
1473.05586	30274
1476.46045	30503.42857
1479.86276	30561.28571
1483.26279	30506.14286
1486.66054	30542.71429
1490.05602	30655.28571
1493.44922	30780.28571
1496.84016	31078.71429
1500.22882	31625.14286
1503.61521	32578.71429
1506.99934	33785.42857
1510.38121	34728.42857
1513.76081	34894
1517.13816	34172.85714
1520.51324	32734.85714
1523.88607	31370.28571
1527.25665	30535
1530.62498	30128.42857
1533.99105	29941
1537.35488	29764.28571
1540.71647	29729.42857
1544.07581	29535.28571
1547.4329	29319.14286
1550.78776	29139.42857
1554.14038	28966.71429
1557.49077	28886.57143
1560.83892	28853.57143
1564.18484	28932
1567.52853	28991.57143
1570.86999	29188.14286
1574.20922	29360.85714
1577.54624	29403.28571
1580.88103	29161.28571
1584.2136	28876.42857
1587.54395	28878.71429
1590.87208	29474
1594.19801	30651.71429
1597.52172	32051.42857
1600.84321	32765
1604.16251	32338.57143
1607.47959	31076.14286
1610.79447	29537.71429
1614.10715	28102.14286
1617.41763	26917.42857
1620.7259	26065.85714
1624.03199	25525.28571
1627.33587	25439.28571
1630.63757	25760.71429
1633.93707	26440.71429
1637.23439	27621.57143
1640.52951	29234.57143
1643.82246	31270.85714
1647.11321	33020.42857
1650.40179	33557.85714
1653.68819	32269.28571
1656.97241	29790.28571
1660.25446	27253
1663.53433	25406.71429
1666.81203	24301.71429
1670.08756	23534.71429
1673.36092	23099.42857
1676.63211	22787.85714
1679.90115	22560
1683.16801	22318.14286
1686.43272	22182.71429
1689.69527	22053
1692.95567	21974.71429
1696.2139	21899.85714
1699.46999	21889.28571
1702.72392	21839.14286
1705.97571	21779
1709.22535	21797.14286
1712.47284	21780
1715.71819	21762
1718.96139	21688.85714
1722.20246	21638.71429
1725.44139	21565
1728.67818	21531.42857
1731.91284	21465.14286
1735.14537	21403.28571
1738.37576	21343.28571
1741.60403	21291.57143
1744.83017	21258.71429
1748.05418	21240.57143
1751.27607	21252.42857
1754.49584	21192.14286
1757.71349	21182.42857
1760.92903	21156.71429
1764.14244	21213.85714
1767.35375	21111
1770.56294	21059.71429
1773.77002	21001.42857
1776.97499	20940.28571
1780.17785	20901.71429
1783.37861	20922.14286
1786.57727	20855.57143
1789.77382	20802.14286
1792.96828	20748.28571
1796.16064	20713
1799.3509	20667
1802.53907	20676.85714
1805.72514	20593.85714
1808.90913	20560.42857
1812.09102	20531.14286
1815.27083	20488
1818.44856	20460.28571
1821.6242	20492.71429
1824.79776	20469.28571
1827.96924	20393.42857
1831.13864	20377.28571
1834.30597	20367
1837.47122	20370.42857
1840.6344	20312
1843.7955	20336.28571
1846.95454	20286.14286
1850.11151	20268.57143
1853.26642	20309.14286
1856.41926	20246
1859.57004	20296
1862.71876	20252.71429
1865.86542	20225.57143
1869.01003	20204.42857
1872.15258	20234.71429
1875.29308	20177.14286
1878.43152	20132.42857
1881.56792	20155.42857
1884.70227	20139
1887.83457	20117.85714
1890.96482	20084.71429
1894.09304	20061.14286
1897.21921	20056.14286
1900.34335	20016.28571
1903.46544	19971.14286
1906.58551	19962.14286
1909.70353	19960.42857
1912.81953	19896.28571
1915.93349	19886.71429
1919.04543	19821.14286
1922.15534	19859.14286
1925.26322	19827.42857
1928.36908	19809.71429
1931.47292	19775.28571
1934.57473	19732.14286
1937.67453	19715.57143
1940.77232	19643.85714
1943.86808	19568.28571
1946.96184	19526.71429
1950.05358	19447.57143
1953.14331	19446.57143
1956.23103	19372
1959.31675	19357.28571
1962.40046	19261.42857
1965.48217	19221.42857
1968.56188	19178.57143
1971.63959	19146.14286
1974.7153	19066.57143
1977.78901	19010.57143
1980.86073	18946.42857
1983.93046	18925.28571
1986.99819	18862.85714
1990.06394	18820.57143
1993.1277	18735.71429
1996.18947	18675.57143
1999.24925	18652.42857
2002.30706	18557.42857
2005.36288	18492.71429
2008.41672	18488.28571
2011.46859	18385.28571
2014.51848	18383
2017.56639	18330.71429
2020.61233	18271.71429
2023.6563	18212.71429
2026.6983	18198.14286
2029.73833	18158.28571
2032.7764	18127.28571
2035.8125	18061.57143
2038.84664	18054.28571
2041.87881	18012.57143
2044.90903	17986.42857
2047.93729	17971.57143
2050.96359	17976.57143
2053.98794	17916.14286
2057.01034	17943.14286
2060.03078	17904.57143
2063.04927	17913
2066.06582	17919.42857
2069.08042	17929
2072.09307	17859.14286
2075.10378	17888.85714
2078.11255	17835.28571
2081.11938	17841
2084.12426	17840.28571
2087.12722	17835.57143
2090.12824	17830.28571
2093.12732	17825.57143
2096.12447	17824.57143
2099.11969	17834
2102.11299	17844
2105.10435	17800.71429
2108.09379	17830.57143
2111.08131	17891.85714
2114.0669	17901.14286
2117.05057	17875.85714
2120.03233	17889.57143
2123.01216	17926.71429
2125.99008	17936.14286
2128.96609	17967.57143
2131.94018	18007.57143
2134.91236	17999.57143
2137.88263	17968
2140.851	17945
2143.81746	18041.85714
2146.78201	17999.14286
2149.74466	18024.42857
2152.7054	18039.71429
2155.66425	18016
2158.6212	18006.14286
2161.57625	18021.14286
2164.52941	17982
2167.48067	18025
2170.43004	17977
2173.37752	18002.14286
2176.32311	17955.28571
2179.26681	17995.28571
2182.20863	18001.28571
2185.14856	18025.85714
2188.08661	18033.85714
2191.02278	17993.42857
2193.95707	18044.14286
2196.88948	17961.57143
2199.82001	17970.14286
2202.74867	17949.85714
2205.67545	17925.71429
2208.60037	17933
2211.52341	17898.42857
2214.44458	17837.42857
2217.36388	17860
2220.28132	17839.71429
2223.1969	17768.71429
2226.11061	17746.28571
2229.02246	17727.42857
2231.93245	17674.28571
2234.84058	17642.71429
2237.74686	17628
2240.65128	17606.71429
2243.55385	17626.28571
2246.45456	17579.57143
2249.35343	17544.42857
2252.25044	17490.14286
2255.14561	17505.57143
2258.03893	17465.57143
2260.93041	17499.14286
2263.82004	17410.85714
2266.70783	17380.85714
2269.59378	17319.42857
2272.4779	17270.71429
2275.36017	17278.71429
2278.24061	17232.57143
2281.11922	17204.71429
2283.996	17218
2286.87094	17186.28571
2289.74405	17148.85714
2292.61534	17108.42857
2295.4848	17124
2298.35243	17133.14286
2301.21824	17118.85714
2304.08223	17105.28571
2306.94439	17092.14286
2309.80474	17091.28571
2312.66327	17098.71429
2315.51999	17085.28571
2318.37489	17104.71429
2321.22797	17050.85714
2324.07925	17004.28571
2326.92871	16948.85714
2329.77637	16945.42857
2332.62222	16911.85714
2335.46626	16929.57143
2338.3085	16898.14286
2341.14893	16895
2343.98756	16918.28571
2346.8244	16902.57143
2349.65943	16871.71429
2352.49267	16832.85714
2355.32411	16848.71429
2358.15376	16862
2360.98161	16840.85714
2363.80768	16826.71429
2366.63195	16800
2369.45444	16778.71429
2372.27514	16716.28571
2375.09405	16697.42857
2377.91118	16709.85714
2380.72652	16664.42857
2383.54009	16603.42857
2386.35187	16580.71429
2389.16188	16549.14286
2391.97011	16534
2394.77657	16515.85714
2397.58125	16515.85714
2400.38416	16487
2403.18529	16452
2405.98466	16439.57143
2408.78226	16378.57143
2411.57809	16347.85714
2414.37216	16316.42857
2417.16446	16342.42857
2419.955	16296.14286
2422.74378	16268.57143
2425.5308	16276.28571
2428.31606	16262.28571
2431.09956	16230.57143
2433.88131	16220.57143
2436.6613	16224
2439.43954	16200
2442.21603	16210.42857
2444.99077	16190.42857
2447.76377	16161
2450.53501	16154
2453.30451	16188.14286
2456.07226	16156
2458.83827	16118.14286
2461.60254	16107.14286
2464.36507	16099.85714
2467.12586	16050.85714
2469.88492	16065.28571
2472.64224	16062.71429
2475.39782	16053.71429
2478.15167	16045.14286
2480.90379	16066.85714
2483.65417	16097.71429
2486.40283	16090.85714
2489.14976	16105.57143
2491.89497	16111.71429
2494.63845	16098.57143
2497.3802	16075.57143
2500.12024	16049.85714
2502.85855	16028.42857
2505.59514	15985.85714
2508.33002	15980.42857
2511.06318	15949.57143
2513.79462	15920.28571
2516.52435	15905.28571
2519.25237	15921.28571
2521.97867	15857.42857
2524.70327	15882.57143
2527.42616	15852.14286
2530.14734	15844.71429
2532.86681	15807.28571
2535.58458	15813
2538.30065	15779.42857
2541.01501	15791.42857
2543.72768	15745.85714
2546.43864	15734.57143
2549.14791	15703
2551.85548	15722.71429
2554.56136	15678
2557.26554	15679.57143
2559.96803	15665.14286
2562.66883	15639.14286
2565.36794	15569.57143
2568.06536	15558
2570.7611	15521.85714
2573.45514	15542.28571
2576.14751	15493.28571
2578.83819	15442.71429
2581.52719	15453.42857
2584.21451	15452.85714
2586.90015	15456.57143
2589.58411	15433
2592.2664	15421.28571
2594.94701	15359.28571
2597.62594	15332.14286
2600.30321	15322.28571
2602.9788	15302.85714
2605.65273	15270.85714
2608.32498	15266
2610.99557	15319.57143
2613.66449	15294.42857
2616.33175	15255.85714
2618.99734	15265
2621.66128	15245
2624.32355	15192.57143
2626.98416	15221.85714
2629.64311	15208.85714
2632.30041	15179.57143
2634.95605	15178.85714
2637.61004	15112.42857
2640.26238	15067.85714
2642.91306	15103.42857
2645.56209	15060.42857
2648.20948	15053.14286
2650.85521	15098.71429
2653.4993	15081.71429
2656.14175	15051.42857
2658.78255	15066
2661.42171	15084.28571
2664.05923	15108.14286
2666.6951	15095.57143
2669.32934	15087
2671.96194	15060.71429
2674.59291	15084.85714
2677.22224	15077.57143
2679.84993	15057.85714
2682.476	15053.28571
2685.10043	15061.14286
2687.72324	15026.14286
2690.34441	14997
2692.96396	15026.57143
2695.58188	15046.28571
2698.19818	15003.71429
2700.81285	15013.42857
2703.4259	15033.71429
2706.03733	15018.85714
2708.64714	15009.14286
2711.25533	15029.42857
2713.86191	15026.14286
2716.46687	15038.71429
2719.07021	15073.42857
2721.67194	15016.71429
2724.27206	15040.71429
2726.87057	15062.14286
2729.46747	15041.71429
2732.06276	15013.28571
2734.65644	15020.28571
2737.24852	15005.28571
2739.83899	14992.85714
2742.42786	15020.28571
2745.01513	14955.57143
2747.60079	14939.28571
2750.18486	14928.85714
2752.76733	14911.42857
2755.3482	14914
2757.92747	14915.28571
2760.50515	14951.14286
2763.08123	14902.71429
2765.65573	14862.28571
2768.22863	14863.85714
2770.79994	14837.57143
2773.36967	14891.42857
2775.9378	14808
2778.50435	14846.42857
2781.06932	14794.42857
2783.6327	14781.28571
2786.1945	14793.28571
2788.75471	14726.57143
2791.31335	14687.14286
2793.87041	14685.28571
2796.42589	14707.42857
2798.97979	14641.14286
2801.53212	14626
2804.08288	14579.71429
2806.63206	14595.42857
2809.17967	14533.14286
2811.72571	14537.85714
2814.27018	14498.85714
2816.81308	14480.14286
2819.35442	14452.85714
2821.89419	14429.28571
2824.43239	14444
2826.96904	14406.28571
2829.50412	14402.42857
2832.03763	14357.71429
2834.56959	14360.14286
2837.1	14334.85714
2839.62884	14333.57143
2842.15613	14320.57143
2844.68186	14331.14286
2847.20604	14340.57143
2849.72867	14299.57143
2852.24974	14310.57143
2854.76927	14282.71429
2857.28724	14251.71429
2859.80367	14247.28571
2862.31855	14225.14286
2864.83189	14184.71429
2867.34368	14189
2869.85393	14177.71429
2872.36264	14170.14286
2874.8698	14153
2877.37543	14123.71429
2879.87952	14166.71429
2882.38207	14161
2884.88308	14117.57143
2887.38256	14136.14286
2889.88051	14136.14286
2892.37692	14153.14286
2894.8718	14147.14286
2897.36515	14185.57143
2899.85698	14231.57143
2902.34727	14217
2904.83604	14215.42857
2907.32328	14218.28571
2909.809	14275.57143
2912.29319	14282.42857
2914.77587	14283.42857
2917.25702	14306.57143
2919.73665	14255.57143
2922.21476	14273.14286
2924.69136	14241.14286
2927.16644	14273.57143
2929.64	14243.85714
2932.11205	14229.57143
2934.58258	14208.28571
2937.05161	14236.85714
2939.51912	14228.42857
2941.98513	14227.57143
2944.44962	14213.71429
2946.91261	14184.28571
2949.37409	14213.57143
2951.83407	14185.28571
2954.29254	14152.42857
2956.74951	14175
2959.20498	14179
2961.65895	14162.14286
2964.11142	14157.14286
2966.56239	14102.71429
2969.01186	14073.14286
2971.45984	14068.42857
2973.90632	14055.85714
2976.35131	14017.85714
2978.7948	14021.42857
2981.23681	13965.71429
2983.67732	13929.71429
2986.11635	13896.14286
2988.55388	13877
2990.98993	13874.42857
2993.4245	13846.42857
2995.85758	13846
2998.28917	13811.57143
3000.71928	13838.85714
3003.14791	13774.14286
3005.57506	13759.42857
3008.00073	13739.14286
3010.42493	13717.57143
3012.84764	13692.28571
3015.26888	13718.71429
3017.68865	13672.71429
3020.10694	13649.28571
3022.52376	13591.71429
3024.9391	13602.71429
3027.35298	13595.14286
3029.76539	13591.71429
3032.17632	13564.71429
3034.5858	13578.28571
3036.9938	13553.71429
3039.40034	13569.57143
3041.80542	13552.28571
3044.20903	13517.28571
3046.61118	13534.42857
3049.01187	13505.14286
3051.4111	13500.85714
3053.80888	13498.71429
3056.20519	13457
3058.60005	13409.28571
3060.99345	13409.71429
3063.3854	13343.71429
3065.7759	13332.42857
3068.16494	13338.42857
3070.55254	13295.85714
3072.93868	13261.42857
3075.32338	13239.71429
3077.70662	13233.71429
3080.08842	13184.28571
3082.46878	13157
3084.84769	13174.85714
3087.22515	13189
3089.60118	13198
3091.97576	13196.14286
3094.3489	13208.85714
3096.72061	13224.85714
3099.09087	13204.85714
3101.4597	13187
3103.82709	13186.57143
3106.19305	13193.14286
3108.55757	13214.71429
3110.92066	13156.85714
3113.28232	13158.71429
3115.64255	13142
3118.00134	13097.85714
3120.35871	13082.28571
3122.71466	13065.28571
3125.06917	13040.14286
3127.42226	13008
3129.77393	13041.85714
3132.12417	13003.14286
3134.47299	13013.28571
3136.82039	13012.28571
3139.16636	13036.85714
3141.51092	13000.57143
3143.85406	12999.28571
3146.19579	13017.42857
3148.53609	13029.57143
3150.87499	13029.85714
3153.21246	13053.42857
3155.54853	13075
3157.88318	13081.85714
3160.21642	13100.57143
3162.54826	13090.14286
3164.87868	13077.57143
3167.2077	13084.42857
3169.5353	13134.14286
3171.86151	13117.57143
3174.18631	13113.57143
3176.5097	13089
3178.83169	13071.57143
3181.15228	13090.14286
3183.47147	13041.14286
3185.78926	13052.28571
3188.10565	13039.42857
3190.42065	13018
3192.73424	13034.42857
3195.04645	13027.14286
3197.35725	13031.28571
3199.66667	13033.57143
3201.97469	13037
3204.28132	13029.57143
3206.58656	13044.57143
3208.8904	13067.71429
3211.19287	13059
3213.49394	13085
3215.79363	13120.57143
3218.09193	13122
3220.38884	13131.42857
3222.68438	13113.42857
3224.97853	13120.14286
3227.2713	13090.85714
3229.56269	13110.14286
3231.8527	13089.28571
3234.14133	13062
3236.42858	13046.57143
3238.71446	13022.14286
3240.99896	13009
3243.28209	12960.57143
3245.56384	12964.14286
3247.84423	12984.85714
3250.12324	12938.14286
3252.40088	12954.71429
3254.67715	12993
3256.95205	12945.28571
3259.22558	12947.57143
3261.49775	12929.71429
3263.76855	12900.71429
3266.03799	12917.85714
3268.30606	12937.14286
3270.57277	12891.28571
3272.83812	12884.57143
3275.10211	12852.28571
3277.36474	12841.28571
3279.62601	12841.57143
3281.88593	12807.14286
3284.14448	12813
3286.40168	12803.42857
3288.65753	12780.57143
3290.91202	12759.57143
3293.16516	12782
3295.41695	12742.28571
3297.66738	12679
3299.91647	12614.42857
3302.16421	12549.14286
3304.4106	12523
3306.65564	12433.28571
3308.89933	12323.42857
3311.14169	12244
3313.38269	12192.28571
3315.62236	12072.57143
3317.86068	11991
3320.09766	11907.42857
3322.3333	11833
3324.5676	11826.14286
3326.80056	11611.42857
3329.03219	11551.85714
3331.26248	2.28571
3333.49143	-0.14286
3335.71905	0.28571
