Data from AgNPs_FTO_APTES_UA_20uM_CRN_200uM_R6G_10uM_NaF_0.1M_Addition_RamanShift__10__18-04-04-917.txt Node

Date: Thu Feb 17 18:04:04 GMT 2022
User: TCL
Spectrometer: QEP01345
Trigger mode: 4
Integration Time (sec): 1.000000E1
Scans to average: 7
Electric dark correction enabled: true
Nonlinearity correction enabled: false
Boxcar width: 0
XAxis mode: Raman Shifts
Number of Pixels in Spectrum: 1044
>>>>>Begin Spectral Data<<<<<
46.04893	0.44643
50.45542	-0.98214
54.85868	-0.69643
59.25871	-2.26786
63.6555	93.44643
68.04907	91.16071
72.43941	99.01786
76.82654	98.73214
81.21044	102.58929
85.59113	107.875
89.96862	116.30357
94.34289	117.44643
98.71396	115.73214
103.08183	120.01786
107.4465	126.875
111.80798	129.875
116.16626	127.16071
120.52136	134.44643
124.87327	149.01786
129.222	147.44643
133.56755	153.44643
137.90993	169.875
142.24913	184.44643
146.58517	207.44643
150.91804	234.875
155.24774	279.30357
159.57429	347.73214
163.89768	447.16071
168.21792	590.30357
172.53501	803.01786
176.84895	1126.875
181.15975	1607.44643
185.46741	2260.875
189.77193	3146.875
194.07331	4250.875
198.37157	5487.44643
202.6667	6830.44643
206.9587	8123.73214
211.24758	9423.30357
215.53334	10695.73214
219.81599	12026.73214
224.09553	13418.875
228.37195	15008.875
232.64527	16830.16071
236.91549	18666.16071
241.18261	20608.16071
245.44663	22455.16071
249.70755	24250.16071
253.96539	25734.73214
258.22014	26965.58929
262.4718	27996.30357
266.72039	28658.875
270.96589	28976.73214
275.20832	29030.73214
279.44768	28887.73214
283.68397	28486.01786
287.91719	28157.44643
292.14735	27918.01786
296.37445	27745.01786
300.59849	27692.16071
304.81948	27768.73214
309.03742	27755.30357
313.25231	27786.58929
317.46415	27649.01786
321.67296	27372.73214
325.87872	27152.44643
330.08145	27127.30357
334.28114	27172.58929
338.47781	27424.58929
342.67145	27736.30357
346.86207	28096.875
351.04966	28571.73214
355.23424	29023.73214
359.4158	29442.30357
363.59435	29714.44643
367.76989	29954.16071
371.94243	30150.01786
376.11196	30308.30357
380.27849	30523.73214
384.44203	30693.16071
388.60257	30924.01786
392.76012	31195.58929
396.91468	31461.73214
401.06626	31877.30357
405.21485	32141.73214
409.36047	32080.875
413.50311	31922.01786
417.64277	31793.16071
421.77947	31842.30357
425.9132	31936.73214
430.04396	32161.875
434.17176	32330.30357
438.2966	32633.16071
442.41849	32992.30357
446.53742	33515.30357
450.6534	34146.58929
454.76644	34515.58929
458.87653	34640.16071
462.98368	34575.875
467.08789	34380.73214
471.18916	34114.30357
475.2875	33767.875
479.38291	33423.30357
483.4754	33154.16071
487.56496	32977.875
491.6516	32910.16071
495.73531	32877.875
499.81612	32860.58929
503.89401	33064.30357
507.96899	33237.44643
512.04106	33323.73214
516.11023	33360.44643
520.1765	33340.16071
524.23987	33338.30357
528.30034	33351.875
532.35792	33313.58929
536.41261	33165.30357
540.46441	32999.44643
544.51333	32866.58929
548.55936	33042.16071
552.60252	33366.73214
556.64279	33787.16071
560.6802	33961.875
564.71473	34058.875
568.7464	34139.16071
572.7752	34458.01786
576.80114	34825.01786
580.82422	35413.58929
584.84444	36136.58929
588.86181	37173.58929
592.87633	38342.875
596.888	38922.30357
600.89682	38377.73214
604.9028	38092.16071
608.90594	39296.01786
612.90624	41139.875
616.90371	39832.16071
620.89834	36132.16071
624.89015	34347.01786
628.87913	34160.875
632.86528	34402.30357
636.84862	34560.73214
640.82913	34370.44643
644.80683	33979.16071
648.78172	33667.30357
652.75379	33677.875
656.72306	33975.16071
660.68952	34291.30357
664.65319	34258.01786
668.61405	34003.58929
672.57211	33989.58929
676.52738	34203.58929
680.47986	34273.875
684.42955	34119.875
688.37646	34046.44643
692.32058	34109.73214
696.26192	34335.58929
700.20048	34594.16071
704.13626	34764.58929
708.06928	34842.875
711.99952	34754.73214
715.927	34707.16071
719.85171	34724.44643
723.77365	34716.01786
727.69284	34509.16071
731.60928	34322.16071
735.52295	34262.58929
739.43388	34301.30357
743.34206	34424.01786
747.24749	34537.30357
751.15017	34637.16071
755.05012	34848.73214
758.94733	35290.875
762.8418	36220.58929
766.73354	37594.01786
770.62254	39103.58929
774.50882	39600.30357
778.39237	38826.875
782.27321	37412.58929
786.15132	36156.30357
790.02671	35177.875
793.89938	34780.73214
797.76935	34462.44643
801.6366	34360.44643
805.50115	34330.875
809.36299	34192.01786
813.22213	34127.01786
817.07857	34088.875
820.93231	34053.44643
824.78336	34025.01786
828.63172	34007.73214
832.47738	33993.73214
836.32036	34041.875
840.16066	34067.16071
843.99827	34082.16071
847.8332	34143.44643
851.66546	34236.73214
855.49504	34291.875
859.32195	34306.58929
863.1462	34348.58929
866.96777	34324.44643
870.78668	34372.16071
874.60293	34434.16071
878.41652	34438.30357
882.22745	34582.875
886.03573	34614.01786
889.84136	34595.58929
893.64433	34538.30357
897.44466	34427.16071
901.24235	34381.58929
905.0374	34340.73214
908.8298	34266.58929
912.61957	34190.44643
916.40671	34285.01786
920.19121	34460.44643
923.97308	34628.875
927.75233	34705.44643
931.52895	34572.30357
935.30295	34443.44643
939.07433	34125.16071
942.84309	33944.58929
946.60924	33772.16071
950.37278	33696.58929
954.13371	33602.44643
957.89203	33634.16071
961.64774	33615.58929
965.40086	33628.58929
969.15137	33571.73214
972.89929	33526.73214
976.64461	33490.73214
980.38733	33544.875
984.12747	33549.73214
987.86502	33694.30357
991.59999	33796.73214
995.33237	33924.58929
999.06217	34173.44643
1002.78939	34470.73214
1006.51404	34812.30357
1010.23611	35191.58929
1013.95561	35504.875
1017.67255	35620.16071
1021.38692	35443.30357
1025.09872	35171.01786
1028.80796	34886.16071
1032.51465	34725.44643
1036.21877	34766.30357
1039.92035	34798.44643
1043.61937	34864.01786
1047.31584	34969.58929
1051.00976	34976.01786
1054.70114	35024.44643
1058.38998	35093.30357
1062.07627	35226.44643
1065.76003	35392.16071
1069.44126	35614.30357
1073.11995	35945.30357
1076.79611	36282.58929
1080.46974	36490.16071
1084.14085	36617.875
1087.80943	36785.30357
1091.47549	36862.30357
1095.13903	36838.875
1098.80005	36639.44643
1102.45857	36348.58929
1106.11456	36081.73214
1109.76805	35920.30357
1113.41903	35947.875
1117.06751	36023.01786
1120.71348	36201.875
1124.35696	36472.73214
1127.99793	36670.30357
1131.63641	36824.58929
1135.2724	36742.875
1138.90589	36582.16071
1142.5369	36537.30357
1146.16542	36524.73214
1149.79145	36559.30357
1153.415	36497.01786
1157.03607	36558.44643
1160.65467	36912.30357
1164.27079	37513.16071
1167.88443	38438.16071
1171.49561	39557.875
1175.10432	40865.30357
1178.71056	42669.875
1182.31434	44388.875
1185.91565	45378.875
1189.51451	45504.01786
1193.11091	44961.01786
1196.70485	44215.30357
1200.29634	43290.01786
1203.88538	42324.16071
1207.47197	41463.44643
1211.05612	40775.73214
1214.63782	40234.16071
1218.21708	39738.30357
1221.79391	39406.44643
1225.36829	39270.16071
1228.94024	39283.01786
1232.50976	39110.44643
1236.07685	38918.01786
1239.6415	38762.73214
1243.20374	38684.73214
1246.76355	38688.875
1250.32093	38873.875
1253.8759	39200.30357
1257.42845	39727.30357
1260.97859	40310.73214
1264.52631	40930.30357
1268.07163	41475.16071
1271.61453	41990.875
1275.15503	42460.30357
1278.69312	42917.44643
1282.22882	43414.44643
1285.76211	44094.30357
1289.29301	44901.875
1292.82151	45795.58929
1296.34761	46927.875
1299.87133	48323.73214
1303.39266	49831.58929
1306.9116	51448.73214
1310.42815	52963.30357
1313.94233	53860.30357
1317.45412	53504.30357
1320.96354	52435.875
1324.47058	51348.73214
1327.97525	50455.58929
1331.47754	49913.44643
1334.97747	49674.44643
1338.47502	49565.58929
1341.97022	49861.01786
1345.46305	50235.16071
1348.95352	50928.58929
1352.44163	51705.73214
1355.92738	52796.16071
1359.41078	54262.01786
1362.89183	55484.58929
1366.37053	54785.73214
1369.84688	51835.73214
1373.32088	47969.44643
1376.79254	45120.30357
1380.26186	43723.73214
1383.72883	43225.58929
1387.19347	42790.73214
1390.65578	42287.16071
1394.11575	41801.73214
1397.57339	41679.30357
1401.0287	41834.01786
1404.48168	41869.44643
1407.93234	41909.16071
1411.38068	41835.16071
1414.82669	41518.44643
1418.27039	41045.58929
1421.71177	40483.30357
1425.15083	39992.01786
1428.58758	39684.58929
1432.02203	39751.16071
1435.45416	40006.73214
1438.88399	40429.875
1442.31151	40676.58929
1445.73673	40790.875
1449.15965	40852.16071
1452.58027	40738.16071
1455.9986	40677.01786
1459.41463	40744.73214
1462.82837	41112.30357
1466.23982	41662.01786
1469.64898	42252.73214
1473.05586	42743.875
1476.46045	43117.30357
1479.86276	43359.01786
1483.26279	43398.73214
1486.66054	43619.44643
1490.05602	43947.16071
1493.44922	44442.16071
1496.84016	45215.44643
1500.22882	46103.16071
1503.61521	47356.73214
1506.99934	48520.01786
1510.38121	49268.875
1513.76081	49068.01786
1517.13816	47982.58929
1520.51324	46526.73214
1523.88607	45294.875
1527.25665	44718.58929
1530.62498	44408.875
1533.99105	44186.875
1537.35488	43902.44643
1540.71647	43518.44643
1544.07581	43001.58929
1547.4329	42433.01786
1550.78776	41977.58929
1554.14038	41571.44643
1557.49077	41372.58929
1560.83892	41380.58929
1564.18484	41441.875
1567.52853	41685.16071
1570.86999	41887.875
1574.20922	42219.01786
1577.54624	42270.73214
1580.88103	42006.01786
1584.2136	41653.01786
1587.54395	41738.875
1590.87208	42399.16071
1594.19801	43731.73214
1597.52172	45312.875
1600.84321	46166.01786
1604.16251	45674.44643
1607.47959	44159.875
1610.79447	42371.16071
1614.10715	40556.16071
1617.41763	38958.44643
1620.7259	37741.01786
1624.03199	37029.16071
1627.33587	36849.01786
1630.63757	37094.30357
1633.93707	37990.73214
1637.23439	39684.16071
1640.52951	42287.875
1643.82246	45548.44643
1647.11321	48350.30357
1650.40179	49387.01786
1653.68819	47569.44643
1656.97241	43962.58929
1660.25446	40277.58929
1663.53433	37521.73214
1666.81203	35822.73214
1670.08756	34706.58929
1673.36092	34047.30357
1676.63211	33564.875
1679.90115	33189.73214
1683.16801	32901.58929
1686.43272	32697.30357
1689.69527	32540.58929
1692.95567	32404.44643
1696.2139	32357.30357
1699.46999	32336.58929
1702.72392	32188.73214
1705.97571	32248.01786
1709.22535	32192.01786
1712.47284	32162.73214
1715.71819	32185.01786
1718.96139	32105.01786
1722.20246	32057.30357
1725.44139	31952.16071
1728.67818	31904.01786
1731.91284	31755.44643
1735.14537	31709.30357
1738.37576	31633.875
1741.60403	31526.44643
1744.83017	31385.58929
1748.05418	31324.58929
1751.27607	31355.16071
1754.49584	31275.58929
1757.71349	31310.875
1760.92903	31296.01786
1764.14244	31285.01786
1767.35375	31222.58929
1770.56294	31220.58929
1773.77002	31140.30357
1776.97499	31091.01786
1780.17785	31087.73214
1783.37861	31026.16071
1786.57727	30942.16071
1789.77382	30959.44643
1792.96828	30879.16071
1796.16064	30799.73214
1799.3509	30721.16071
1802.53907	30694.44643
1805.72514	30676.58929
1808.90913	30548.30357
1812.09102	30578.01786
1815.27083	30471.875
1818.44856	30495.73214
1821.6242	30496.16071
1824.79776	30439.16071
1827.96924	30425.875
1831.13864	30339.73214
1834.30597	30366.30357
1837.47122	30360.73214
1840.6344	30351.875
1843.7955	30349.58929
1846.95454	30338.01786
1850.11151	30252.73214
1853.26642	30260.30357
1856.41926	30263.875
1859.57004	30250.73214
1862.71876	30213.30357
1865.86542	30166.01786
1869.01003	30142.01786
1872.15258	30102.01786
1875.29308	30088.30357
1878.43152	30046.73214
1881.56792	30009.30357
1884.70227	29995.73214
1887.83457	29966.16071
1890.96482	29922.44643
1894.09304	29841.73214
1897.21921	29837.73214
1900.34335	29825.58929
1903.46544	29789.01786
1906.58551	29724.44643
1909.70353	29669.16071
1912.81953	29612.44643
1915.93349	29556.58929
1919.04543	29498.875
1922.15534	29554.16071
1925.26322	29441.01786
1928.36908	29457.30357
1931.47292	29391.16071
1934.57473	29374.30357
1937.67453	29281.01786
1940.77232	29188.73214
1943.86808	29075.44643
1946.96184	29009.44643
1950.05358	28889.30357
1953.14331	28875.58929
1956.23103	28812.44643
1959.31675	28759.44643
1962.40046	28665.01786
1965.48217	28569.875
1968.56188	28497.16071
1971.63959	28434.73214
1974.7153	28400.58929
1977.78901	28319.01786
1980.86073	28172.73214
1983.93046	28107.73214
1986.99819	27983.875
1990.06394	27922.58929
1993.1277	27907.30357
1996.18947	27822.73214
1999.24925	27667.44643
2002.30706	27643.58929
2005.36288	27535.30357
2008.41672	27497.875
2011.46859	27387.73214
2014.51848	27294.73214
2017.56639	27242.58929
2020.61233	27165.875
2023.6563	27098.30357
2026.6983	27028.73214
2029.73833	26977.44643
2032.7764	26945.73214
2035.8125	26870.58929
2038.84664	26781.30357
2041.87881	26787.44643
2044.90903	26682.58929
2047.93729	26647.58929
2050.96359	26654.16071
2053.98794	26716.16071
2057.01034	26611.30357
2060.03078	26589.01786
2063.04927	26507.16071
2066.06582	26494.16071
2069.08042	26516.01786
2072.09307	26511.875
2075.10378	26520.73214
2078.11255	26473.875
2081.11938	26475.30357
2084.12426	26455.58929
2087.12722	26467.73214
2090.12824	26467.16071
2093.12732	26514.44643
2096.12447	26467.875
2099.11969	26463.73214
2102.11299	26468.73214
2105.10435	26474.44643
2108.09379	26484.58929
2111.08131	26513.30357
2114.0669	26508.01786
2117.05057	26554.58929
2120.03233	26537.58929
2123.01216	26587.73214
2125.99008	26636.01786
2128.96609	26700.01786
2131.94018	26728.73214
2134.91236	26729.44643
2137.88263	26689.30357
2140.851	26680.58929
2143.81746	26718.44643
2146.78201	26789.01786
2149.74466	26725.30357
2152.7054	26728.44643
2155.66425	26737.58929
2158.6212	26704.44643
2161.57625	26702.73214
2164.52941	26689.30357
2167.48067	26697.16071
2170.43004	26655.16071
2173.37752	26614.44643
2176.32311	26677.44643
2179.26681	26655.16071
2182.20863	26643.44643
2185.14856	26663.01786
2188.08661	26617.30357
2191.02278	26650.16071
2193.95707	26641.30357
2196.88948	26640.73214
2199.82001	26629.58929
2202.74867	26569.58929
2205.67545	26508.01786
2208.60037	26524.73214
2211.52341	26429.58929
2214.44458	26405.44643
2217.36388	26330.58929
2220.28132	26310.30357
2223.1969	26228.30357
2226.11061	26247.30357
2229.02246	26168.73214
2231.93245	26095.01786
2234.84058	26018.16071
2237.74686	25996.58929
2240.65128	26033.73214
2243.55385	26025.875
2246.45456	25947.44643
2249.35343	25956.44643
2252.25044	25896.73214
2255.14561	25863.58929
2258.03893	25869.73214
2260.93041	25803.58929
2263.82004	25733.16071
2266.70783	25663.16071
2269.59378	25627.44643
2272.4779	25518.58929
2275.36017	25461.01786
2278.24061	25448.30357
2281.11922	25398.44643
2283.996	25378.58929
2286.87094	25413.01786
2289.74405	25311.875
2292.61534	25283.01786
2295.4848	25257.44643
2298.35243	25259.875
2301.21824	25240.30357
2304.08223	25202.16071
2306.94439	25109.875
2309.80474	25132.58929
2312.66327	25107.01786
2315.51999	25089.44643
2318.37489	25026.01786
2321.22797	24978.58929
2324.07925	24971.01786
2326.92871	24887.73214
2329.77637	24829.58929
2332.62222	24799.30357
2335.46626	24815.01786
2338.3085	24778.58929
2341.14893	24756.875
2343.98756	24748.30357
2346.8244	24705.44643
2349.65943	24667.01786
2352.49267	24617.58929
2355.32411	24617.73214
2358.15376	24613.58929
2360.98161	24654.44643
2363.80768	24556.30357
2366.63195	24599.875
2369.45444	24493.58929
2372.27514	24515.30357
2375.09405	24433.58929
2377.91118	24446.44643
2380.72652	24435.16071
2383.54009	24370.16071
2386.35187	24304.875
2389.16188	24216.44643
2391.97011	24174.58929
2394.77657	24139.58929
2397.58125	24134.30357
2400.38416	24127.58929
2403.18529	24058.16071
2405.98466	24055.16071
2408.78226	24006.16071
2411.57809	23920.01786
2414.37216	23927.73214
2417.16446	23913.30357
2419.955	23887.58929
2422.74378	23846.01786
2425.5308	23826.73214
2428.31606	23831.58929
2431.09956	23794.73214
2433.88131	23767.58929
2436.6613	23702.875
2439.43954	23725.44643
2442.21603	23715.16071
2444.99077	23678.01786
2447.76377	23701.16071
2450.53501	23618.73214
2453.30451	23646.875
2456.07226	23638.73214
2458.83827	23593.30357
2461.60254	23564.01786
2464.36507	23508.01786
2467.12586	23458.44643
2469.88492	23514.30357
2472.64224	23472.44643
2475.39782	23389.01786
2478.15167	23414.01786
2480.90379	23418.875
2483.65417	23457.44643
2486.40283	23452.44643
2489.14976	23451.44643
2491.89497	23421.44643
2494.63845	23408.875
2497.3802	23384.16071
2500.12024	23386.58929
2502.85855	23329.16071
2505.59514	23238.44643
2508.33002	23238.16071
2511.06318	23202.30357
2513.79462	23147.01786
2516.52435	23124.16071
2519.25237	23105.16071
2521.97867	23053.30357
2524.70327	23045.44643
2527.42616	23057.44643
2530.14734	23042.16071
2532.86681	22945.73214
2535.58458	22934.44643
2538.30065	22901.30357
2541.01501	22890.16071
2543.72768	22855.16071
2546.43864	22847.875
2549.14791	22799.58929
2551.85548	22757.30357
2554.56136	22720.73214
2557.26554	22680.01786
2559.96803	22632.44643
2562.66883	22577.875
2565.36794	22576.16071
2568.06536	22539.01786
2570.7611	22484.875
2573.45514	22459.16071
2576.14751	22429.44643
2578.83819	22323.30357
2581.52719	22310.30357
2584.21451	22296.01786
2586.90015	22254.875
2589.58411	22236.875
2592.2664	22233.73214
2594.94701	22153.30357
2597.62594	22113.875
2600.30321	22073.30357
2602.9788	22028.44643
2605.65273	21991.875
2608.32498	21950.30357
2610.99557	21981.44643
2613.66449	21932.875
2616.33175	21969.44643
2618.99734	21901.44643
2621.66128	21822.30357
2624.32355	21831.58929
2626.98416	21772.875
2629.64311	21726.58929
2632.30041	21698.44643
2634.95605	21658.73214
2637.61004	21637.30357
2640.26238	21562.875
2642.91306	21595.875
2645.56209	21586.58929
2648.20948	21613.58929
2650.85521	21564.875
2653.4993	21555.73214
2656.14175	21576.30357
2658.78255	21587.30357
2661.42171	21569.875
2664.05923	21607.01786
2666.6951	21581.875
2669.32934	21576.16071
2671.96194	21595.73214
2674.59291	21579.30357
2677.22224	21580.73214
2679.84993	21545.58929
2682.476	21544.58929
2685.10043	21541.58929
2687.72324	21462.01786
2690.34441	21522.01786
2692.96396	21517.875
2695.58188	21526.875
2698.19818	21495.01786
2700.81285	21492.73214
2703.4259	21486.73214
2706.03733	21498.44643
2708.64714	21513.01786
2711.25533	21522.58929
2713.86191	21506.01786
2716.46687	21528.16071
2719.07021	21557.44643
2721.67194	21531.73214
2724.27206	21504.30357
2726.87057	21495.44643
2729.46747	21491.73214
2732.06276	21508.875
2734.65644	21470.30357
2737.24852	21430.30357
2739.83899	21431.16071
2742.42786	21426.58929
2745.01513	21372.01786
2747.60079	21363.44643
2750.18486	21301.44643
2752.76733	21293.44643
2755.3482	21286.44643
2757.92747	21273.73214
2760.50515	21220.16071
2763.08123	21191.30357
2765.65573	21162.16071
2768.22863	21135.73214
2770.79994	21104.58929
2773.36967	21061.30357
2775.9378	21068.875
2778.50435	20994.875
2781.06932	21018.73214
2783.6327	21021.73214
2786.1945	20928.16071
2788.75471	20897.875
2791.31335	20844.875
2793.87041	20815.01786
2796.42589	20765.58929
2798.97979	20793.73214
2801.53212	20683.58929
2804.08288	20666.01786
2806.63206	20623.44643
2809.17967	20602.30357
2811.72571	20550.44643
2814.27018	20467.73214
2816.81308	20468.16071
2819.35442	20410.875
2821.89419	20357.44643
2824.43239	20353.16071
2826.96904	20339.58929
2829.50412	20311.30357
2832.03763	20271.875
2834.56959	20283.58929
2837.1	20264.44643
2839.62884	20209.73214
2842.15613	20144.875
2844.68186	20190.44643
2847.20604	20181.16071
2849.72867	20144.73214
2852.24974	20140.30357
2854.76927	20087.16071
2857.28724	20065.44643
2859.80367	20063.30357
2862.31855	20003.16071
2864.83189	19920.01786
2867.34368	19899.44643
2869.85393	19915.875
2872.36264	19918.16071
2874.8698	19803.58929
2877.37543	19789.73214
2879.87952	19834.875
2882.38207	19784.16071
2884.88308	19759.30357
2887.38256	19738.58929
2889.88051	19759.30357
2892.37692	19788.875
2894.8718	19718.01786
2897.36515	19801.01786
2899.85698	19776.16071
2902.34727	19825.73214
2904.83604	19819.875
2907.32328	19787.16071
2909.809	19831.30357
2912.29319	19822.16071
2914.77587	19783.875
2917.25702	19822.58929
2919.73665	19772.875
2922.21476	19756.01786
2924.69136	19788.16071
2927.16644	19783.44643
2929.64	19738.16071
2932.11205	19731.875
2934.58258	19643.01786
2937.05161	19666.01786
2939.51912	19685.58929
2941.98513	19678.58929
2944.44962	19630.44643
2946.91261	19583.875
2949.37409	19639.875
2951.83407	19592.30357
2954.29254	19585.875
2956.74951	19579.16071
2959.20498	19564.30357
2961.65895	19542.30357
2964.11142	19553.16071
2966.56239	19508.44643
2969.01186	19499.44643
2971.45984	19471.01786
2973.90632	19438.30357
2976.35131	19423.58929
2978.7948	19399.875
2981.23681	19360.44643
2983.67732	19309.16071
2986.11635	19225.73214
2988.55388	19226.58929
2990.98993	19181.30357
2993.4245	19160.30357
2995.85758	19132.58929
2998.28917	19098.30357
3000.71928	19046.44643
3003.14791	19027.73214
3005.57506	18990.73214
3008.00073	18944.30357
3010.42493	18936.16071
3012.84764	18913.16071
3015.26888	18879.16071
3017.68865	18839.44643
3020.10694	18802.44643
3022.52376	18746.44643
3024.9391	18751.16071
3027.35298	18711.30357
3029.76539	18718.73214
3032.17632	18687.44643
3034.5858	18637.30357
3036.9938	18656.44643
3039.40034	18616.16071
3041.80542	18608.73214
3044.20903	18563.58929
3046.61118	18580.30357
3049.01187	18538.875
3051.4111	18521.73214
3053.80888	18478.30357
3056.20519	18433.30357
3058.60005	18409.01786
3060.99345	18388.73214
3063.3854	18318.44643
3065.7759	18248.875
3068.16494	18239.58929
3070.55254	18148.58929
3072.93868	18145.01786
3075.32338	18097.01786
3077.70662	18090.875
3080.08842	18053.16071
3082.46878	17975.30357
3084.84769	17993.01786
3087.22515	17948.875
3089.60118	17972.44643
3091.97576	17968.58929
3094.3489	17986.44643
3096.72061	17982.44643
3099.09087	17972.30357
3101.4597	17919.73214
3103.82709	17903.01786
3106.19305	17968.73214
3108.55757	17895.44643
3110.92066	17899.73214
3113.28232	17844.01786
3115.64255	17800.875
3118.00134	17761.875
3120.35871	17718.73214
3122.71466	17680.875
3125.06917	17655.875
3127.42226	17590.73214
3129.77393	17648.44643
3132.12417	17582.01786
3134.47299	17590.58929
3136.82039	17553.30357
3139.16636	17586.73214
3141.51092	17547.30357
3143.85406	17562.73214
3146.19579	17537.73214
3148.53609	17526.01786
3150.87499	17563.73214
3153.21246	17552.01786
3155.54853	17568.875
3157.88318	17543.875
3160.21642	17557.44643
3162.54826	17600.01786
3164.87868	17580.01786
3167.2077	17553.30357
3169.5353	17540.875
3171.86151	17582.16071
3174.18631	17524.01786
3176.5097	17506.73214
3178.83169	17473.73214
3181.15228	17474.58929
3183.47147	17420.16071
3185.78926	17419.44643
3188.10565	17390.30357
3190.42065	17348.44643
3192.73424	17343.44643
3195.04645	17318.01786
3197.35725	17332.73214
3199.66667	17267.16071
3201.97469	17303.58929
3204.28132	17314.30357
3206.58656	17328.44643
3208.8904	17342.44643
3211.19287	17328.875
3213.49394	17362.16071
3215.79363	17304.44643
3218.09193	17338.73214
3220.38884	17302.01786
3222.68438	17333.73214
3224.97853	17306.58929
3227.2713	17315.58929
3229.56269	17282.875
3231.8527	17272.16071
3234.14133	17220.16071
3236.42858	17162.01786
3238.71446	17153.30357
3240.99896	17089.01786
3243.28209	17067.30357
3245.56384	17007.44643
3247.84423	17036.01786
3250.12324	17015.30357
3252.40088	17014.44643
3254.67715	16977.01786
3256.95205	16992.16071
3259.22558	16966.16071
3261.49775	16953.44643
3263.76855	16968.30357
3266.03799	16910.30357
3268.30606	16909.73214
3270.57277	16855.01786
3272.83812	16842.58929
3275.10211	16795.30357
3277.36474	16790.30357
3279.62601	16767.30357
3281.88593	16725.44643
3284.14448	16680.875
3286.40168	16696.44643
3288.65753	16671.16071
3290.91202	16658.875
3293.16516	16593.16071
3295.41695	16613.30357
3297.66738	16503.58929
3299.91647	16437.875
3302.16421	16293.58929
3304.4106	16253.44643
3306.65564	16147.30357
3308.89933	16044.58929
3311.14169	15903.73214
3313.38269	15808.875
3315.62236	15700.58929
3317.86068	15532.73214
3320.09766	15440.01786
3322.3333	15330.73214
3324.5676	15263.875
3326.80056	15048.01786
3329.03219	14979.16071
3331.26248	4.58929
3333.49143	-1.55357
3335.71905	0.16071
