Data from AgNPs_FTO_APTES_UA_20uM_CRN_100uM_R6G_10uM_NaF_0.1M_Addition_RamanShift__6__17-25-34-869.txt Node

Date: Thu Feb 17 17:25:34 GMT 2022
User: TCL
Spectrometer: QEP01345
Trigger mode: 4
Integration Time (sec): 1.000000E1
Scans to average: 7
Electric dark correction enabled: true
Nonlinearity correction enabled: false
Boxcar width: 0
XAxis mode: Raman Shifts
Number of Pixels in Spectrum: 1044
>>>>>Begin Spectral Data<<<<<
46.04893	0.76786
50.45542	-0.51786
54.85868	-0.94643
59.25871	-2.66071
63.6555	76.05357
68.04907	73.19643
72.43941	80.33929
76.82654	80.19643
81.21044	86.625
85.59113	86.91071
89.96862	92.33929
94.34289	90.625
98.71396	95.91071
103.08183	96.48214
107.4465	105.625
111.80798	101.48214
116.16626	104.48214
120.52136	109.33929
124.87327	113.33929
129.222	112.19643
133.56755	119.33929
137.90993	131.33929
142.24913	140.76786
146.58517	156.33929
150.91804	173.91071
155.24774	203.19643
159.57429	245.19643
163.89768	314.76786
168.21792	413.48214
172.53501	552.76786
176.84895	784.05357
181.15975	1097.19643
185.46741	1554.625
189.77193	2149.91071
194.07331	2899.19643
198.37157	3758.33929
202.6667	4667.76786
206.9587	5568.76786
211.24758	6450.76786
215.53334	7289.19643
219.81599	8228.76786
224.09553	9193.19643
228.37195	10247.05357
232.64527	11475.91071
236.91549	12771.48214
241.18261	14074.91071
245.44663	15322.33929
249.70755	16543.91071
253.96539	17611.33929
258.22014	18448.05357
262.4718	19188.91071
266.72039	19677.19643
270.96589	19897.76786
275.20832	19908.33929
279.44768	19760.91071
283.68397	19535.48214
287.91719	19258.91071
292.14735	19045.48214
296.37445	18909.33929
300.59849	18849.91071
304.81948	18839.91071
309.03742	18854.05357
313.25231	18810.91071
317.46415	18718.625
321.67296	18512.91071
325.87872	18376.48214
330.08145	18360.76786
334.28114	18442.76786
338.47781	18566.76786
342.67145	18848.76786
346.86207	19064.48214
351.04966	19412.48214
355.23424	19747.33929
359.4158	20042.76786
363.59435	20293.33929
367.76989	20529.48214
371.94243	20640.19643
376.11196	20835.05357
380.27849	20959.05357
384.44203	21091.76786
388.60257	21254.05357
392.76012	21443.625
396.91468	21600.19643
401.06626	21841.76786
405.21485	22018.76786
409.36047	22027.33929
413.50311	21898.91071
417.64277	21742.625
421.77947	21726.76786
425.9132	21811.76786
430.04396	21870.19643
434.17176	22044.91071
438.2966	22213.48214
442.41849	22359.48214
446.53742	22667.33929
450.6534	22927.48214
454.76644	23153.19643
458.87653	23244.91071
462.98368	23355.48214
467.08789	23332.76786
471.18916	23262.625
475.2875	23159.48214
479.38291	22994.91071
483.4754	22889.33929
487.56496	22803.76786
491.6516	22766.19643
495.73531	22798.91071
499.81612	22830.19643
503.89401	22926.19643
507.96899	23027.48214
512.04106	23123.91071
516.11023	23185.91071
520.1765	23183.05357
524.23987	23198.48214
528.30034	23182.625
532.35792	23148.19643
536.41261	23139.19643
540.46441	23043.19643
544.51333	23012.76786
548.55936	23107.33929
552.60252	23258.05357
556.64279	23417.48214
560.6802	23573.19643
564.71473	23577.48214
568.7464	23561.33929
572.7752	23658.33929
576.80114	23725.625
580.82422	23876.76786
584.84444	24076.625
588.86181	24257.91071
592.87633	24463.48214
596.888	24695.19643
600.89682	24841.48214
604.9028	25280.625
608.90594	26586.05357
612.90624	28194.91071
616.90371	27636.625
620.89834	25271.48214
624.89015	24125.48214
628.87913	23940.05357
632.86528	24047.91071
636.84862	24213.33929
640.82913	24176.76786
644.80683	23990.05357
648.78172	23817.19643
652.75379	23852.76786
656.72306	24021.05357
660.68952	24274.76786
664.65319	24268.19643
668.61405	24128.33929
672.57211	24208.48214
676.52738	24298.19643
680.47986	24330.05357
684.42955	24295.91071
688.37646	24272.625
692.32058	24316.05357
696.26192	24373.625
700.20048	24498.91071
704.13626	24666.625
708.06928	24667.05357
711.99952	24525.76786
715.927	24474.76786
719.85171	24522.625
723.77365	24546.33929
727.69284	24504.48214
731.60928	24415.48214
735.52295	24364.625
739.43388	24366.05357
743.34206	24441.19643
747.24749	24505.48214
751.15017	24530.05357
755.05012	24554.76786
758.94733	24772.19643
762.8418	25316.91071
766.73354	26188.625
770.62254	27071.48214
774.50882	27534.625
778.39237	27171.76786
782.27321	26357.33929
786.15132	25569.33929
790.02671	24937.625
793.89938	24659.48214
797.76935	24554.625
801.6366	24489.91071
805.50115	24436.48214
809.36299	24424.625
813.22213	24339.19643
817.07857	24361.625
820.93231	24310.33929
824.78336	24379.76786
828.63172	24427.05357
832.47738	24436.33929
836.32036	24425.05357
840.16066	24404.05357
843.99827	24463.33929
847.8332	24453.625
851.66546	24448.19643
855.49504	24514.05357
859.32195	24587.33929
863.1462	24600.48214
866.96777	24613.625
870.78668	24630.05357
874.60293	24739.625
878.41652	24743.625
882.22745	24824.33929
886.03573	24810.625
889.84136	24819.625
893.64433	24847.625
897.44466	24749.05357
901.24235	24725.33929
905.0374	24719.91071
908.8298	24656.625
912.61957	24610.33929
916.40671	24673.19643
920.19121	24670.91071
923.97308	24734.625
927.75233	24736.33929
931.52895	24769.33929
935.30295	24689.625
939.07433	24567.76786
942.84309	24524.76786
946.60924	24385.19643
950.37278	24318.48214
954.13371	24278.48214
957.89203	24256.625
961.64774	24230.19643
965.40086	24231.76786
969.15137	24224.05357
972.89929	24190.05357
976.64461	24199.05357
980.38733	24203.05357
984.12747	24185.76786
987.86502	24292.625
991.59999	24343.48214
995.33237	24439.33929
999.06217	24550.33929
1002.78939	24666.48214
1006.51404	24899.91071
1010.23611	25067.76786
1013.95561	25218.91071
1017.67255	25255.33929
1021.38692	25224.625
1025.09872	25130.33929
1028.80796	25038.33929
1032.51465	24878.05357
1036.21877	24954.76786
1039.92035	24926.19643
1043.61937	24980.33929
1047.31584	25025.625
1051.00976	25050.91071
1054.70114	25187.625
1058.38998	25230.19643
1062.07627	25298.33929
1065.76003	25425.19643
1069.44126	25523.33929
1073.11995	25680.33929
1076.79611	25927.91071
1080.46974	26018.48214
1084.14085	26122.19643
1087.80943	26145.33929
1091.47549	26178.625
1095.13903	26197.19643
1098.80005	26129.33929
1102.45857	25982.48214
1106.11456	25817.33929
1109.76805	25770.76786
1113.41903	25695.91071
1117.06751	25744.33929
1120.71348	25890.05357
1124.35696	26014.19643
1127.99793	26204.625
1131.63641	26249.48214
1135.2724	26126.76786
1138.90589	25976.625
1142.5369	25885.625
1146.16542	25795.48214
1149.79145	25731.91071
1153.415	25698.19643
1157.03607	25653.19643
1160.65467	25782.19643
1164.27079	26056.48214
1167.88443	26393.05357
1171.49561	26837.33929
1175.10432	27557.48214
1178.71056	28477.05357
1182.31434	29334.91071
1185.91565	29958.48214
1189.51451	30097.19643
1193.11091	30032.33929
1196.70485	29702.625
1200.29634	29279.19643
1203.88538	28787.76786
1207.47197	28238.625
1211.05612	27728.625
1214.63782	27391.05357
1218.21708	27142.91071
1221.79391	26939.625
1225.36829	26869.625
1228.94024	26846.33929
1232.50976	26854.625
1236.07685	26772.76786
1239.6415	26818.48214
1243.20374	26900.19643
1246.76355	26974.625
1250.32093	27093.625
1253.8759	27223.05357
1257.42845	27457.33929
1260.97859	27779.625
1264.52631	28078.33929
1268.07163	28315.625
1271.61453	28516.76786
1275.15503	28646.91071
1278.69312	28791.625
1282.22882	28909.76786
1285.76211	29093.05357
1289.29301	29331.33929
1292.82151	29534.48214
1296.34761	29911.05357
1299.87133	30346.91071
1303.39266	30914.05357
1306.9116	31679.19643
1310.42815	32501.19643
1313.94233	32989.33929
1317.45412	32909.05357
1320.96354	32464.19643
1324.47058	31902.05357
1327.97525	31402.48214
1331.47754	31071.625
1334.97747	31003.33929
1338.47502	31138.05357
1341.97022	31432.19643
1345.46305	31980.91071
1348.95352	32604.91071
1352.44163	33300.48214
1355.92738	33884.625
1359.41078	34706.625
1362.89183	35327.91071
1366.37053	34882.48214
1369.84688	33170.625
1373.32088	31132.33929
1376.79254	29750.19643
1380.26186	28884.91071
1383.72883	28410.76786
1387.19347	28012.76786
1390.65578	27608.91071
1394.11575	27314.76786
1397.57339	27114.19643
1401.0287	27000.33929
1404.48168	26943.48214
1407.93234	26929.48214
1411.38068	26962.19643
1414.82669	26976.48214
1418.27039	26920.19643
1421.71177	26770.48214
1425.15083	26567.05357
1428.58758	26471.33929
1432.02203	26398.19643
1435.45416	26496.33929
1438.88399	26563.33929
1442.31151	26650.625
1445.73673	26642.91071
1449.15965	26730.19643
1452.58027	26744.48214
1455.9986	26761.48214
1459.41463	26787.19643
1462.82837	26931.91071
1466.23982	27269.33929
1469.64898	27542.19643
1473.05586	27834.76786
1476.46045	27998.33929
1479.86276	28203.19643
1483.26279	28276.48214
1486.66054	28445.48214
1490.05602	28677.91071
1493.44922	29041.33929
1496.84016	29644.19643
1500.22882	30432.48214
1503.61521	31425.19643
1506.99934	32457.05357
1510.38121	33020.48214
1513.76081	32937.91071
1517.13816	32094.625
1520.51324	30899.19643
1523.88607	29879.05357
1527.25665	29274.76786
1530.62498	28913.19643
1533.99105	28678.05357
1537.35488	28533.05357
1540.71647	28443.19643
1544.07581	28284.91071
1547.4329	28235.05357
1550.78776	28067.05357
1554.14038	27928.33929
1557.49077	27887.625
1560.83892	27937.19643
1564.18484	28033.19643
1567.52853	28180.91071
1570.86999	28334.625
1574.20922	28473.33929
1577.54624	28466.05357
1580.88103	28188.76786
1584.2136	27852.91071
1587.54395	27595.19643
1590.87208	27720.33929
1594.19801	28150.05357
1597.52172	28779.48214
1600.84321	29207.91071
1604.16251	29123.76786
1607.47959	28713.19643
1610.79447	28158.625
1614.10715	27396.76786
1617.41763	26696.91071
1620.7259	26087.19643
1624.03199	25696.91071
1627.33587	25561.625
1630.63757	25637.91071
1633.93707	25905.19643
1637.23439	26443.48214
1640.52951	27377.19643
1643.82246	28505.48214
1647.11321	29665.19643
1650.40179	30305.91071
1653.68819	29797.76786
1656.97241	28412.48214
1660.25446	26921.19643
1663.53433	25729.05357
1666.81203	24958.19643
1670.08756	24456.76786
1673.36092	24114.625
1676.63211	23916.33929
1679.90115	23724.19643
1683.16801	23568.05357
1686.43272	23476.48214
1689.69527	23382.05357
1692.95567	23312.19643
1696.2139	23300.05357
1699.46999	23325.91071
1702.72392	23219.76786
1705.97571	23189.48214
1709.22535	23201.76786
1712.47284	23167.19643
1715.71819	23200.19643
1718.96139	23184.625
1722.20246	23116.91071
1725.44139	23046.05357
1728.67818	22997.625
1731.91284	22973.76786
1735.14537	22891.05357
1738.37576	22854.33929
1741.60403	22769.76786
1744.83017	22749.91071
1748.05418	22705.05357
1751.27607	22686.48214
1754.49584	22672.625
1757.71349	22674.625
1760.92903	22676.48214
1764.14244	22661.19643
1767.35375	22662.48214
1770.56294	22605.48214
1773.77002	22516.05357
1776.97499	22532.76786
1780.17785	22552.05357
1783.37861	22526.19643
1786.57727	22453.76786
1789.77382	22413.91071
1792.96828	22398.76786
1796.16064	22363.19643
1799.3509	22330.48214
1802.53907	22282.625
1805.72514	22222.05357
1808.90913	22211.19643
1812.09102	22169.76786
1815.27083	22155.91071
1818.44856	22129.76786
1821.6242	22090.625
1824.79776	22025.05357
1827.96924	22032.76786
1831.13864	21998.48214
1834.30597	21997.19643
1837.47122	22046.48214
1840.6344	22002.19643
1843.7955	21969.625
1846.95454	21964.05357
1850.11151	21932.91071
1853.26642	21944.76786
1856.41926	21879.76786
1859.57004	21833.76786
1862.71876	21811.33929
1865.86542	21862.05357
1869.01003	21865.19643
1872.15258	21838.91071
1875.29308	21791.19643
1878.43152	21741.76786
1881.56792	21751.05357
1884.70227	21718.33929
1887.83457	21701.48214
1890.96482	21641.33929
1894.09304	21645.91071
1897.21921	21657.19643
1900.34335	21603.48214
1903.46544	21579.76786
1906.58551	21496.05357
1909.70353	21520.76786
1912.81953	21491.48214
1915.93349	21464.33929
1919.04543	21433.33929
1922.15534	21408.19643
1925.26322	21390.91071
1928.36908	21320.76786
1931.47292	21301.33929
1934.57473	21313.91071
1937.67453	21240.33929
1940.77232	21177.33929
1943.86808	21093.33929
1946.96184	21082.19643
1950.05358	21007.33929
1953.14331	21005.19643
1956.23103	20960.48214
1959.31675	20910.91071
1962.40046	20797.91071
1965.48217	20768.625
1968.56188	20721.05357
1971.63959	20648.91071
1974.7153	20601.48214
1977.78901	20553.76786
1980.86073	20472.05357
1983.93046	20460.19643
1986.99819	20352.33929
1990.06394	20333.76786
1993.1277	20262.91071
1996.18947	20221.19643
1999.24925	20120.625
2002.30706	20066.33929
2005.36288	20025.76786
2008.41672	19981.91071
2011.46859	19912.625
2014.51848	19884.76786
2017.56639	19840.19643
2020.61233	19770.33929
2023.6563	19752.91071
2026.6983	19661.19643
2029.73833	19623.33929
2032.7764	19574.625
2035.8125	19549.76786
2038.84664	19466.05357
2041.87881	19473.91071
2044.90903	19409.33929
2047.93729	19406.05357
2050.96359	19391.19643
2053.98794	19347.48214
2057.01034	19336.48214
2060.03078	19339.48214
2063.04927	19280.19643
2066.06582	19266.19643
2069.08042	19237.05357
2072.09307	19291.33929
2075.10378	19280.625
2078.11255	19237.33929
2081.11938	19247.76786
2084.12426	19258.33929
2087.12722	19272.19643
2090.12824	19248.91071
2093.12732	19245.05357
2096.12447	19236.33929
2099.11969	19222.76786
2102.11299	19274.05357
2105.10435	19289.19643
2108.09379	19261.48214
2111.08131	19270.19643
2114.0669	19298.33929
2117.05057	19323.19643
2120.03233	19329.33929
2123.01216	19330.625
2125.99008	19386.05357
2128.96609	19433.33929
2131.94018	19436.625
2134.91236	19428.91071
2137.88263	19438.48214
2140.851	19459.91071
2143.81746	19479.625
2146.78201	19501.19643
2149.74466	19492.91071
2152.7054	19529.48214
2155.66425	19479.05357
2158.6212	19451.48214
2161.57625	19468.91071
2164.52941	19488.625
2167.48067	19397.91071
2170.43004	19444.48214
2173.37752	19465.76786
2176.32311	19439.33929
2179.26681	19405.91071
2182.20863	19392.91071
2185.14856	19473.48214
2188.08661	19448.33929
2191.02278	19409.19643
2193.95707	19440.625
2196.88948	19405.05357
2199.82001	19372.33929
2202.74867	19357.76786
2205.67545	19361.05357
2208.60037	19321.19643
2211.52341	19277.625
2214.44458	19239.48214
2217.36388	19195.19643
2220.28132	19151.33929
2223.1969	19122.05357
2226.11061	19112.33929
2229.02246	19027.91071
2231.93245	19057.19643
2234.84058	19007.48214
2237.74686	18948.19643
2240.65128	18940.05357
2243.55385	18943.33929
2246.45456	18960.33929
2249.35343	18952.19643
2252.25044	18898.19643
2255.14561	18857.91071
2258.03893	18862.05357
2260.93041	18813.91071
2263.82004	18747.33929
2266.70783	18761.48214
2269.59378	18677.625
2272.4779	18664.91071
2275.36017	18608.48214
2278.24061	18581.05357
2281.11922	18553.91071
2283.996	18528.91071
2286.87094	18536.33929
2289.74405	18499.48214
2292.61534	18433.19643
2295.4848	18433.625
2298.35243	18442.48214
2301.21824	18438.76786
2304.08223	18380.19643
2306.94439	18380.19643
2309.80474	18359.91071
2312.66327	18348.76786
2315.51999	18352.625
2318.37489	18312.76786
2321.22797	18274.76786
2324.07925	18250.625
2326.92871	18220.48214
2329.77637	18169.19643
2332.62222	18152.91071
2335.46626	18134.48214
2338.3085	18128.48214
2341.14893	18075.48214
2343.98756	18058.33929
2346.8244	18039.48214
2349.65943	18015.19643
2352.49267	17996.33929
2355.32411	18043.33929
2358.15376	17973.19643
2360.98161	17966.48214
2363.80768	17950.33929
2366.63195	17950.625
2369.45444	17916.05357
2372.27514	17899.625
2375.09405	17878.05357
2377.91118	17863.33929
2380.72652	17831.625
2383.54009	17800.19643
2386.35187	17764.05357
2389.16188	17738.19643
2391.97011	17698.91071
2394.77657	17652.625
2397.58125	17654.91071
2400.38416	17650.625
2403.18529	17621.91071
2405.98466	17600.625
2408.78226	17560.625
2411.57809	17564.05357
2414.37216	17482.19643
2417.16446	17496.625
2419.955	17448.91071
2422.74378	17458.76786
2425.5308	17379.48214
2428.31606	17429.76786
2431.09956	17391.19643
2433.88131	17349.19643
2436.6613	17349.48214
2439.43954	17351.05357
2442.21603	17338.625
2444.99077	17321.19643
2447.76377	17332.91071
2450.53501	17307.76786
2453.30451	17282.625
2456.07226	17292.05357
2458.83827	17273.19643
2461.60254	17237.19643
2464.36507	17183.91071
2467.12586	17148.05357
2469.88492	17122.33929
2472.64224	17102.48214
2475.39782	17138.91071
2478.15167	17131.625
2480.90379	17142.625
2483.65417	17122.48214
2486.40283	17127.19643
2489.14976	17118.48214
2491.89497	17127.19643
2494.63845	17121.625
2497.3802	17081.48214
2500.12024	17078.91071
2502.85855	17048.91071
2505.59514	17042.76786
2508.33002	16970.91071
2511.06318	16959.33929
2513.79462	16968.91071
2516.52435	16935.19643
2519.25237	16937.91071
2521.97867	16900.05357
2524.70327	16862.76786
2527.42616	16881.33929
2530.14734	16830.19643
2532.86681	16766.625
2535.58458	16779.33929
2538.30065	16793.76786
2541.01501	16749.48214
2543.72768	16757.76786
2546.43864	16658.33929
2549.14791	16645.19643
2551.85548	16650.625
2554.56136	16615.05357
2557.26554	16553.91071
2559.96803	16517.91071
2562.66883	16522.05357
2565.36794	16488.19643
2568.06536	16484.625
2570.7611	16386.625
2573.45514	16402.48214
2576.14751	16397.91071
2578.83819	16325.48214
2581.52719	16296.48214
2584.21451	16283.91071
2586.90015	16292.91071
2589.58411	16212.76786
2592.2664	16185.33929
2594.94701	16168.91071
2597.62594	16135.625
2600.30321	16112.76786
2602.9788	16078.05357
2605.65273	16050.19643
2608.32498	16077.19643
2610.99557	16028.91071
2613.66449	16031.05357
2616.33175	15966.76786
2618.99734	16023.91071
2621.66128	15960.19643
2624.32355	15926.05357
2626.98416	15879.76786
2629.64311	15851.625
2632.30041	15848.19643
2634.95605	15843.625
2637.61004	15794.91071
2640.26238	15778.76786
2642.91306	15767.625
2645.56209	15801.33929
2648.20948	15788.05357
2650.85521	15740.76786
2653.4993	15741.05357
2656.14175	15715.48214
2658.78255	15726.05357
2661.42171	15694.625
2664.05923	15742.625
2666.6951	15710.19643
2669.32934	15736.33929
2671.96194	15697.625
2674.59291	15690.91071
2677.22224	15726.625
2679.84993	15715.33929
2682.476	15683.625
2685.10043	15706.76786
2687.72324	15660.33929
2690.34441	15673.33929
2692.96396	15700.19643
2695.58188	15690.05357
2698.19818	15673.625
2700.81285	15613.19643
2703.4259	15624.33929
2706.03733	15597.05357
2708.64714	15632.05357
2711.25533	15683.48214
2713.86191	15666.91071
2716.46687	15711.76786
2719.07021	15702.19643
2721.67194	15691.19643
2724.27206	15688.76786
2726.87057	15706.625
2729.46747	15709.19643
2732.06276	15670.76786
2734.65644	15586.625
2737.24852	15629.48214
2739.83899	15602.05357
2742.42786	15632.91071
2745.01513	15544.91071
2747.60079	15560.91071
2750.18486	15532.76786
2752.76733	15535.19643
2755.3482	15477.48214
2757.92747	15456.33929
2760.50515	15461.625
2763.08123	15459.48214
2765.65573	15427.05357
2768.22863	15415.05357
2770.79994	15390.33929
2773.36967	15368.05357
2775.9378	15338.76786
2778.50435	15289.76786
2781.06932	15265.33929
2783.6327	15282.05357
2786.1945	15245.76786
2788.75471	15220.19643
2791.31335	15192.05357
2793.87041	15143.625
2796.42589	15147.05357
2798.97979	15142.05357
2801.53212	15066.19643
2804.08288	15091.05357
2806.63206	15019.05357
2809.17967	14988.05357
2811.72571	14954.05357
2814.27018	14950.05357
2816.81308	14889.05357
2819.35442	14883.33929
2821.89419	14799.33929
2824.43239	14813.76786
2826.96904	14793.48214
2829.50412	14771.76786
2832.03763	14755.76786
2834.56959	14764.05357
2837.1	14737.48214
2839.62884	14706.625
2842.15613	14686.76786
2844.68186	14684.625
2847.20604	14653.33929
2849.72867	14668.05357
2852.24974	14640.05357
2854.76927	14656.19643
2857.28724	14648.19643
2859.80367	14618.91071
2862.31855	14603.33929
2864.83189	14566.19643
2867.34368	14544.91071
2869.85393	14538.19643
2872.36264	14513.05357
2874.8698	14478.19643
2877.37543	14503.625
2879.87952	14471.625
2882.38207	14477.19643
2884.88308	14442.19643
2887.38256	14449.05357
2889.88051	14464.625
2892.37692	14450.625
2894.8718	14413.33929
2897.36515	14457.19643
2899.85698	14485.33929
2902.34727	14466.625
2904.83604	14492.625
2907.32328	14473.48214
2909.809	14493.91071
2912.29319	14466.625
2914.77587	14449.91071
2917.25702	14443.76786
2919.73665	14458.19643
2922.21476	14492.48214
2924.69136	14457.33929
2927.16644	14442.48214
2929.64	14429.19643
2932.11205	14397.76786
2934.58258	14344.48214
2937.05161	14418.19643
2939.51912	14393.05357
2941.98513	14406.19643
2944.44962	14399.48214
2946.91261	14367.05357
2949.37409	14380.91071
2951.83407	14384.48214
2954.29254	14332.33929
2956.74951	14307.625
2959.20498	14349.19643
2961.65895	14292.05357
2964.11142	14300.625
2966.56239	14263.91071
2969.01186	14295.76786
2971.45984	14228.19643
2973.90632	14271.625
2976.35131	14254.91071
2978.7948	14190.05357
2981.23681	14169.05357
2983.67732	14155.33929
2986.11635	14136.91071
2988.55388	14142.48214
2990.98993	14082.625
2993.4245	14077.33929
2995.85758	14053.05357
2998.28917	14023.76786
3000.71928	13974.33929
3003.14791	13950.91071
3005.57506	13947.91071
3008.00073	13941.33929
3010.42493	13916.19643
3012.84764	13940.625
3015.26888	13849.19643
3017.68865	13866.19643
3020.10694	13847.91071
3022.52376	13814.19643
3024.9391	13809.33929
3027.35298	13773.48214
3029.76539	13753.625
3032.17632	13772.91071
3034.5858	13705.91071
3036.9938	13703.19643
3039.40034	13698.91071
3041.80542	13680.91071
3044.20903	13661.76786
3046.61118	13646.91071
3049.01187	13604.19643
3051.4111	13615.625
3053.80888	13579.05357
3056.20519	13547.76786
3058.60005	13530.05357
3060.99345	13476.91071
3063.3854	13496.48214
3065.7759	13451.76786
3068.16494	13447.05357
3070.55254	13391.91071
3072.93868	13378.19643
3075.32338	13342.19643
3077.70662	13342.33929
3080.08842	13322.05357
3082.46878	13309.48214
3084.84769	13257.91071
3087.22515	13278.05357
3089.60118	13280.625
3091.97576	13306.625
3094.3489	13298.91071
3096.72061	13253.05357
3099.09087	13282.19643
3101.4597	13252.76786
3103.82709	13243.05357
3106.19305	13273.05357
3108.55757	13270.19643
3110.92066	13251.19643
3113.28232	13226.05357
3115.64255	13191.19643
3118.00134	13156.76786
3120.35871	13170.33929
3122.71466	13118.19643
3125.06917	13090.33929
3127.42226	13057.48214
3129.77393	13079.33929
3132.12417	13035.33929
3134.47299	13057.91071
3136.82039	13037.19643
3139.16636	13077.91071
3141.51092	13043.91071
3143.85406	13069.625
3146.19579	13028.91071
3148.53609	13039.76786
3150.87499	13046.625
3153.21246	13083.48214
3155.54853	13109.48214
3157.88318	13108.76786
3160.21642	13126.76786
3162.54826	13120.91071
3164.87868	13112.91071
3167.2077	13105.05357
3169.5353	13070.05357
3171.86151	13101.625
3174.18631	13094.76786
3176.5097	13092.76786
3178.83169	13074.91071
3181.15228	13092.76786
3183.47147	13058.91071
3185.78926	13041.48214
3188.10565	13058.625
3190.42065	13020.76786
3192.73424	12995.625
3195.04645	12980.19643
3197.35725	12989.625
3199.66667	12973.76786
3201.97469	12954.625
3204.28132	12965.33929
3206.58656	12979.19643
3208.8904	12974.19643
3211.19287	13033.91071
3213.49394	12996.19643
3215.79363	12960.05357
3218.09193	12994.76786
3220.38884	13013.19643
3222.68438	13004.91071
3224.97853	12996.19643
3227.2713	12962.76786
3229.56269	12970.33929
3231.8527	12949.05357
3234.14133	12939.76786
3236.42858	12895.05357
3238.71446	12896.625
3240.99896	12823.48214
3243.28209	12827.76786
3245.56384	12801.48214
3247.84423	12813.625
3250.12324	12821.05357
3252.40088	12805.625
3254.67715	12781.625
3256.95205	12803.91071
3259.22558	12812.91071
3261.49775	12796.625
3263.76855	12765.91071
3266.03799	12740.19643
3268.30606	12753.19643
3270.57277	12717.19643
3272.83812	12688.33929
3275.10211	12665.91071
3277.36474	12601.91071
3279.62601	12649.625
3281.88593	12592.76786
3284.14448	12597.05357
3286.40168	12615.91071
3288.65753	12594.91071
3290.91202	12564.33929
3293.16516	12546.91071
3295.41695	12488.91071
3297.66738	12438.48214
3299.91647	12406.625
3302.16421	12310.91071
3304.4106	12256.625
3306.65564	12169.91071
3308.89933	12117.33929
3311.14169	12001.05357
3313.38269	11978.91071
3315.62236	11858.91071
3317.86068	11778.625
3320.09766	11680.76786
3322.3333	11623.19643
3324.5676	11570.76786
3326.80056	11424.33929
3329.03219	11337.76786
3331.26248	1.76786
3333.49143	-1.08929
3335.71905	0.76786
