Data from AgNPs_FTO_APTES_UA_20uM_CRN_2uM_R6G_10uM_NaF_0.1M_Addition_RamanShift__27__13-12-02-103.txt Node

Date: Thu Feb 17 13:12:02 GMT 2022
User: TCL
Spectrometer: QEP01345
Trigger mode: 4
Integration Time (sec): 7.000000E0
Scans to average: 10
Electric dark correction enabled: true
Nonlinearity correction enabled: false
Boxcar width: 0
XAxis mode: Raman Shifts
Number of Pixels in Spectrum: 1044
>>>>>Begin Spectral Data<<<<<
46.04893	0.1625
50.45542	-1.0375
54.85868	-2.4375
59.25871	-2.4375
63.6555	118.9625
68.04907	116.4625
72.43941	120.7625
76.82654	123.3625
81.21044	126.7625
85.59113	131.0625
89.96862	135.2625
94.34289	141.4625
98.71396	143.9625
103.08183	153.0625
107.4465	154.0625
111.80798	157.5625
116.16626	158.8625
120.52136	169.5625
124.87327	178.0625
129.222	186.9625
133.56755	199.4625
137.90993	220.3625
142.24913	239.6625
146.58517	272.3625
150.91804	317.5625
155.24774	380.8625
159.57429	479.7625
163.89768	619.4625
168.21792	825.1625
172.53501	1133.8625
176.84895	1576.9625
181.15975	2237.4625
185.46741	3149.5625
189.77193	4341.7625
194.07331	5821.1625
198.37157	7509.8625
202.6667	9328.5625
206.9587	11111.4625
211.24758	12845.3625
215.53334	14643.8625
219.81599	16521.2625
224.09553	18673.1625
228.37195	21027.1625
232.64527	23643.9625
236.91549	26384.3625
241.18261	29071.8625
245.44663	31578.2625
249.70755	33812.2625
253.96539	35773.3625
258.22014	37515.7625
262.4718	38891.3625
266.72039	39941.8625
270.96589	40655.5625
275.20832	40765.6625
279.44768	40663.0625
283.68397	40376.8625
287.91719	40027.2625
292.14735	39936.8625
296.37445	40037.3625
300.59849	40409.2625
304.81948	40797.0625
309.03742	40937.0625
313.25231	40563.2625
317.46415	39567.9625
321.67296	38208.1625
325.87872	37144.4625
330.08145	36661.0625
334.28114	36672.0625
338.47781	37168.0625
342.67145	37814.7625
346.86207	38742.9625
351.04966	39850.7625
355.23424	41087.2625
359.4158	42157.3625
363.59435	42845.9625
367.76989	43282.8625
371.94243	43485.0625
376.11196	43768.1625
380.27849	43962.8625
384.44203	44033.2625
388.60257	44158.0625
392.76012	44311.7625
396.91468	44811.1625
401.06626	45513.6625
405.21485	46234.0625
409.36047	46092.4625
413.50311	45266.6625
417.64277	44511.2625
421.77947	44321.5625
425.9132	44411.8625
430.04396	44699.6625
434.17176	45169.6625
438.2966	45757.8625
442.41849	46604.9625
446.53742	47857.6625
450.6534	49329.9625
454.76644	50538.8625
458.87653	50974.8625
462.98368	50784.3625
467.08789	50085.1625
471.18916	49188.8625
475.2875	48326.0625
479.38291	47717.2625
483.4754	47207.8625
487.56496	46642.5625
491.6516	45951.5625
495.73531	45389.0625
499.81612	45122.1625
503.89401	45271.5625
507.96899	45466.7625
512.04106	45550.6625
516.11023	45476.2625
520.1765	45480.3625
524.23987	45347.7625
528.30034	45059.9625
532.35792	44632.5625
536.41261	44181.5625
540.46441	43800.9625
544.51333	43744.6625
548.55936	44134.2625
552.60252	45111.4625
556.64279	46154.5625
560.6802	46782.6625
564.71473	47184.5625
568.7464	48071.4625
572.7752	49061.8625
576.80114	49278.0625
580.82422	49236.9625
584.84444	49343.5625
588.86181	49808.1625
592.87633	50623.5625
596.888	51045.7625
600.89682	51464.7625
604.9028	53923.5625
608.90594	60530.5625
612.90624	67917.0625
616.90371	64549.8625
620.89834	53001.0625
624.89015	48051.0625
628.87913	47289.5625
632.86528	47160.7625
636.84862	46831.4625
640.82913	46021.4625
644.80683	44833.5625
648.78172	43974.3625
652.75379	43980.6625
656.72306	44818.4625
660.68952	46004.5625
664.65319	45972.2625
668.61405	44950.9625
672.57211	44527.2625
676.52738	44505.0625
680.47986	44545.1625
684.42955	44470.5625
688.37646	44444.3625
692.32058	44750.8625
696.26192	45165.8625
700.20048	45711.5625
704.13626	45974.6625
708.06928	45889.1625
711.99952	45555.9625
715.927	45468.1625
719.85171	45567.3625
723.77365	45466.5625
727.69284	45142.3625
731.60928	44825.1625
735.52295	44769.5625
739.43388	44952.2625
743.34206	45192.8625
747.24749	45570.8625
751.15017	46026.5625
755.05012	46821.5625
758.94733	48255.4625
762.8418	50914.0625
766.73354	55232.5625
770.62254	59359.1625
774.50882	60605.3625
778.39237	57956.3625
782.27321	53132.2625
786.15132	49106.3625
790.02671	46904.5625
793.89938	45816.6625
797.76935	45436.8625
801.6366	45256.4625
805.50115	45101.7625
809.36299	44932.8625
813.22213	44772.5625
817.07857	44778.6625
820.93231	44810.6625
824.78336	44825.0625
828.63172	44946.6625
832.47738	44989.0625
836.32036	45099.5625
840.16066	45297.3625
843.99827	45427.6625
847.8332	45370.0625
851.66546	45158.6625
855.49504	45083.8625
859.32195	44995.1625
863.1462	44840.3625
866.96777	44729.5625
870.78668	44619.8625
874.60293	44681.2625
878.41652	44802.7625
882.22745	44877.3625
886.03573	45015.0625
889.84136	44956.3625
893.64433	44756.7625
897.44466	44630.8625
901.24235	44590.8625
905.0374	44576.4625
908.8298	44561.9625
912.61957	44650.4625
916.40671	45016.6625
920.19121	45615.0625
923.97308	46222.7625
927.75233	46413.2625
931.52895	46349.4625
935.30295	45819.5625
939.07433	45067.9625
942.84309	44533.1625
946.60924	44305.3625
950.37278	44151.6625
954.13371	43938.0625
957.89203	43716.8625
961.64774	43556.7625
965.40086	43393.3625
969.15137	43284.1625
972.89929	43126.1625
976.64461	43072.9625
980.38733	43085.3625
984.12747	43285.7625
987.86502	43654.9625
991.59999	44265.9625
995.33237	45194.7625
999.06217	46827.3625
1002.78939	48711.4625
1006.51404	49994.7625
1010.23611	50665.1625
1013.95561	51176.2625
1017.67255	51208.2625
1021.38692	50820.1625
1025.09872	50453.5625
1028.80796	51171.9625
1032.51465	52782.2625
1036.21877	54284.5625
1039.92035	54390.4625
1043.61937	53470.4625
1047.31584	51792.2625
1051.00976	50001.0625
1054.70114	48993.4625
1058.38998	48672.4625
1062.07627	48710.3625
1065.76003	48837.0625
1069.44126	49061.0625
1073.11995	49440.2625
1076.79611	49703.3625
1080.46974	50058.2625
1084.14085	50578.3625
1087.80943	51197.9625
1091.47549	51435.2625
1095.13903	51043.4625
1098.80005	50143.8625
1102.45857	49418.8625
1106.11456	48997.1625
1109.76805	49068.6625
1113.41903	49606.4625
1117.06751	50263.1625
1120.71348	50996.2625
1124.35696	51657.3625
1127.99793	52185.7625
1131.63641	52144.3625
1135.2724	51475.1625
1138.90589	50743.6625
1142.5369	50341.2625
1146.16542	50181.0625
1149.79145	50269.6625
1153.415	50632.9625
1157.03607	51229.9625
1160.65467	52181.1625
1164.27079	53638.0625
1167.88443	55868.6625
1171.49561	59036.6625
1175.10432	63674.2625
1178.71056	69669.7625
1182.31434	75053.4625
1185.91565	77645.7625
1189.51451	77208.2625
1193.11091	74287.1625
1196.70485	70553.2625
1200.29634	67433.6625
1203.88538	65132.0625
1207.47197	63165.8625
1211.05612	61521.1625
1214.63782	60559.5625
1218.21708	60578.9625
1221.79391	60860.3625
1225.36829	60891.0625
1228.94024	60254.6625
1232.50976	59243.1625
1236.07685	58533.2625
1239.6415	58375.9625
1243.20374	58583.6625
1246.76355	59040.5625
1250.32093	59978.8625
1253.8759	61419.5625
1257.42845	63166.4625
1260.97859	64614.0625
1264.52631	65738.0625
1268.07163	66988.7625
1271.61453	68561.9625
1275.15503	70335.9625
1278.69312	72220.9625
1282.22882	73815.8625
1285.76211	75211.0625
1289.29301	76689.4625
1292.82151	78642.6625
1296.34761	81271.8625
1299.87133	84989.5625
1303.39266	89994.9625
1306.9116	96527.3625
1310.42815	103287.0625
1313.94233	107284.2625
1317.45412	107125.3625
1320.96354	104125.2625
1324.47058	100483.6625
1327.97525	97120.1625
1331.47754	95003.1625
1334.97747	94650.3625
1338.47502	95842.6625
1341.97022	97366.6625
1345.46305	97773.6625
1348.95352	97170.1625
1352.44163	96709.6625
1355.92738	98720.9625
1359.41078	104090.3625
1362.89183	109367.8625
1366.37053	106632.6625
1369.84688	96410.3625
1373.32088	85751.9625
1376.79254	78810.7625
1380.26186	75546.6625
1383.72883	74182.5625
1387.19347	73508.1625
1390.65578	72950.7625
1394.11575	73039.3625
1397.57339	73983.6625
1401.0287	75661.6625
1404.48168	77603.6625
1407.93234	79385.3625
1411.38068	80445.3625
1414.82669	79953.2625
1418.27039	77846.7625
1421.71177	74744.5625
1425.15083	71895.0625
1428.58758	70281.1625
1432.02203	70202.8625
1435.45416	70806.1625
1438.88399	71624.9625
1442.31151	72459.5625
1445.73673	73362.3625
1449.15965	74230.2625
1452.58027	74726.0625
1455.9986	74568.4625
1459.41463	74757.8625
1462.82837	75513.3625
1466.23982	76749.4625
1469.64898	78211.3625
1473.05586	79264.2625
1476.46045	79773.4625
1479.86276	80169.1625
1483.26279	80548.1625
1486.66054	81033.6625
1490.05602	82086.2625
1493.44922	83284.7625
1496.84016	84316.4625
1500.22882	85934.3625
1503.61521	88629.1625
1506.99934	92246.3625
1510.38121	95566.5625
1513.76081	96566.1625
1517.13816	93731.0625
1520.51324	88794.3625
1523.88607	84109.7625
1527.25665	81192.9625
1530.62498	79510.3625
1533.99105	78725.0625
1537.35488	78196.5625
1540.71647	77750.9625
1544.07581	77297.2625
1547.4329	76499.8625
1550.78776	75525.2625
1554.14038	74749.7625
1557.49077	74368.1625
1560.83892	74309.4625
1564.18484	74309.0625
1567.52853	74218.2625
1570.86999	74061.4625
1574.20922	74197.6625
1577.54624	74207.8625
1580.88103	73497.2625
1584.2136	73064.5625
1587.54395	74486.5625
1590.87208	78196.6625
1594.19801	83823.3625
1597.52172	89832.1625
1600.84321	92459.2625
1604.16251	89650.8625
1607.47959	83431.1625
1610.79447	76436.9625
1614.10715	70095.2625
1617.41763	65137.7625
1620.7259	61908.6625
1624.03199	60436.7625
1627.33587	60560.8625
1630.63757	62119.5625
1633.93707	65240.2625
1637.23439	69708.7625
1640.52951	75397.9625
1643.82246	81653.7625
1647.11321	86701.5625
1650.40179	87891.1625
1653.68819	83287.1625
1656.97241	74263.5625
1660.25446	65113.7625
1663.53433	58515.2625
1666.81203	54269.8625
1670.08756	51686.1625
1673.36092	50039.3625
1676.63211	48918.6625
1679.90115	48096.5625
1683.16801	47493.0625
1686.43272	47063.9625
1689.69527	46740.2625
1692.95567	46501.9625
1696.2139	46364.2625
1699.46999	46337.3625
1702.72392	46250.2625
1705.97571	46182.7625
1709.22535	46057.5625
1712.47284	46093.3625
1715.71819	46124.7625
1718.96139	45973.9625
1722.20246	45900.9625
1725.44139	45797.7625
1728.67818	45534.3625
1731.91284	45334.0625
1735.14537	45150.6625
1738.37576	45000.6625
1741.60403	44911.1625
1744.83017	44715.9625
1748.05418	44630.6625
1751.27607	44548.9625
1754.49584	44532.0625
1757.71349	44573.9625
1760.92903	44461.7625
1764.14244	44476.8625
1767.35375	44476.8625
1770.56294	44447.7625
1773.77002	44422.8625
1776.97499	44398.8625
1780.17785	44356.1625
1783.37861	44281.6625
1786.57727	44214.6625
1789.77382	44188.5625
1792.96828	44182.9625
1796.16064	44164.4625
1799.3509	44139.6625
1802.53907	44096.1625
1805.72514	44020.0625
1808.90913	43915.2625
1812.09102	43868.7625
1815.27083	43821.6625
1818.44856	43730.2625
1821.6242	43692.9625
1824.79776	43624.2625
1827.96924	43632.2625
1831.13864	43640.7625
1834.30597	43607.5625
1837.47122	43610.3625
1840.6344	43496.6625
1843.7955	43567.5625
1846.95454	43588.4625
1850.11151	43595.8625
1853.26642	43601.9625
1856.41926	43574.1625
1859.57004	43586.0625
1862.71876	43539.3625
1865.86542	43587.0625
1869.01003	43576.0625
1872.15258	43579.4625
1875.29308	43604.6625
1878.43152	43526.6625
1881.56792	43619.0625
1884.70227	43645.3625
1887.83457	43696.8625
1890.96482	43730.1625
1894.09304	43651.0625
1897.21921	43629.7625
1900.34335	43592.4625
1903.46544	43581.7625
1906.58551	43605.5625
1909.70353	43627.4625
1912.81953	43605.1625
1915.93349	43589.3625
1919.04543	43494.7625
1922.15534	43505.2625
1925.26322	43435.1625
1928.36908	43326.1625
1931.47292	43222.4625
1934.57473	43138.4625
1937.67453	43032.7625
1940.77232	42996.5625
1943.86808	42785.8625
1946.96184	42678.9625
1950.05358	42540.4625
1953.14331	42440.7625
1956.23103	42306.6625
1959.31675	42176.2625
1962.40046	42021.1625
1965.48217	41853.9625
1968.56188	41808.7625
1971.63959	41672.7625
1974.7153	41666.5625
1977.78901	41497.7625
1980.86073	41347.6625
1983.93046	41285.9625
1986.99819	41151.1625
1990.06394	41032.3625
1993.1277	40994.0625
1996.18947	40819.0625
1999.24925	40721.2625
2002.30706	40638.8625
2005.36288	40551.3625
2008.41672	40411.1625
2011.46859	40318.5625
2014.51848	40191.4625
2017.56639	40124.0625
2020.61233	40020.8625
2023.6563	39916.6625
2026.6983	39820.0625
2029.73833	39804.4625
2032.7764	39766.9625
2035.8125	39648.6625
2038.84664	39662.9625
2041.87881	39616.8625
2044.90903	39581.4625
2047.93729	39483.8625
2050.96359	39472.7625
2053.98794	39432.6625
2057.01034	39437.2625
2060.03078	39380.9625
2063.04927	39380.9625
2066.06582	39375.0625
2069.08042	39329.8625
2072.09307	39272.3625
2075.10378	39205.4625
2078.11255	39167.4625
2081.11938	39197.2625
2084.12426	39102.6625
2087.12722	39139.2625
2090.12824	39048.1625
2093.12732	39049.6625
2096.12447	39063.4625
2099.11969	38971.9625
2102.11299	39019.4625
2105.10435	39039.7625
2108.09379	39031.7625
2111.08131	39120.8625
2114.0669	39080.1625
2117.05057	39099.5625
2120.03233	39152.9625
2123.01216	39179.7625
2125.99008	39220.1625
2128.96609	39290.8625
2131.94018	39316.6625
2134.91236	39386.5625
2137.88263	39424.8625
2140.851	39431.5625
2143.81746	39454.0625
2146.78201	39468.3625
2149.74466	39516.3625
2152.7054	39549.0625
2155.66425	39487.0625
2158.6212	39532.7625
2161.57625	39454.0625
2164.52941	39486.7625
2167.48067	39426.9625
2170.43004	39461.6625
2173.37752	39445.8625
2176.32311	39457.0625
2179.26681	39506.0625
2182.20863	39447.9625
2185.14856	39524.0625
2188.08661	39546.9625
2191.02278	39538.3625
2193.95707	39525.8625
2196.88948	39497.9625
2199.82001	39557.3625
2202.74867	39491.0625
2205.67545	39494.8625
2208.60037	39468.7625
2211.52341	39441.6625
2214.44458	39403.7625
2217.36388	39405.2625
2220.28132	39412.6625
2223.1969	39334.7625
2226.11061	39244.9625
2229.02246	39094.1625
2231.93245	38980.5625
2234.84058	38981.0625
2237.74686	38966.5625
2240.65128	38939.3625
2243.55385	38829.3625
2246.45456	38845.8625
2249.35343	38774.4625
2252.25044	38754.3625
2255.14561	38682.3625
2258.03893	38663.4625
2260.93041	38609.4625
2263.82004	38501.0625
2266.70783	38428.4625
2269.59378	38354.5625
2272.4779	38259.8625
2275.36017	38156.7625
2278.24061	38088.6625
2281.11922	38011.3625
2283.996	37961.6625
2286.87094	38005.7625
2289.74405	37970.4625
2292.61534	37959.7625
2295.4848	37935.2625
2298.35243	37982.6625
2301.21824	37951.3625
2304.08223	37958.9625
2306.94439	37970.8625
2309.80474	38041.8625
2312.66327	38107.9625
2315.51999	38032.0625
2318.37489	38023.5625
2321.22797	37973.5625
2324.07925	37988.4625
2326.92871	37911.4625
2329.77637	37916.2625
2332.62222	37896.8625
2335.46626	37908.0625
2338.3085	37908.9625
2341.14893	37973.6625
2343.98756	37944.4625
2346.8244	38001.1625
2349.65943	38044.1625
2352.49267	38043.7625
2355.32411	38010.6625
2358.15376	38019.7625
2360.98161	37984.7625
2363.80768	37894.8625
2366.63195	37887.1625
2369.45444	37789.1625
2372.27514	37743.4625
2375.09405	37678.4625
2377.91118	37578.7625
2380.72652	37479.0625
2383.54009	37361.6625
2386.35187	37299.2625
2389.16188	37194.0625
2391.97011	37144.3625
2394.77657	37147.6625
2397.58125	37109.2625
2400.38416	37048.4625
2403.18529	36967.2625
2405.98466	36889.7625
2408.78226	36806.8625
2411.57809	36749.2625
2414.37216	36633.6625
2417.16446	36670.6625
2419.955	36614.6625
2422.74378	36587.9625
2425.5308	36487.7625
2428.31606	36567.8625
2431.09956	36556.9625
2433.88131	36512.9625
2436.6613	36577.3625
2439.43954	36509.2625
2442.21603	36481.4625
2444.99077	36449.2625
2447.76377	36468.0625
2450.53501	36397.7625
2453.30451	36423.7625
2456.07226	36357.6625
2458.83827	36347.2625
2461.60254	36283.2625
2464.36507	36327.2625
2467.12586	36330.2625
2469.88492	36394.4625
2472.64224	36369.0625
2475.39782	36383.3625
2478.15167	36460.2625
2480.90379	36486.9625
2483.65417	36538.6625
2486.40283	36554.0625
2489.14976	36575.4625
2491.89497	36566.6625
2494.63845	36677.9625
2497.3802	36584.9625
2500.12024	36594.7625
2502.85855	36640.3625
2505.59514	36634.7625
2508.33002	36515.7625
2511.06318	36449.7625
2513.79462	36437.4625
2516.52435	36431.1625
2519.25237	36332.2625
2521.97867	36291.2625
2524.70327	36314.2625
2527.42616	36258.8625
2530.14734	36292.3625
2532.86681	36205.4625
2535.58458	36272.6625
2538.30065	36271.2625
2541.01501	36297.6625
2543.72768	36250.1625
2546.43864	36233.6625
2549.14791	36147.3625
2551.85548	36129.1625
2554.56136	36049.5625
2557.26554	35982.0625
2559.96803	36007.3625
2562.66883	35916.3625
2565.36794	35883.0625
2568.06536	35912.2625
2570.7611	35816.3625
2573.45514	35792.2625
2576.14751	35831.6625
2578.83819	35829.3625
2581.52719	35844.3625
2584.21451	35799.4625
2586.90015	35787.6625
2589.58411	35761.0625
2592.2664	35820.4625
2594.94701	35770.2625
2597.62594	35786.0625
2600.30321	35804.4625
2602.9788	35799.5625
2605.65273	35773.8625
2608.32498	35811.1625
2610.99557	35782.9625
2613.66449	35849.5625
2616.33175	35834.8625
2618.99734	35797.5625
2621.66128	35786.7625
2624.32355	35815.1625
2626.98416	35822.9625
2629.64311	35846.8625
2632.30041	35842.6625
2634.95605	35796.6625
2637.61004	35738.7625
2640.26238	35674.7625
2642.91306	35700.6625
2645.56209	35599.2625
2648.20948	35594.6625
2650.85521	35547.3625
2653.4993	35509.0625
2656.14175	35497.8625
2658.78255	35544.2625
2661.42171	35587.8625
2664.05923	35637.1625
2666.6951	35641.6625
2669.32934	35706.2625
2671.96194	35758.4625
2674.59291	35808.8625
2677.22224	35786.4625
2679.84993	35848.5625
2682.476	35737.9625
2685.10043	35700.5625
2687.72324	35724.8625
2690.34441	35679.2625
2692.96396	35637.7625
2695.58188	35743.6625
2698.19818	35600.9625
2700.81285	35623.6625
2703.4259	35549.2625
2706.03733	35636.0625
2708.64714	35589.5625
2711.25533	35611.0625
2713.86191	35594.5625
2716.46687	35661.0625
2719.07021	35658.2625
2721.67194	35682.1625
2724.27206	35655.0625
2726.87057	35711.1625
2729.46747	35711.2625
2732.06276	35718.0625
2734.65644	35749.3625
2737.24852	35751.3625
2739.83899	35734.4625
2742.42786	35750.4625
2745.01513	35757.0625
2747.60079	35790.8625
2750.18486	35717.0625
2752.76733	35731.4625
2755.3482	35739.4625
2757.92747	35695.2625
2760.50515	35638.5625
2763.08123	35672.0625
2765.65573	35649.8625
2768.22863	35658.4625
2770.79994	35564.1625
2773.36967	35617.7625
2775.9378	35600.2625
2778.50435	35647.2625
2781.06932	35589.0625
2783.6327	35606.5625
2786.1945	35573.1625
2788.75471	35554.0625
2791.31335	35499.9625
2793.87041	35461.6625
2796.42589	35350.0625
2798.97979	35336.1625
2801.53212	35263.7625
2804.08288	35192.5625
2806.63206	35165.8625
2809.17967	35118.6625
2811.72571	35043.3625
2814.27018	34972.2625
2816.81308	34935.7625
2819.35442	34853.9625
2821.89419	34815.2625
2824.43239	34853.7625
2826.96904	34864.9625
2829.50412	34863.7625
2832.03763	34801.8625
2834.56959	34794.9625
2837.1	34721.1625
2839.62884	34737.7625
2842.15613	34676.5625
2844.68186	34712.1625
2847.20604	34669.5625
2849.72867	34610.7625
2852.24974	34579.1625
2854.76927	34518.4625
2857.28724	34484.3625
2859.80367	34467.8625
2862.31855	34448.7625
2864.83189	34386.3625
2867.34368	34325.6625
2869.85393	34392.0625
2872.36264	34377.3625
2874.8698	34319.9625
2877.37543	34263.5625
2879.87952	34256.0625
2882.38207	34331.2625
2884.88308	34310.6625
2887.38256	34369.7625
2889.88051	34347.0625
2892.37692	34333.7625
2894.8718	34342.9625
2897.36515	34395.6625
2899.85698	34370.9625
2902.34727	34467.2625
2904.83604	34479.0625
2907.32328	34532.6625
2909.809	34497.3625
2912.29319	34526.5625
2914.77587	34502.6625
2917.25702	34520.0625
2919.73665	34486.0625
2922.21476	34494.1625
2924.69136	34434.3625
2927.16644	34448.4625
2929.64	34362.2625
2932.11205	34318.1625
2934.58258	34270.5625
2937.05161	34310.7625
2939.51912	34313.4625
2941.98513	34270.2625
2944.44962	34202.7625
2946.91261	34176.5625
2949.37409	34231.3625
2951.83407	34183.8625
2954.29254	34100.7625
2956.74951	34125.8625
2959.20498	34136.1625
2961.65895	34066.9625
2964.11142	34105.2625
2966.56239	34025.1625
2969.01186	34009.2625
2971.45984	33892.0625
2973.90632	33852.6625
2976.35131	33753.8625
2978.7948	33743.0625
2981.23681	33659.8625
2983.67732	33590.9625
2986.11635	33573.4625
2988.55388	33473.1625
2990.98993	33468.3625
2993.4245	33372.9625
2995.85758	33312.3625
2998.28917	33197.6625
3000.71928	33149.0625
3003.14791	33070.9625
3005.57506	33087.6625
3008.00073	32952.1625
3010.42493	32984.3625
3012.84764	32879.0625
3015.26888	32871.5625
3017.68865	32802.5625
3020.10694	32714.8625
3022.52376	32588.9625
3024.9391	32585.4625
3027.35298	32561.4625
3029.76539	32520.4625
3032.17632	32485.6625
3034.5858	32504.9625
3036.9938	32443.0625
3039.40034	32457.6625
3041.80542	32424.4625
3044.20903	32351.1625
3046.61118	32341.5625
3049.01187	32260.8625
3051.4111	32174.7625
3053.80888	32095.5625
3056.20519	32067.2625
3058.60005	31952.2625
3060.99345	31897.9625
3063.3854	31793.9625
3065.7759	31709.6625
3068.16494	31591.0625
3070.55254	31452.4625
3072.93868	31386.4625
3075.32338	31262.3625
3077.70662	31212.5625
3080.08842	31138.9625
3082.46878	31025.3625
3084.84769	30983.5625
3087.22515	30989.6625
3089.60118	30979.3625
3091.97576	30928.1625
3094.3489	30921.0625
3096.72061	30916.8625
3099.09087	30928.8625
3101.4597	30862.2625
3103.82709	30923.3625
3106.19305	30821.6625
3108.55757	30866.6625
3110.92066	30774.6625
3113.28232	30758.1625
3115.64255	30619.4625
3118.00134	30549.7625
3120.35871	30435.6625
3122.71466	30379.3625
3125.06917	30314.0625
3127.42226	30272.1625
3129.77393	30271.2625
3132.12417	30198.0625
3134.47299	30192.2625
3136.82039	30131.1625
3139.16636	30141.7625
3141.51092	30092.5625
3143.85406	30146.9625
3146.19579	30060.4625
3148.53609	30056.7625
3150.87499	30053.3625
3153.21246	30064.5625
3155.54853	30081.7625
3157.88318	30041.4625
3160.21642	30059.8625
3162.54826	30035.1625
3164.87868	30003.0625
3167.2077	29965.2625
3169.5353	29930.4625
3171.86151	29947.1625
3174.18631	29911.3625
3176.5097	29939.0625
3178.83169	29836.2625
3181.15228	29787.7625
3183.47147	29706.9625
3185.78926	29733.2625
3188.10565	29687.9625
3190.42065	29686.2625
3192.73424	29593.6625
3195.04645	29572.8625
3197.35725	29593.8625
3199.66667	29547.5625
3201.97469	29554.2625
3204.28132	29542.4625
3206.58656	29522.8625
3208.8904	29570.7625
3211.19287	29595.0625
3213.49394	29543.1625
3215.79363	29609.5625
3218.09193	29601.9625
3220.38884	29624.3625
3222.68438	29651.1625
3224.97853	29528.5625
3227.2713	29552.7625
3229.56269	29501.8625
3231.8527	29500.4625
3234.14133	29449.7625
3236.42858	29384.1625
3238.71446	29309.6625
3240.99896	29310.2625
3243.28209	29278.2625
3245.56384	29188.5625
3247.84423	29169.5625
3250.12324	29152.4625
3252.40088	29135.6625
3254.67715	29132.3625
3256.95205	29100.4625
3259.22558	29051.6625
3261.49775	29031.5625
3263.76855	29025.7625
3266.03799	28960.2625
3268.30606	28917.1625
3270.57277	28855.7625
3272.83812	28841.2625
3275.10211	28770.0625
3277.36474	28709.9625
3279.62601	28683.7625
3281.88593	28659.3625
3284.14448	28703.4625
3286.40168	28706.2625
3288.65753	28635.2625
3290.91202	28640.2625
3293.16516	28550.4625
3295.41695	28493.0625
3297.66738	28353.1625
3299.91647	28184.7625
3302.16421	28053.3625
3304.4106	27899.3625
3306.65564	27699.6625
3308.89933	27552.3625
3311.14169	27388.3625
3313.38269	27171.8625
3315.62236	27047.0625
3317.86068	26786.9625
3320.09766	26562.4625
3322.3333	26411.8625
3324.5676	26335.7625
3326.80056	25869.7625
3329.03219	25724.2625
3331.26248	6.8625
3333.49143	1.0625
3335.71905	-1.1375
