Data from AgNPs_FTO_APTES_UA_20uM_CRN_500uM_R6G_10uM_NaF_0.1M_Addition_RamanShift__10__18-43-44-967.txt Node

Date: Thu Feb 17 18:43:44 GMT 2022
User: TCL
Spectrometer: QEP01345
Trigger mode: 4
Integration Time (sec): 1.000000E1
Scans to average: 7
Electric dark correction enabled: true
Nonlinearity correction enabled: false
Boxcar width: 0
XAxis mode: Raman Shifts
Number of Pixels in Spectrum: 1044
>>>>>Begin Spectral Data<<<<<
46.04893	0.98214
50.45542	-2.875
54.85868	0.41071
59.25871	-2.01786
63.6555	80.69643
68.04907	82.125
72.43941	88.125
76.82654	95.125
81.21044	97.26786
85.59113	94.26786
89.96862	104.41071
94.34289	107.26786
98.71396	113.55357
103.08183	107.41071
107.4465	117.41071
111.80798	115.83929
116.16626	117.83929
120.52136	127.83929
124.87327	127.69643
129.222	132.41071
133.56755	137.83929
137.90993	150.83929
142.24913	161.98214
146.58517	183.41071
150.91804	206.41071
155.24774	243.69643
159.57429	309.125
163.89768	393.55357
168.21792	513.69643
172.53501	698.26786
176.84895	978.98214
181.15975	1383.98214
185.46741	1951.98214
189.77193	2713.83929
194.07331	3648.125
198.37157	4745.125
202.6667	5884.83929
206.9587	7017.41071
211.24758	8143.55357
215.53334	9245.98214
219.81599	10394.125
224.09553	11662.125
228.37195	13031.55357
232.64527	14576.26786
236.91549	16266.41071
241.18261	17928.83929
245.44663	19505.98214
249.70755	20873.41071
253.96539	22184.26786
258.22014	23184.26786
262.4718	23997.55357
266.72039	24554.98214
270.96589	24817.83929
275.20832	24838.69643
279.44768	24605.55357
283.68397	24347.69643
287.91719	24053.125
292.14735	23866.69643
296.37445	23797.55357
300.59849	23762.55357
304.81948	23902.55357
309.03742	24007.83929
313.25231	23969.41071
317.46415	23834.83929
321.67296	23481.55357
325.87872	23179.69643
330.08145	22985.83929
334.28114	23087.41071
338.47781	23252.41071
342.67145	23521.69643
346.86207	23860.26786
351.04966	24335.69643
355.23424	24726.26786
359.4158	25100.83929
363.59435	25404.69643
367.76989	25592.26786
371.94243	25745.125
376.11196	25865.55357
380.27849	25977.83929
384.44203	26102.98214
388.60257	26260.26786
392.76012	26466.26786
396.91468	26737.98214
401.06626	27093.55357
405.21485	27321.26786
409.36047	27271.125
413.50311	26930.69643
417.64277	26724.83929
421.77947	26607.125
425.9132	26727.83929
430.04396	26868.83929
434.17176	26982.125
438.2966	27219.55357
442.41849	27552.55357
446.53742	27989.125
450.6534	28471.83929
454.76644	28810.41071
458.87653	28897.125
462.98368	28944.41071
467.08789	28843.55357
471.18916	28640.55357
475.2875	28286.41071
479.38291	28044.69643
483.4754	27771.55357
487.56496	27628.41071
491.6516	27519.125
495.73531	27485.26786
499.81612	27452.41071
503.89401	27585.41071
507.96899	27729.69643
512.04106	27817.55357
516.11023	27854.41071
520.1765	27843.55357
524.23987	27914.41071
528.30034	27864.26786
532.35792	27851.26786
536.41261	27705.69643
540.46441	27548.55357
544.51333	27504.125
548.55936	27689.83929
552.60252	27907.98214
556.64279	28248.125
560.6802	28470.83929
564.71473	28514.26786
568.7464	28611.41071
572.7752	28827.26786
576.80114	29155.55357
580.82422	29410.69643
584.84444	29769.26786
588.86181	30291.41071
592.87633	30919.41071
596.888	31338.41071
600.89682	31287.98214
604.9028	31649.41071
608.90594	33365.26786
612.90624	35718.98214
616.90371	34684.98214
620.89834	30711.69643
624.89015	28675.55357
628.87913	28398.41071
632.86528	28615.41071
636.84862	28829.125
640.82913	28651.125
644.80683	28293.83929
648.78172	28018.98214
652.75379	27976.83929
656.72306	28256.83929
660.68952	28557.83929
664.65319	28517.41071
668.61405	28217.69643
672.57211	28156.69643
676.52738	28284.26786
680.47986	28419.41071
684.42955	28287.55357
688.37646	28176.83929
692.32058	28186.41071
696.26192	28336.41071
700.20048	28516.98214
704.13626	28699.125
708.06928	28736.83929
711.99952	28567.69643
715.927	28550.55357
719.85171	28561.41071
723.77365	28520.125
727.69284	28468.125
731.60928	28285.41071
735.52295	28230.125
739.43388	28258.55357
743.34206	28310.69643
747.24749	28392.26786
751.15017	28493.41071
755.05012	28680.125
758.94733	29123.83929
762.8418	30038.69643
766.73354	31572.41071
770.62254	33226.125
774.50882	33796.98214
778.39237	32912.55357
782.27321	31453.26786
786.15132	29994.69643
790.02671	29068.69643
793.89938	28525.69643
797.76935	28282.41071
801.6366	28189.125
805.50115	28104.55357
809.36299	28008.41071
813.22213	27913.83929
817.07857	27884.55357
820.93231	27911.98214
824.78336	27845.98214
828.63172	27877.26786
832.47738	27850.83929
836.32036	27824.26786
840.16066	27808.69643
843.99827	27872.98214
847.8332	27885.26786
851.66546	27929.41071
855.49504	27956.26786
859.32195	28006.125
863.1462	27986.55357
866.96777	28021.55357
870.78668	28040.41071
874.60293	28082.125
878.41652	28116.83929
882.22745	28134.69643
886.03573	28186.41071
889.84136	28289.69643
893.64433	28174.69643
897.44466	28154.69643
901.24235	28056.125
905.0374	28068.41071
908.8298	27961.125
912.61957	27898.26786
916.40671	28016.98214
920.19121	28129.69643
923.97308	28267.69643
927.75233	28264.83929
931.52895	28158.26786
935.30295	28029.41071
939.07433	27780.98214
942.84309	27529.41071
946.60924	27430.26786
950.37278	27328.55357
954.13371	27299.41071
957.89203	27259.125
961.64774	27293.98214
965.40086	27288.41071
969.15137	27192.26786
972.89929	27144.125
976.64461	27110.69643
980.38733	27166.26786
984.12747	27172.41071
987.86502	27239.41071
991.59999	27365.98214
995.33237	27459.69643
999.06217	27630.41071
1002.78939	27850.98214
1006.51404	28133.26786
1010.23611	28457.83929
1013.95561	28718.55357
1017.67255	28777.55357
1021.38692	28751.69643
1025.09872	28485.125
1028.80796	28216.69643
1032.51465	28086.125
1036.21877	28098.26786
1039.92035	28118.26786
1043.61937	28206.69643
1047.31584	28296.26786
1051.00976	28315.55357
1054.70114	28439.41071
1058.38998	28497.125
1062.07627	28535.125
1065.76003	28720.26786
1069.44126	28855.26786
1073.11995	29072.41071
1076.79611	29354.125
1080.46974	29584.41071
1084.14085	29682.55357
1087.80943	29818.69643
1091.47549	29916.125
1095.13903	29923.83929
1098.80005	29683.41071
1102.45857	29416.26786
1106.11456	29171.26786
1109.76805	29084.41071
1113.41903	29140.69643
1117.06751	29268.98214
1120.71348	29505.83929
1124.35696	29801.125
1127.99793	30056.83929
1131.63641	30175.125
1135.2724	30002.69643
1138.90589	29826.41071
1142.5369	29661.83929
1146.16542	29578.83929
1149.79145	29538.98214
1153.415	29502.69643
1157.03607	29639.83929
1160.65467	29816.125
1164.27079	30351.69643
1167.88443	31104.125
1171.49561	32044.83929
1175.10432	33403.69643
1178.71056	35151.41071
1182.31434	36750.98214
1185.91565	37658.26786
1189.51451	37830.125
1193.11091	37499.41071
1196.70485	36754.26786
1200.29634	35865.41071
1203.88538	34894.26786
1207.47197	34037.125
1211.05612	33192.98214
1214.63782	32583.83929
1218.21708	32142.83929
1221.79391	31802.55357
1225.36829	31764.55357
1228.94024	31706.26786
1232.50976	31610.26786
1236.07685	31456.69643
1239.6415	31353.26786
1243.20374	31287.98214
1246.76355	31318.55357
1250.32093	31465.41071
1253.8759	31747.26786
1257.42845	32184.125
1260.97859	32649.83929
1264.52631	33194.69643
1268.07163	33668.98214
1271.61453	34121.125
1275.15503	34477.125
1278.69312	34764.55357
1282.22882	35134.26786
1285.76211	35566.55357
1289.29301	36218.83929
1292.82151	36966.69643
1296.34761	37828.98214
1299.87133	38947.83929
1303.39266	40145.69643
1306.9116	41639.26786
1310.42815	43269.83929
1313.94233	44107.83929
1317.45412	43822.26786
1320.96354	42943.55357
1324.47058	41874.83929
1327.97525	40865.98214
1331.47754	40257.55357
1334.97747	39900.26786
1338.47502	39996.125
1341.97022	40432.26786
1345.46305	41145.69643
1348.95352	42070.98214
1352.44163	43076.125
1355.92738	44237.98214
1359.41078	45784.69643
1362.89183	47091.55357
1366.37053	46538.41071
1369.84688	43443.55357
1373.32088	39720.83929
1376.79254	37019.41071
1380.26186	35718.98214
1383.72883	35069.41071
1387.19347	34609.83929
1390.65578	34052.98214
1394.11575	33618.41071
1397.57339	33389.55357
1401.0287	33377.26786
1404.48168	33329.83929
1407.93234	33244.55357
1411.38068	33156.83929
1414.82669	32966.69643
1418.27039	32638.26786
1421.71177	32241.98214
1425.15083	31815.26786
1428.58758	31560.125
1432.02203	31505.55357
1435.45416	31665.26786
1438.88399	31999.69643
1442.31151	32169.55357
1445.73673	32283.98214
1449.15965	32406.69643
1452.58027	32356.55357
1455.9986	32345.83929
1459.41463	32450.83929
1462.82837	32744.125
1466.23982	33201.69643
1469.64898	33679.69643
1473.05586	34044.98214
1476.46045	34323.55357
1479.86276	34498.98214
1483.26279	34629.98214
1486.66054	34901.98214
1490.05602	35205.83929
1493.44922	35815.98214
1496.84016	36743.125
1500.22882	38077.41071
1503.61521	39681.26786
1506.99934	41266.41071
1510.38121	42331.125
1513.76081	42269.41071
1517.13816	40942.98214
1520.51324	39056.83929
1523.88607	37509.98214
1527.25665	36628.69643
1530.62498	36102.69643
1533.99105	35822.83929
1537.35488	35585.83929
1540.71647	35270.55357
1544.07581	34847.55357
1547.4329	34438.55357
1550.78776	33969.69643
1554.14038	33645.83929
1557.49077	33464.26786
1560.83892	33490.26786
1564.18484	33654.69643
1567.52853	33908.55357
1570.86999	34196.55357
1574.20922	34477.83929
1577.54624	34511.98214
1580.88103	34133.55357
1584.2136	33518.98214
1587.54395	33298.26786
1590.87208	33608.41071
1594.19801	34490.83929
1597.52172	35620.125
1600.84321	36321.41071
1604.16251	36003.83929
1607.47959	35064.98214
1610.79447	33775.69643
1614.10715	32469.98214
1617.41763	31159.69643
1620.7259	30194.26786
1624.03199	29433.69643
1627.33587	29221.55357
1630.63757	29420.69643
1633.93707	30049.98214
1637.23439	31219.83929
1640.52951	33172.26786
1643.82246	35736.69643
1647.11321	38071.83929
1650.40179	39179.26786
1653.68819	38133.41071
1656.97241	35315.125
1660.25446	32319.41071
1663.53433	29985.98214
1666.81203	28368.83929
1670.08756	27473.98214
1673.36092	26874.98214
1676.63211	26455.41071
1679.90115	26135.125
1683.16801	25910.55357
1686.43272	25701.125
1689.69527	25534.83929
1692.95567	25411.55357
1696.2139	25310.26786
1699.46999	25254.26786
1702.72392	25181.26786
1705.97571	25184.26786
1709.22535	25157.83929
1712.47284	25150.55357
1715.71819	25065.83929
1718.96139	25030.26786
1722.20246	24952.98214
1725.44139	24877.26786
1728.67818	24775.26786
1731.91284	24721.55357
1735.14537	24693.125
1738.37576	24580.125
1741.60403	24478.69643
1744.83017	24427.98214
1748.05418	24361.98214
1751.27607	24341.26786
1754.49584	24293.55357
1757.71349	24339.125
1760.92903	24310.83929
1764.14244	24296.55357
1767.35375	24219.69643
1770.56294	24163.98214
1773.77002	24136.26786
1776.97499	24086.69643
1780.17785	24055.83929
1783.37861	24014.98214
1786.57727	23923.125
1789.77382	23938.26786
1792.96828	23890.125
1796.16064	23835.69643
1799.3509	23759.26786
1802.53907	23722.26786
1805.72514	23677.83929
1808.90913	23611.83929
1812.09102	23516.26786
1815.27083	23507.125
1818.44856	23531.83929
1821.6242	23504.55357
1824.79776	23482.41071
1827.96924	23422.125
1831.13864	23371.55357
1834.30597	23368.98214
1837.47122	23319.98214
1840.6344	23362.26786
1843.7955	23316.41071
1846.95454	23268.83929
1850.11151	23274.69643
1853.26642	23220.98214
1856.41926	23202.26786
1859.57004	23206.125
1862.71876	23146.41071
1865.86542	23136.41071
1869.01003	23140.69643
1872.15258	23105.83929
1875.29308	23128.125
1878.43152	23056.83929
1881.56792	23014.55357
1884.70227	22990.26786
1887.83457	23012.83929
1890.96482	22916.98214
1894.09304	22896.55357
1897.21921	22839.98214
1900.34335	22863.83929
1903.46544	22850.125
1906.58551	22780.69643
1909.70353	22705.55357
1912.81953	22724.125
1915.93349	22672.41071
1919.04543	22621.125
1922.15534	22619.98214
1925.26322	22554.83929
1928.36908	22514.26786
1931.47292	22503.125
1934.57473	22461.55357
1937.67453	22388.41071
1940.77232	22400.83929
1943.86808	22296.55357
1946.96184	22195.83929
1950.05358	22145.55357
1953.14331	22117.69643
1956.23103	22044.98214
1959.31675	22016.55357
1962.40046	21926.41071
1965.48217	21866.26786
1968.56188	21771.69643
1971.63959	21767.83929
1974.7153	21710.55357
1977.78901	21643.55357
1980.86073	21588.83929
1983.93046	21487.55357
1986.99819	21421.55357
1990.06394	21329.125
1993.1277	21349.55357
1996.18947	21230.125
1999.24925	21177.41071
2002.30706	21088.83929
2005.36288	21047.41071
2008.41672	20907.26786
2011.46859	20854.83929
2014.51848	20808.26786
2017.56639	20725.125
2020.61233	20698.55357
2023.6563	20610.98214
2026.6983	20575.83929
2029.73833	20524.55357
2032.7764	20452.26786
2035.8125	20415.83929
2038.84664	20388.83929
2041.87881	20352.26786
2044.90903	20305.69643
2047.93729	20267.69643
2050.96359	20270.26786
2053.98794	20251.41071
2057.01034	20219.55357
2060.03078	20222.98214
2063.04927	20173.98214
2066.06582	20201.55357
2069.08042	20149.26786
2072.09307	20078.125
2075.10378	20116.41071
2078.11255	20125.55357
2081.11938	20095.69643
2084.12426	20076.125
2087.12722	20068.83929
2090.12824	20093.55357
2093.12732	20063.69643
2096.12447	20075.125
2099.11969	20064.69643
2102.11299	20049.98214
2105.10435	20097.125
2108.09379	20070.41071
2111.08131	20086.69643
2114.0669	20121.125
2117.05057	20136.83929
2120.03233	20124.98214
2123.01216	20117.98214
2125.99008	20191.69643
2128.96609	20208.69643
2131.94018	20220.26786
2134.91236	20237.26786
2137.88263	20196.26786
2140.851	20196.41071
2143.81746	20217.125
2146.78201	20206.69643
2149.74466	20225.83929
2152.7054	20227.26786
2155.66425	20236.55357
2158.6212	20202.55357
2161.57625	20192.55357
2164.52941	20180.125
2167.48067	20129.26786
2170.43004	20158.26786
2173.37752	20177.98214
2176.32311	20178.55357
2179.26681	20124.83929
2182.20863	20140.55357
2185.14856	20173.41071
2188.08661	20101.41071
2191.02278	20098.55357
2193.95707	20096.55357
2196.88948	20049.125
2199.82001	20054.98214
2202.74867	20026.26786
2205.67545	20016.98214
2208.60037	20011.69643
2211.52341	19915.98214
2214.44458	19892.26786
2217.36388	19839.69643
2220.28132	19832.125
2223.1969	19769.41071
2226.11061	19712.41071
2229.02246	19699.125
2231.93245	19649.41071
2234.84058	19597.98214
2237.74686	19591.55357
2240.65128	19615.41071
2243.55385	19600.69643
2246.45456	19562.125
2249.35343	19491.41071
2252.25044	19494.98214
2255.14561	19410.41071
2258.03893	19462.41071
2260.93041	19404.55357
2263.82004	19375.125
2266.70783	19344.125
2269.59378	19223.26786
2272.4779	19180.55357
2275.36017	19143.41071
2278.24061	19099.26786
2281.11922	19066.26786
2283.996	19069.55357
2286.87094	19012.55357
2289.74405	18959.41071
2292.61534	18962.55357
2295.4848	18932.26786
2298.35243	18945.26786
2301.21824	18917.55357
2304.08223	18885.69643
2306.94439	18875.83929
2309.80474	18848.125
2312.66327	18817.83929
2315.51999	18822.26786
2318.37489	18794.83929
2321.22797	18750.41071
2324.07925	18713.55357
2326.92871	18686.55357
2329.77637	18641.41071
2332.62222	18573.26786
2335.46626	18611.69643
2338.3085	18561.83929
2341.14893	18538.125
2343.98756	18527.98214
2346.8244	18522.98214
2349.65943	18458.98214
2352.49267	18458.69643
2355.32411	18459.83929
2358.15376	18440.83929
2360.98161	18435.26786
2363.80768	18466.125
2366.63195	18364.69643
2369.45444	18356.125
2372.27514	18372.98214
2375.09405	18313.41071
2377.91118	18324.41071
2380.72652	18274.41071
2383.54009	18218.98214
2386.35187	18200.26786
2389.16188	18114.55357
2391.97011	18075.55357
2394.77657	18050.55357
2397.58125	18039.41071
2400.38416	18020.125
2403.18529	17969.55357
2405.98466	17990.26786
2408.78226	17906.69643
2411.57809	17878.26786
2414.37216	17861.26786
2417.16446	17872.55357
2419.955	17857.69643
2422.74378	17812.55357
2425.5308	17769.26786
2428.31606	17795.55357
2431.09956	17781.98214
2433.88131	17755.41071
2436.6613	17744.69643
2439.43954	17712.55357
2442.21603	17691.26786
2444.99077	17683.55357
2447.76377	17653.41071
2450.53501	17633.83929
2453.30451	17626.55357
2456.07226	17599.98214
2458.83827	17607.83929
2461.60254	17562.41071
2464.36507	17504.125
2467.12586	17524.55357
2469.88492	17492.83929
2472.64224	17464.69643
2475.39782	17455.26786
2478.15167	17468.41071
2480.90379	17453.69643
2483.65417	17451.55357
2486.40283	17433.83929
2489.14976	17447.41071
2491.89497	17433.98214
2494.63845	17415.83929
2497.3802	17385.83929
2500.12024	17400.98214
2502.85855	17369.69643
2505.59514	17287.83929
2508.33002	17315.98214
2511.06318	17260.83929
2513.79462	17247.125
2516.52435	17192.41071
2519.25237	17232.41071
2521.97867	17157.69643
2524.70327	17160.98214
2527.42616	17127.41071
2530.14734	17128.41071
2532.86681	17079.125
2535.58458	17077.83929
2538.30065	17030.98214
2541.01501	17039.55357
2543.72768	17002.83929
2546.43864	16934.41071
2549.14791	16946.125
2551.85548	16905.98214
2554.56136	16889.55357
2557.26554	16856.83929
2559.96803	16832.55357
2562.66883	16737.69643
2565.36794	16728.125
2568.06536	16711.125
2570.7611	16683.41071
2573.45514	16634.83929
2576.14751	16629.83929
2578.83819	16560.98214
2581.52719	16539.41071
2584.21451	16498.83929
2586.90015	16486.41071
2589.58411	16452.83929
2592.2664	16490.83929
2594.94701	16409.69643
2597.62594	16350.69643
2600.30321	16309.125
2602.9788	16326.26786
2605.65273	16296.125
2608.32498	16282.55357
2610.99557	16273.125
2613.66449	16277.69643
2616.33175	16208.98214
2618.99734	16239.98214
2621.66128	16194.41071
2624.32355	16133.83929
2626.98416	16139.83929
2629.64311	16126.26786
2632.30041	16083.125
2634.95605	16074.26786
2637.61004	15997.69643
2640.26238	15955.41071
2642.91306	16013.26786
2645.56209	15971.98214
2648.20948	15976.41071
2650.85521	15970.55357
2653.4993	15944.83929
2656.14175	15956.41071
2658.78255	15941.98214
2661.42171	15961.125
2664.05923	15996.98214
2666.6951	15967.98214
2669.32934	15919.83929
2671.96194	15955.55357
2674.59291	15965.69643
2677.22224	15924.83929
2679.84993	15948.41071
2682.476	15894.83929
2685.10043	15902.26786
2687.72324	15881.26786
2690.34441	15891.69643
2692.96396	15884.83929
2695.58188	15911.98214
2698.19818	15873.41071
2700.81285	15834.83929
2703.4259	15862.41071
2706.03733	15846.83929
2708.64714	15884.26786
2711.25533	15869.83929
2713.86191	15879.69643
2716.46687	15858.26786
2719.07021	15880.41071
2721.67194	15869.55357
2724.27206	15847.69643
2726.87057	15859.125
2729.46747	15838.55357
2732.06276	15838.69643
2734.65644	15830.83929
2737.24852	15824.41071
2739.83899	15791.69643
2742.42786	15824.69643
2745.01513	15763.55357
2747.60079	15724.69643
2750.18486	15687.69643
2752.76733	15677.83929
2755.3482	15658.98214
2757.92747	15632.55357
2760.50515	15632.98214
2763.08123	15633.41071
2765.65573	15535.26786
2768.22863	15558.69643
2770.79994	15533.83929
2773.36967	15528.41071
2775.9378	15506.125
2778.50435	15478.69643
2781.06932	15470.55357
2783.6327	15460.55357
2786.1945	15409.83929
2788.75471	15365.26786
2791.31335	15323.26786
2793.87041	15337.55357
2796.42589	15308.41071
2798.97979	15289.69643
2801.53212	15232.69643
2804.08288	15185.125
2806.63206	15169.69643
2809.17967	15118.98214
2811.72571	15111.125
2814.27018	15055.69643
2816.81308	15018.26786
2819.35442	15024.83929
2821.89419	14944.125
2824.43239	14957.83929
2826.96904	14925.55357
2829.50412	14942.55357
2832.03763	14896.26786
2834.56959	14901.125
2837.1	14873.83929
2839.62884	14880.69643
2842.15613	14843.98214
2844.68186	14835.69643
2847.20604	14852.69643
2849.72867	14837.125
2852.24974	14794.69643
2854.76927	14800.55357
2857.28724	14781.125
2859.80367	14726.98214
2862.31855	14691.26786
2864.83189	14677.55357
2867.34368	14652.98214
2869.85393	14646.83929
2872.36264	14632.98214
2874.8698	14619.125
2877.37543	14603.69643
2879.87952	14575.98214
2882.38207	14588.55357
2884.88308	14533.98214
2887.38256	14544.69643
2889.88051	14573.26786
2892.37692	14575.55357
2894.8718	14573.69643
2897.36515	14557.69643
2899.85698	14594.26786
2902.34727	14571.55357
2904.83604	14592.41071
2907.32328	14572.41071
2909.809	14601.98214
2912.29319	14584.41071
2914.77587	14607.55357
2917.25702	14593.41071
2919.73665	14603.55357
2922.21476	14554.69643
2924.69136	14574.41071
2927.16644	14584.83929
2929.64	14552.69643
2932.11205	14519.55357
2934.58258	14491.83929
2937.05161	14488.55357
2939.51912	14488.125
2941.98513	14497.125
2944.44962	14474.98214
2946.91261	14431.83929
2949.37409	14451.55357
2951.83407	14416.55357
2954.29254	14390.26786
2956.74951	14375.83929
2959.20498	14367.83929
2961.65895	14358.83929
2964.11142	14380.98214
2966.56239	14329.55357
2969.01186	14316.26786
2971.45984	14292.26786
2973.90632	14293.98214
2976.35131	14215.69643
2978.7948	14229.69643
2981.23681	14169.55357
2983.67732	14156.125
2986.11635	14152.41071
2988.55388	14119.83929
2990.98993	14093.83929
2993.4245	14054.125
2995.85758	14072.83929
2998.28917	14043.125
3000.71928	13978.41071
3003.14791	13981.41071
3005.57506	13942.98214
3008.00073	13911.69643
3010.42493	13917.83929
3012.84764	13828.83929
3015.26888	13794.41071
3017.68865	13778.55357
3020.10694	13805.69643
3022.52376	13763.41071
3024.9391	13729.26786
3027.35298	13722.98214
3029.76539	13706.26786
3032.17632	13677.69643
3034.5858	13687.83929
3036.9938	13673.55357
3039.40034	13692.26786
3041.80542	13630.125
3044.20903	13617.55357
3046.61118	13633.83929
3049.01187	13562.83929
3051.4111	13579.98214
3053.80888	13522.83929
3056.20519	13485.98214
3058.60005	13498.69643
3060.99345	13443.69643
3063.3854	13422.55357
3065.7759	13374.41071
3068.16494	13334.125
3070.55254	13298.55357
3072.93868	13270.55357
3075.32338	13271.26786
3077.70662	13243.98214
3080.08842	13182.125
3082.46878	13209.98214
3084.84769	13197.125
3087.22515	13181.83929
3089.60118	13184.41071
3091.97576	13170.26786
3094.3489	13197.55357
3096.72061	13160.26786
3099.09087	13170.26786
3101.4597	13152.69643
3103.82709	13155.41071
3106.19305	13149.26786
3108.55757	13158.26786
3110.92066	13118.125
3113.28232	13097.55357
3115.64255	13049.125
3118.00134	13031.55357
3120.35871	12999.98214
3122.71466	12994.125
3125.06917	12968.125
3127.42226	12937.69643
3129.77393	12944.83929
3132.12417	12927.26786
3134.47299	12887.125
3136.82039	12914.69643
3139.16636	12891.125
3141.51092	12892.26786
3143.85406	12882.125
3146.19579	12909.41071
3148.53609	12891.55357
3150.87499	12923.41071
3153.21246	12933.55357
3155.54853	12933.98214
3157.88318	12903.98214
3160.21642	12962.83929
3162.54826	12954.26786
3164.87868	12928.69643
3167.2077	12927.83929
3169.5353	12949.125
3171.86151	12923.55357
3174.18631	12910.41071
3176.5097	12882.98214
3178.83169	12875.125
3181.15228	12856.83929
3183.47147	12843.69643
3185.78926	12794.69643
3188.10565	12774.55357
3190.42065	12820.26786
3192.73424	12781.26786
3195.04645	12757.83929
3197.35725	12737.98214
3199.66667	12725.26786
3201.97469	12753.41071
3204.28132	12755.98214
3206.58656	12793.55357
3208.8904	12757.26786
3211.19287	12788.125
3213.49394	12812.83929
3215.79363	12805.83929
3218.09193	12805.69643
3220.38884	12791.125
3222.68438	12817.83929
3224.97853	12772.55357
3227.2713	12764.98214
3229.56269	12730.125
3231.8527	12746.41071
3234.14133	12720.125
3236.42858	12640.125
3238.71446	12639.69643
3240.99896	12613.41071
3243.28209	12594.98214
3245.56384	12574.98214
3247.84423	12582.125
3250.12324	12564.83929
3252.40088	12566.83929
3254.67715	12526.83929
3256.95205	12526.98214
3259.22558	12554.83929
3261.49775	12496.26786
3263.76855	12505.69643
3266.03799	12474.125
3268.30606	12468.98214
3270.57277	12423.125
3272.83812	12400.69643
3275.10211	12372.41071
3277.36474	12350.98214
3279.62601	12340.69643
3281.88593	12333.69643
3284.14448	12333.41071
3286.40168	12339.41071
3288.65753	12303.55357
3290.91202	12268.98214
3293.16516	12267.41071
3295.41695	12228.125
3297.66738	12190.83929
3299.91647	12110.69643
3302.16421	12034.69643
3304.4106	11996.125
3306.65564	11921.26786
3308.89933	11856.98214
3311.14169	11750.98214
3313.38269	11632.83929
3315.62236	11560.69643
3317.86068	11476.55357
3320.09766	11426.125
3322.3333	11327.55357
3324.5676	11267.26786
3326.80056	11100.26786
3329.03219	11033.83929
3331.26248	1.98214
3333.49143	-0.01786
3335.71905	0.26786
