Data from AgNPs_FTO_APTES_UA_20uM_CRN_2uM_R6G_10uM_NaF_0.1M_Addition_RamanShift__9__12-51-02-075.txt Node

Date: Thu Feb 17 12:51:02 GMT 2022
User: TCL
Spectrometer: QEP01345
Trigger mode: 4
Integration Time (sec): 7.000000E0
Scans to average: 10
Electric dark correction enabled: true
Nonlinearity correction enabled: false
Boxcar width: 0
XAxis mode: Raman Shifts
Number of Pixels in Spectrum: 1044
>>>>>Begin Spectral Data<<<<<
46.04893	-0.7375
50.45542	-0.7375
54.85868	-2.3375
59.25871	-1.0375
63.6555	117.1625
68.04907	118.1625
72.43941	121.8625
76.82654	126.2625
81.21044	130.6625
85.59113	135.7625
89.96862	139.4625
94.34289	143.8625
98.71396	146.5625
103.08183	152.6625
107.4465	160.0625
111.80798	158.9625
116.16626	168.0625
120.52136	171.4625
124.87327	179.2625
129.222	193.2625
133.56755	204.7625
137.90993	224.8625
142.24913	245.3625
146.58517	284.2625
150.91804	333.6625
155.24774	398.3625
159.57429	498.9625
163.89768	649.5625
168.21792	875.7625
172.53501	1198.5625
176.84895	1674.2625
181.15975	2387.9625
185.46741	3346.2625
189.77193	4616.0625
194.07331	6228.2625
198.37157	8023.4625
202.6667	9943.9625
206.9587	11846.6625
211.24758	13690.7625
215.53334	15558.1625
219.81599	17481.6625
224.09553	19585.1625
228.37195	22005.7625
232.64527	24628.3625
236.91549	27357.4625
241.18261	30178.9625
245.44663	32847.1625
249.70755	35269.2625
253.96539	37338.4625
258.22014	39073.3625
262.4718	40467.9625
266.72039	41564.2625
270.96589	42162.6625
275.20832	42171.5625
279.44768	42019.7625
283.68397	41700.0625
287.91719	41383.1625
292.14735	41177.7625
296.37445	41123.9625
300.59849	41267.6625
304.81948	41431.4625
309.03742	41472.5625
313.25231	41405.9625
317.46415	40942.3625
321.67296	40231.5625
325.87872	39681.9625
330.08145	39425.0625
334.28114	39485.2625
338.47781	39728.6625
342.67145	40217.0625
346.86207	40812.1625
351.04966	41491.6625
355.23424	42096.6625
359.4158	42605.2625
363.59435	43073.0625
367.76989	43389.3625
371.94243	43679.3625
376.11196	43825.4625
380.27849	44061.3625
384.44203	44263.0625
388.60257	44618.7625
392.76012	45126.8625
396.91468	45651.4625
401.06626	46322.1625
405.21485	46675.9625
409.36047	46633.3625
413.50311	46281.4625
417.64277	46078.9625
421.77947	46202.2625
425.9132	46419.5625
430.04396	46763.3625
434.17176	46960.5625
438.2966	47215.4625
442.41849	47845.0625
446.53742	48749.4625
450.6534	49807.1625
454.76644	50683.1625
458.87653	51061.3625
462.98368	50990.0625
467.08789	50718.7625
471.18916	50185.8625
475.2875	49626.6625
479.38291	49315.4625
483.4754	49076.8625
487.56496	48788.5625
491.6516	48314.7625
495.73531	47837.0625
499.81612	47455.3625
503.89401	47707.1625
507.96899	47901.7625
512.04106	47943.5625
516.11023	47785.6625
520.1765	47534.9625
524.23987	47310.9625
528.30034	47110.5625
532.35792	46811.3625
536.41261	46456.2625
540.46441	46182.8625
544.51333	46207.5625
548.55936	46639.6625
552.60252	47411.1625
556.64279	48399.8625
560.6802	49085.7625
564.71473	49566.1625
568.7464	50312.3625
572.7752	51663.1625
576.80114	53321.2625
580.82422	54775.4625
584.84444	56124.6625
588.86181	57723.5625
592.87633	59117.7625
596.888	58757.5625
600.89682	56892.1625
604.9028	56411.3625
608.90594	58684.2625
612.90624	61034.1625
616.90371	57843.4625
620.89834	51452.7625
624.89015	48748.2625
628.87913	48561.6625
632.86528	48977.4625
636.84862	49095.9625
640.82913	48492.6625
644.80683	47624.7625
648.78172	46929.9625
652.75379	46917.2625
656.72306	47354.7625
660.68952	48010.2625
664.65319	47866.1625
668.61405	47344.1625
672.57211	47308.9625
676.52738	47556.3625
680.47986	47505.0625
684.42955	47319.8625
688.37646	47203.6625
692.32058	47433.1625
696.26192	47951.3625
700.20048	48531.8625
704.13626	48987.5625
708.06928	49102.1625
711.99952	48975.8625
715.927	48959.6625
719.85171	49008.2625
723.77365	48793.4625
727.69284	48355.6625
731.60928	47817.2625
735.52295	47585.8625
739.43388	47622.6625
743.34206	47741.2625
747.24749	48031.2625
751.15017	48400.6625
755.05012	49001.0625
758.94733	50103.6625
762.8418	51962.2625
766.73354	54674.3625
770.62254	57119.9625
774.50882	57315.3625
778.39237	55298.6625
782.27321	52602.7625
786.15132	50424.4625
790.02671	49109.0625
793.89938	48306.2625
797.76935	47986.3625
801.6366	47812.2625
805.50115	47728.8625
809.36299	47601.7625
813.22213	47435.2625
817.07857	47316.6625
820.93231	47257.1625
824.78336	47135.2625
828.63172	47053.2625
832.47738	46889.2625
836.32036	46971.8625
840.16066	47052.9625
843.99827	47107.2625
847.8332	47188.5625
851.66546	47261.2625
855.49504	47371.8625
859.32195	47451.3625
863.1462	47351.7625
866.96777	47382.4625
870.78668	47378.2625
874.60293	47398.9625
878.41652	47499.5625
882.22745	47538.4625
886.03573	47692.4625
889.84136	47673.5625
893.64433	47568.3625
897.44466	47417.4625
901.24235	47290.4625
905.0374	47221.0625
908.8298	47225.2625
912.61957	47233.1625
916.40671	47575.6625
920.19121	48171.3625
923.97308	48633.6625
927.75233	48555.9625
931.52895	48109.2625
935.30295	47514.0625
939.07433	47012.4625
942.84309	46564.2625
946.60924	46425.2625
950.37278	46367.2625
954.13371	46428.0625
957.89203	46471.7625
961.64774	46424.0625
965.40086	46400.6625
969.15137	46436.3625
972.89929	46253.9625
976.64461	46164.4625
980.38733	46178.0625
984.12747	46212.2625
987.86502	46495.6625
991.59999	46737.7625
995.33237	47151.9625
999.06217	47686.2625
1002.78939	48466.5625
1006.51404	49345.6625
1010.23611	50119.6625
1013.95561	50598.0625
1017.67255	50811.8625
1021.38692	50381.9625
1025.09872	49708.5625
1028.80796	49208.5625
1032.51465	49087.1625
1036.21877	49151.9625
1039.92035	49368.6625
1043.61937	49414.5625
1047.31584	49433.5625
1051.00976	49415.8625
1054.70114	49480.7625
1058.38998	49732.5625
1062.07627	50205.1625
1065.76003	50766.8625
1069.44126	51406.8625
1073.11995	52160.3625
1076.79611	52790.7625
1080.46974	53192.1625
1084.14085	53460.9625
1087.80943	53923.3625
1091.47549	54280.6625
1095.13903	54353.0625
1098.80005	53842.9625
1102.45857	53020.4625
1106.11456	52221.1625
1109.76805	51703.5625
1113.41903	51668.6625
1117.06751	51822.2625
1120.71348	52121.0625
1124.35696	52451.2625
1127.99793	52832.4625
1131.63641	52976.3625
1135.2724	52969.5625
1138.90589	52905.6625
1142.5369	53030.9625
1146.16542	53309.1625
1149.79145	53680.8625
1153.415	54085.6625
1157.03607	54584.0625
1160.65467	55641.1625
1164.27079	57257.0625
1167.88443	59337.6625
1171.49561	61786.6625
1175.10432	64621.5625
1178.71056	68209.3625
1182.31434	71553.4625
1185.91565	73414.4625
1189.51451	73605.7625
1193.11091	72711.8625
1196.70485	71071.5625
1200.29634	69214.0625
1203.88538	67786.5625
1207.47197	67050.4625
1211.05612	66504.9625
1214.63782	65578.1625
1218.21708	64132.4625
1221.79391	62696.3625
1225.36829	61704.7625
1228.94024	61067.4625
1232.50976	60536.6625
1236.07685	59862.9625
1239.6415	59463.0625
1243.20374	59506.6625
1246.76355	59882.5625
1250.32093	60546.5625
1253.8759	61563.5625
1257.42845	62891.9625
1260.97859	64440.3625
1264.52631	65916.6625
1268.07163	67426.0625
1271.61453	68835.9625
1275.15503	70128.5625
1278.69312	71567.8625
1282.22882	73032.1625
1285.76211	74917.9625
1289.29301	77190.0625
1292.82151	79802.2625
1296.34761	83026.7625
1299.87133	86783.5625
1303.39266	90508.5625
1306.9116	93932.8625
1310.42815	96579.2625
1313.94233	97792.6625
1317.45412	97249.9625
1320.96354	96027.6625
1324.47058	95024.0625
1327.97525	94505.2625
1331.47754	94063.3625
1334.97747	93797.1625
1338.47502	93558.1625
1341.97022	93582.7625
1345.46305	93515.0625
1348.95352	93159.8625
1352.44163	92755.5625
1355.92738	93101.8625
1359.41078	94628.0625
1362.89183	95962.1625
1366.37053	94419.4625
1369.84688	88884.6625
1373.32088	81773.4625
1376.79254	76687.0625
1380.26186	74718.1625
1383.72883	74606.3625
1387.19347	74771.3625
1390.65578	74355.8625
1394.11575	73885.7625
1397.57339	74063.1625
1401.0287	74513.8625
1404.48168	74972.1625
1407.93234	74696.3625
1411.38068	73535.6625
1414.82669	71867.5625
1418.27039	69723.9625
1421.71177	67743.7625
1425.15083	66063.1625
1428.58758	65507.2625
1432.02203	66041.3625
1435.45416	67395.5625
1438.88399	69097.1625
1442.31151	70363.4625
1445.73673	71006.7625
1449.15965	71360.3625
1452.58027	71575.8625
1455.9986	71523.9625
1459.41463	72047.0625
1462.82837	72979.8625
1466.23982	74005.4625
1469.64898	74981.8625
1473.05586	75643.5625
1476.46045	75868.9625
1479.86276	75606.1625
1483.26279	75160.4625
1486.66054	74814.5625
1490.05602	75147.4625
1493.44922	75877.7625
1496.84016	76865.9625
1500.22882	78323.9625
1503.61521	80218.1625
1506.99934	82353.1625
1510.38121	83557.8625
1513.76081	83448.1625
1517.13816	81986.1625
1520.51324	80294.0625
1523.88607	79164.9625
1527.25665	79153.3625
1530.62498	79438.6625
1533.99105	79397.7625
1537.35488	78536.2625
1540.71647	77054.5625
1544.07581	75288.5625
1547.4329	73599.1625
1550.78776	72079.1625
1554.14038	71073.5625
1557.49077	70401.0625
1560.83892	69986.2625
1564.18484	69853.6625
1567.52853	69848.8625
1570.86999	70252.3625
1574.20922	71131.0625
1577.54624	71915.1625
1580.88103	72076.3625
1584.2136	72455.4625
1587.54395	73865.6625
1590.87208	76663.7625
1594.19801	80227.0625
1597.52172	83513.2625
1600.84321	84179.5625
1604.16251	81350.8625
1607.47959	76701.3625
1610.79447	71865.6625
1614.10715	67284.0625
1617.41763	63346.7625
1620.7259	60442.6625
1624.03199	58951.2625
1627.33587	58778.1625
1630.63757	59932.3625
1633.93707	62805.8625
1637.23439	67719.3625
1640.52951	75073.6625
1643.82246	83599.6625
1647.11321	90192.9625
1650.40179	91112.2625
1653.68819	85416.1625
1656.97241	75976.5625
1660.25446	66946.3625
1663.53433	60274.2625
1666.81203	55863.2625
1670.08756	53066.7625
1673.36092	51422.1625
1676.63211	50271.8625
1679.90115	49427.5625
1683.16801	48744.2625
1686.43272	48284.4625
1689.69527	47943.2625
1692.95567	47696.4625
1696.2139	47521.5625
1699.46999	47420.0625
1702.72392	47284.2625
1705.97571	47226.4625
1709.22535	47103.6625
1712.47284	47062.8625
1715.71819	47031.6625
1718.96139	46984.5625
1722.20246	46869.9625
1725.44139	46731.6625
1728.67818	46515.4625
1731.91284	46269.5625
1735.14537	46088.4625
1738.37576	45930.4625
1741.60403	45844.8625
1744.83017	45663.2625
1748.05418	45531.2625
1751.27607	45464.5625
1754.49584	45346.0625
1757.71349	45430.2625
1760.92903	45395.1625
1764.14244	45279.0625
1767.35375	45296.0625
1770.56294	45239.5625
1773.77002	45236.1625
1776.97499	45226.9625
1780.17785	45134.6625
1783.37861	45053.8625
1786.57727	44950.1625
1789.77382	44845.3625
1792.96828	44852.2625
1796.16064	44857.8625
1799.3509	44727.8625
1802.53907	44705.5625
1805.72514	44612.5625
1808.90913	44520.3625
1812.09102	44464.4625
1815.27083	44346.9625
1818.44856	44339.9625
1821.6242	44274.3625
1824.79776	44267.4625
1827.96924	44251.8625
1831.13864	44248.7625
1834.30597	44217.2625
1837.47122	44173.1625
1840.6344	44083.0625
1843.7955	44173.0625
1846.95454	44175.0625
1850.11151	44177.5625
1853.26642	44112.6625
1856.41926	44127.2625
1859.57004	44103.6625
1862.71876	43963.5625
1865.86542	43881.8625
1869.01003	43894.3625
1872.15258	43830.8625
1875.29308	43801.0625
1878.43152	43712.6625
1881.56792	43728.7625
1884.70227	43767.0625
1887.83457	43703.9625
1890.96482	43714.2625
1894.09304	43640.1625
1897.21921	43534.7625
1900.34335	43450.9625
1903.46544	43397.1625
1906.58551	43436.2625
1909.70353	43393.1625
1912.81953	43397.5625
1915.93349	43273.8625
1919.04543	43189.1625
1922.15534	43172.8625
1925.26322	43105.0625
1928.36908	43048.8625
1931.47292	42987.4625
1934.57473	42906.2625
1937.67453	42805.7625
1940.77232	42686.9625
1943.86808	42613.0625
1946.96184	42445.1625
1950.05358	42398.9625
1953.14331	42271.6625
1956.23103	42159.4625
1959.31675	42058.2625
1962.40046	41954.4625
1965.48217	41821.7625
1968.56188	41651.4625
1971.63959	41579.0625
1974.7153	41505.6625
1977.78901	41417.8625
1980.86073	41260.1625
1983.93046	41147.9625
1986.99819	41033.4625
1990.06394	41027.0625
1993.1277	40923.7625
1996.18947	40785.9625
1999.24925	40663.1625
2002.30706	40562.6625
2005.36288	40442.8625
2008.41672	40305.5625
2011.46859	40180.2625
2014.51848	40137.4625
2017.56639	40040.6625
2020.61233	39939.0625
2023.6563	39825.8625
2026.6983	39669.2625
2029.73833	39658.7625
2032.7764	39568.9625
2035.8125	39519.3625
2038.84664	39421.3625
2041.87881	39409.8625
2044.90903	39317.2625
2047.93729	39275.8625
2050.96359	39262.1625
2053.98794	39205.8625
2057.01034	39224.9625
2060.03078	39184.3625
2063.04927	39220.6625
2066.06582	39166.0625
2069.08042	39132.8625
2072.09307	39090.9625
2075.10378	39055.6625
2078.11255	39016.4625
2081.11938	39087.5625
2084.12426	39086.5625
2087.12722	39015.1625
2090.12824	38975.0625
2093.12732	39007.1625
2096.12447	39003.0625
2099.11969	39015.6625
2102.11299	39031.8625
2105.10435	39060.1625
2108.09379	39072.2625
2111.08131	39097.5625
2114.0669	39052.1625
2117.05057	39086.1625
2120.03233	39128.7625
2123.01216	39240.6625
2125.99008	39292.7625
2128.96609	39327.6625
2131.94018	39372.8625
2134.91236	39399.4625
2137.88263	39432.6625
2140.851	39442.8625
2143.81746	39461.7625
2146.78201	39475.6625
2149.74466	39510.1625
2152.7054	39553.6625
2155.66425	39523.3625
2158.6212	39504.0625
2161.57625	39535.7625
2164.52941	39527.9625
2167.48067	39469.3625
2170.43004	39457.0625
2173.37752	39475.7625
2176.32311	39493.6625
2179.26681	39531.4625
2182.20863	39533.8625
2185.14856	39563.8625
2188.08661	39526.1625
2191.02278	39523.8625
2193.95707	39474.0625
2196.88948	39416.9625
2199.82001	39486.3625
2202.74867	39362.2625
2205.67545	39286.1625
2208.60037	39261.1625
2211.52341	39222.7625
2214.44458	39178.6625
2217.36388	39183.9625
2220.28132	39124.5625
2223.1969	39013.0625
2226.11061	38931.9625
2229.02246	38841.9625
2231.93245	38785.8625
2234.84058	38719.1625
2237.74686	38753.8625
2240.65128	38719.7625
2243.55385	38666.0625
2246.45456	38632.3625
2249.35343	38523.1625
2252.25044	38529.1625
2255.14561	38403.3625
2258.03893	38419.2625
2260.93041	38362.1625
2263.82004	38235.3625
2266.70783	38166.8625
2269.59378	38102.0625
2272.4779	37956.3625
2275.36017	37962.8625
2278.24061	37874.4625
2281.11922	37808.1625
2283.996	37777.3625
2286.87094	37774.8625
2289.74405	37711.4625
2292.61534	37692.9625
2295.4848	37629.5625
2298.35243	37653.6625
2301.21824	37627.1625
2304.08223	37562.9625
2306.94439	37556.9625
2309.80474	37552.4625
2312.66327	37577.3625
2315.51999	37528.9625
2318.37489	37463.8625
2321.22797	37404.8625
2324.07925	37373.8625
2326.92871	37276.8625
2329.77637	37180.0625
2332.62222	37192.0625
2335.46626	37195.0625
2338.3085	37143.6625
2341.14893	37117.4625
2343.98756	37122.3625
2346.8244	37123.9625
2349.65943	37165.5625
2352.49267	37063.3625
2355.32411	37143.8625
2358.15376	37041.9625
2360.98161	37054.3625
2363.80768	36991.6625
2366.63195	36997.5625
2369.45444	37016.2625
2372.27514	36958.0625
2375.09405	36934.7625
2377.91118	36859.4625
2380.72652	36784.2625
2383.54009	36715.2625
2386.35187	36624.1625
2389.16188	36561.5625
2391.97011	36458.6625
2394.77657	36402.9625
2397.58125	36425.1625
2400.38416	36385.5625
2403.18529	36242.2625
2405.98466	36286.5625
2408.78226	36194.0625
2411.57809	36177.3625
2414.37216	36148.4625
2417.16446	36124.5625
2419.955	36101.0625
2422.74378	36102.4625
2425.5308	36073.8625
2428.31606	36061.3625
2431.09956	36021.4625
2433.88131	36010.5625
2436.6613	36028.4625
2439.43954	35975.5625
2442.21603	36005.6625
2444.99077	35936.5625
2447.76377	35992.8625
2450.53501	35893.9625
2453.30451	35909.1625
2456.07226	35799.7625
2458.83827	35842.4625
2461.60254	35789.0625
2464.36507	35783.2625
2467.12586	35790.2625
2469.88492	35771.2625
2472.64224	35799.3625
2475.39782	35778.6625
2478.15167	35722.3625
2480.90379	35736.8625
2483.65417	35802.4625
2486.40283	35747.5625
2489.14976	35734.4625
2491.89497	35727.9625
2494.63845	35724.2625
2497.3802	35716.0625
2500.12024	35724.6625
2502.85855	35707.7625
2505.59514	35682.6625
2508.33002	35604.1625
2511.06318	35570.2625
2513.79462	35546.9625
2516.52435	35586.3625
2519.25237	35525.9625
2521.97867	35487.0625
2524.70327	35518.4625
2527.42616	35427.8625
2530.14734	35435.9625
2532.86681	35358.3625
2535.58458	35362.7625
2538.30065	35352.0625
2541.01501	35345.6625
2543.72768	35330.5625
2546.43864	35268.6625
2549.14791	35204.9625
2551.85548	35196.5625
2554.56136	35086.4625
2557.26554	35017.6625
2559.96803	35010.9625
2562.66883	34973.0625
2565.36794	34954.5625
2568.06536	34934.1625
2570.7611	34821.8625
2573.45514	34757.7625
2576.14751	34715.0625
2578.83819	34698.8625
2581.52719	34711.2625
2584.21451	34601.1625
2586.90015	34603.1625
2589.58411	34556.2625
2592.2664	34544.6625
2594.94701	34526.4625
2597.62594	34508.6625
2600.30321	34510.1625
2602.9788	34493.8625
2605.65273	34426.5625
2608.32498	34405.7625
2610.99557	34408.6625
2613.66449	34436.2625
2616.33175	34359.2625
2618.99734	34268.2625
2621.66128	34235.5625
2624.32355	34202.1625
2626.98416	34188.1625
2629.64311	34139.0625
2632.30041	34082.6625
2634.95605	34026.4625
2637.61004	34042.3625
2640.26238	34034.9625
2642.91306	34002.2625
2645.56209	33965.3625
2648.20948	34003.2625
2650.85521	33999.0625
2653.4993	34021.3625
2656.14175	34001.4625
2658.78255	34016.4625
2661.42171	34061.0625
2664.05923	34109.4625
2666.6951	34066.1625
2669.32934	34112.4625
2671.96194	34072.2625
2674.59291	34133.6625
2677.22224	34113.6625
2679.84993	34120.4625
2682.476	34067.5625
2685.10043	34068.5625
2687.72324	34032.3625
2690.34441	34049.3625
2692.96396	34053.1625
2695.58188	34087.8625
2698.19818	34013.0625
2700.81285	34070.8625
2703.4259	34061.3625
2706.03733	34044.8625
2708.64714	34077.1625
2711.25533	34102.3625
2713.86191	34102.3625
2716.46687	34162.9625
2719.07021	34138.8625
2721.67194	34170.2625
2724.27206	34118.7625
2726.87057	34163.4625
2729.46747	34191.5625
2732.06276	34154.9625
2734.65644	34181.0625
2737.24852	34230.9625
2739.83899	34138.3625
2742.42786	34185.6625
2745.01513	34106.1625
2747.60079	34085.3625
2750.18486	34041.7625
2752.76733	34060.0625
2755.3482	34019.7625
2757.92747	34002.3625
2760.50515	33920.0625
2763.08123	33926.2625
2765.65573	33891.4625
2768.22863	33894.4625
2770.79994	33793.3625
2773.36967	33828.5625
2775.9378	33878.0625
2778.50435	33854.2625
2781.06932	33758.4625
2783.6327	33747.2625
2786.1945	33715.9625
2788.75471	33678.2625
2791.31335	33614.1625
2793.87041	33592.0625
2796.42589	33516.4625
2798.97979	33466.4625
2801.53212	33363.9625
2804.08288	33301.1625
2806.63206	33288.8625
2809.17967	33212.0625
2811.72571	33120.7625
2814.27018	33000.6625
2816.81308	32894.4625
2819.35442	32874.7625
2821.89419	32805.5625
2824.43239	32807.0625
2826.96904	32790.4625
2829.50412	32773.7625
2832.03763	32659.7625
2834.56959	32670.9625
2837.1	32612.5625
2839.62884	32604.7625
2842.15613	32554.6625
2844.68186	32569.5625
2847.20604	32540.7625
2849.72867	32506.6625
2852.24974	32443.6625
2854.76927	32371.9625
2857.28724	32378.8625
2859.80367	32362.9625
2862.31855	32317.7625
2864.83189	32293.9625
2867.34368	32211.7625
2869.85393	32191.0625
2872.36264	32153.2625
2874.8698	32104.2625
2877.37543	32067.9625
2879.87952	32070.0625
2882.38207	32070.0625
2884.88308	32076.7625
2887.38256	32086.2625
2889.88051	32056.6625
2892.37692	32092.5625
2894.8718	32097.2625
2897.36515	32058.9625
2899.85698	32106.1625
2902.34727	32095.4625
2904.83604	32132.0625
2907.32328	32180.9625
2909.809	32195.7625
2912.29319	32214.3625
2914.77587	32186.2625
2917.25702	32202.8625
2919.73665	32143.9625
2922.21476	32137.5625
2924.69136	32151.6625
2927.16644	32134.4625
2929.64	32096.2625
2932.11205	32063.0625
2934.58258	31978.2625
2937.05161	32017.0625
2939.51912	32040.2625
2941.98513	32023.8625
2944.44962	31966.1625
2946.91261	31886.0625
2949.37409	31943.0625
2951.83407	31917.9625
2954.29254	31922.5625
2956.74951	31837.2625
2959.20498	31854.2625
2961.65895	31824.0625
2964.11142	31801.5625
2966.56239	31826.5625
2969.01186	31804.7625
2971.45984	31675.7625
2973.90632	31648.6625
2976.35131	31600.3625
2978.7948	31583.3625
2981.23681	31572.4625
2983.67732	31487.6625
2986.11635	31452.6625
2988.55388	31378.3625
2990.98993	31361.9625
2993.4245	31271.7625
2995.85758	31179.4625
2998.28917	31069.3625
3000.71928	31006.3625
3003.14791	30953.8625
3005.57506	30917.6625
3008.00073	30865.5625
3010.42493	30787.7625
3012.84764	30730.7625
3015.26888	30699.4625
3017.68865	30631.0625
3020.10694	30584.1625
3022.52376	30523.9625
3024.9391	30512.7625
3027.35298	30466.3625
3029.76539	30474.0625
3032.17632	30409.9625
3034.5858	30381.9625
3036.9938	30360.0625
3039.40034	30348.6625
3041.80542	30314.1625
3044.20903	30282.6625
3046.61118	30243.6625
3049.01187	30136.4625
3051.4111	30082.0625
3053.80888	30013.7625
3056.20519	29982.1625
3058.60005	29853.1625
3060.99345	29851.8625
3063.3854	29777.0625
3065.7759	29719.6625
3068.16494	29650.2625
3070.55254	29506.8625
3072.93868	29461.1625
3075.32338	29320.5625
3077.70662	29295.6625
3080.08842	29221.2625
3082.46878	29200.3625
3084.84769	29086.5625
3087.22515	29105.5625
3089.60118	29110.3625
3091.97576	29017.9625
3094.3489	29052.2625
3096.72061	29010.2625
3099.09087	29041.9625
3101.4597	29017.9625
3103.82709	28982.1625
3106.19305	28986.2625
3108.55757	28985.9625
3110.92066	28931.1625
3113.28232	28892.3625
3115.64255	28804.9625
3118.00134	28710.0625
3120.35871	28602.6625
3122.71466	28522.5625
3125.06917	28460.6625
3127.42226	28423.2625
3129.77393	28428.4625
3132.12417	28385.3625
3134.47299	28355.5625
3136.82039	28284.1625
3139.16636	28329.4625
3141.51092	28269.7625
3143.85406	28277.2625
3146.19579	28247.1625
3148.53609	28267.3625
3150.87499	28266.3625
3153.21246	28232.0625
3155.54853	28291.6625
3157.88318	28258.0625
3160.21642	28245.9625
3162.54826	28155.9625
3164.87868	28154.2625
3167.2077	28156.7625
3169.5353	28113.5625
3171.86151	28058.2625
3174.18631	28100.0625
3176.5097	28088.7625
3178.83169	28016.7625
3181.15228	27977.5625
3183.47147	27875.7625
3185.78926	27882.9625
3188.10565	27856.4625
3190.42065	27807.1625
3192.73424	27719.3625
3195.04645	27707.2625
3197.35725	27698.1625
3199.66667	27629.7625
3201.97469	27639.5625
3204.28132	27571.9625
3206.58656	27576.1625
3208.8904	27623.8625
3211.19287	27613.1625
3213.49394	27615.3625
3215.79363	27584.7625
3218.09193	27613.8625
3220.38884	27597.7625
3222.68438	27642.1625
3224.97853	27535.0625
3227.2713	27550.4625
3229.56269	27485.9625
3231.8527	27494.3625
3234.14133	27449.5625
3236.42858	27359.0625
3238.71446	27286.1625
3240.99896	27251.6625
3243.28209	27263.4625
3245.56384	27177.1625
3247.84423	27179.6625
3250.12324	27124.8625
3252.40088	27122.2625
3254.67715	27117.9625
3256.95205	27043.0625
3259.22558	27061.1625
3261.49775	26991.8625
3263.76855	26912.8625
3266.03799	26874.4625
3268.30606	26851.5625
3270.57277	26804.1625
3272.83812	26762.1625
3275.10211	26652.9625
3277.36474	26647.7625
3279.62601	26656.4625
3281.88593	26601.1625
3284.14448	26623.2625
3286.40168	26616.7625
3288.65753	26547.1625
3290.91202	26514.9625
3293.16516	26513.0625
3295.41695	26465.5625
3297.66738	26253.1625
3299.91647	26101.4625
3302.16421	25931.6625
3304.4106	25852.6625
3306.65564	25700.5625
3308.89933	25483.4625
3311.14169	25324.9625
3313.38269	25117.7625
3315.62236	24965.7625
3317.86068	24706.6625
3320.09766	24524.8625
3322.3333	24381.3625
3324.5676	24263.8625
3326.80056	23893.3625
3329.03219	23759.8625
3331.26248	6.0625
3333.49143	0.7625
3335.71905	-0.6375
