Data from AgNPs_FTO_APTES_UA_20uM_CRN_200uM_R6G_10uM_NaF_0.1M_Addition_RamanShift__12__18-06-24-920.txt Node

Date: Thu Feb 17 18:06:24 GMT 2022
User: TCL
Spectrometer: QEP01345
Trigger mode: 4
Integration Time (sec): 1.000000E1
Scans to average: 7
Electric dark correction enabled: true
Nonlinearity correction enabled: false
Boxcar width: 0
XAxis mode: Raman Shifts
Number of Pixels in Spectrum: 1044
>>>>>Begin Spectral Data<<<<<
46.04893	1.33929
50.45542	-2.375
54.85868	0.05357
59.25871	-1.66071
63.6555	70.91071
68.04907	72.91071
72.43941	76.625
76.82654	78.76786
81.21044	82.19643
85.59113	82.48214
89.96862	90.76786
94.34289	85.33929
98.71396	95.19643
103.08183	97.33929
107.4465	99.33929
111.80798	103.625
116.16626	100.48214
120.52136	103.19643
124.87327	103.76786
129.222	110.91071
133.56755	113.05357
137.90993	130.05357
142.24913	138.76786
146.58517	146.625
150.91804	172.19643
155.24774	201.48214
159.57429	245.76786
163.89768	308.625
168.21792	403.19643
172.53501	545.33929
176.84895	773.48214
181.15975	1080.76786
185.46741	1530.05357
189.77193	2121.625
194.07331	2854.76786
198.37157	3702.625
202.6667	4597.33929
206.9587	5509.91071
211.24758	6377.625
215.53334	7270.76786
219.81599	8136.05357
224.09553	9079.48214
228.37195	10119.91071
232.64527	11316.05357
236.91549	12570.19643
241.18261	13902.33929
245.44663	15181.19643
249.70755	16418.19643
253.96539	17475.33929
258.22014	18373.33929
262.4718	19084.19643
266.72039	19510.48214
270.96589	19735.625
275.20832	19769.625
279.44768	19615.91071
283.68397	19365.91071
287.91719	19140.19643
292.14735	18924.91071
296.37445	18754.76786
300.59849	18645.48214
304.81948	18658.91071
309.03742	18626.76786
313.25231	18574.19643
317.46415	18454.05357
321.67296	18363.05357
325.87872	18229.48214
330.08145	18212.48214
334.28114	18288.48214
338.47781	18459.33929
342.67145	18686.19643
346.86207	18913.91071
351.04966	19228.33929
355.23424	19523.48214
359.4158	19758.91071
363.59435	19996.05357
367.76989	20187.05357
371.94243	20393.48214
376.11196	20575.33929
380.27849	20712.19643
384.44203	20850.48214
388.60257	20996.625
392.76012	21225.91071
396.91468	21385.48214
401.06626	21650.625
405.21485	21811.76786
409.36047	21868.48214
413.50311	21805.33929
417.64277	21784.91071
421.77947	21730.625
425.9132	21820.19643
430.04396	21939.33929
434.17176	22083.19643
438.2966	22240.48214
442.41849	22518.625
446.53742	22741.19643
450.6534	23028.625
454.76644	23262.33929
458.87653	23405.05357
462.98368	23430.19643
467.08789	23464.05357
471.18916	23453.33929
475.2875	23287.05357
479.38291	23216.48214
483.4754	23095.05357
487.56496	23059.33929
491.6516	23075.625
495.73531	23090.76786
499.81612	23060.19643
503.89401	23194.91071
507.96899	23289.19643
512.04106	23347.05357
516.11023	23415.625
520.1765	23426.19643
524.23987	23447.05357
528.30034	23442.33929
532.35792	23436.05357
536.41261	23436.48214
540.46441	23361.76786
544.51333	23349.48214
548.55936	23424.19643
552.60252	23605.76786
556.64279	23753.76786
560.6802	23846.33929
564.71473	23946.33929
568.7464	23981.625
572.7752	24074.76786
576.80114	24216.33929
580.82422	24382.05357
584.84444	24592.91071
588.86181	24848.05357
592.87633	25073.33929
596.888	25257.76786
600.89682	25449.33929
604.9028	25725.625
608.90594	26753.19643
612.90624	27871.33929
616.90371	27340.05357
620.89834	25447.91071
624.89015	24475.19643
628.87913	24380.625
632.86528	24551.33929
636.84862	24609.91071
640.82913	24583.19643
644.80683	24431.48214
648.78172	24292.625
652.75379	24358.05357
656.72306	24494.91071
660.68952	24690.625
664.65319	24714.625
668.61405	24695.33929
672.57211	24681.19643
676.52738	24843.33929
680.47986	24871.625
684.42955	24944.625
688.37646	24923.05357
692.32058	24959.33929
696.26192	25077.91071
700.20048	25206.48214
704.13626	25249.625
708.06928	25299.625
711.99952	25227.76786
715.927	25166.91071
719.85171	25129.33929
723.77365	25151.05357
727.69284	25130.33929
731.60928	25072.33929
735.52295	25040.19643
739.43388	24984.33929
743.34206	25093.48214
747.24749	25114.91071
751.15017	25160.76786
755.05012	25304.19643
758.94733	25460.19643
762.8418	25929.19643
766.73354	26628.33929
770.62254	27392.91071
774.50882	27734.33929
778.39237	27460.05357
782.27321	26765.625
786.15132	26064.19643
790.02671	25605.76786
793.89938	25313.76786
797.76935	25212.05357
801.6366	25154.76786
805.50115	25093.05357
809.36299	25061.05357
813.22213	25027.05357
817.07857	24989.05357
820.93231	25030.33929
824.78336	25070.33929
828.63172	25062.48214
832.47738	25096.76786
836.32036	25077.625
840.16066	25117.76786
843.99827	25131.05357
847.8332	25253.625
851.66546	25225.33929
855.49504	25271.05357
859.32195	25298.48214
863.1462	25341.19643
866.96777	25380.91071
870.78668	25407.33929
874.60293	25427.76786
878.41652	25481.625
882.22745	25514.91071
886.03573	25581.48214
889.84136	25586.33929
893.64433	25510.19643
897.44466	25484.48214
901.24235	25504.76786
905.0374	25444.76786
908.8298	25464.625
912.61957	25415.76786
916.40671	25495.91071
920.19121	25474.76786
923.97308	25537.625
927.75233	25592.48214
931.52895	25522.91071
935.30295	25452.05357
939.07433	25330.48214
942.84309	25267.76786
946.60924	25185.91071
950.37278	25122.33929
954.13371	25057.76786
957.89203	25077.48214
961.64774	25046.19643
965.40086	25049.76786
969.15137	24977.91071
972.89929	24989.19643
976.64461	24971.91071
980.38733	25011.76786
984.12747	25024.48214
987.86502	25073.76786
991.59999	25150.19643
995.33237	25201.91071
999.06217	25320.625
1002.78939	25446.05357
1006.51404	25580.76786
1010.23611	25815.76786
1013.95561	25927.625
1017.67255	25961.48214
1021.38692	25953.33929
1025.09872	25885.625
1028.80796	25712.48214
1032.51465	25690.76786
1036.21877	25642.05357
1039.92035	25647.19643
1043.61937	25748.05357
1047.31584	25818.48214
1051.00976	25839.91071
1054.70114	25879.48214
1058.38998	25955.33929
1062.07627	26046.48214
1065.76003	26131.33929
1069.44126	26262.76786
1073.11995	26397.48214
1076.79611	26611.33929
1080.46974	26700.19643
1084.14085	26786.33929
1087.80943	26771.33929
1091.47549	26848.625
1095.13903	26846.33929
1098.80005	26775.76786
1102.45857	26667.33929
1106.11456	26641.33929
1109.76805	26498.05357
1113.41903	26416.48214
1117.06751	26454.33929
1120.71348	26507.625
1124.35696	26596.625
1127.99793	26774.19643
1131.63641	26813.625
1135.2724	26810.76786
1138.90589	26697.76786
1142.5369	26662.05357
1146.16542	26538.48214
1149.79145	26534.05357
1153.415	26496.33929
1157.03607	26581.33929
1160.65467	26637.05357
1164.27079	26867.76786
1167.88443	27212.76786
1171.49561	27770.05357
1175.10432	28307.05357
1178.71056	29084.91071
1182.31434	29917.91071
1185.91565	30396.76786
1189.51451	30641.48214
1193.11091	30569.625
1196.70485	30336.19643
1200.29634	29988.33929
1203.88538	29518.76786
1207.47197	29033.625
1211.05612	28578.33929
1214.63782	28248.48214
1218.21708	27996.625
1221.79391	27835.19643
1225.36829	27736.33929
1228.94024	27684.76786
1232.50976	27671.48214
1236.07685	27658.48214
1239.6415	27689.76786
1243.20374	27714.76786
1246.76355	27750.19643
1250.32093	27813.76786
1253.8759	28000.91071
1257.42845	28226.33929
1260.97859	28528.05357
1264.52631	28787.05357
1268.07163	29003.05357
1271.61453	29187.76786
1275.15503	29370.48214
1278.69312	29515.48214
1282.22882	29613.48214
1285.76211	29755.05357
1289.29301	30028.48214
1292.82151	30259.91071
1296.34761	30617.05357
1299.87133	31067.33929
1303.39266	31548.05357
1306.9116	32157.19643
1310.42815	32813.19643
1313.94233	33193.19643
1317.45412	33145.19643
1320.96354	32801.48214
1324.47058	32469.625
1327.97525	32176.19643
1331.47754	32051.48214
1334.97747	32018.05357
1338.47502	32131.625
1341.97022	32528.91071
1345.46305	32948.05357
1348.95352	33512.48214
1352.44163	33961.48214
1355.92738	34254.625
1359.41078	34681.05357
1362.89183	34994.48214
1366.37053	34550.91071
1369.84688	33109.625
1373.32088	31513.19643
1376.79254	30230.05357
1380.26186	29554.76786
1383.72883	29090.91071
1387.19347	28796.625
1390.65578	28485.05357
1394.11575	28131.91071
1397.57339	27963.05357
1401.0287	27861.19643
1404.48168	27914.05357
1407.93234	27904.48214
1411.38068	27934.05357
1414.82669	27873.76786
1418.27039	27722.05357
1421.71177	27524.05357
1425.15083	27350.05357
1428.58758	27142.91071
1432.02203	27119.625
1435.45416	27125.48214
1438.88399	27259.48214
1442.31151	27323.48214
1445.73673	27388.19643
1449.15965	27446.19643
1452.58027	27449.48214
1455.9986	27469.625
1459.41463	27553.19643
1462.82837	27701.76786
1466.23982	27962.05357
1469.64898	28304.76786
1473.05586	28553.33929
1476.46045	28815.33929
1479.86276	28901.625
1483.26279	29073.05357
1486.66054	29189.76786
1490.05602	29346.76786
1493.44922	29615.05357
1496.84016	30043.625
1500.22882	30666.625
1503.61521	31424.05357
1506.99934	32100.48214
1510.38121	32531.48214
1513.76081	32412.76786
1517.13816	31794.19643
1520.51324	30920.05357
1523.88607	30233.33929
1527.25665	29796.19643
1530.62498	29563.625
1533.99105	29369.48214
1537.35488	29299.48214
1540.71647	29229.91071
1544.07581	29041.625
1547.4329	28956.48214
1550.78776	28778.33929
1554.14038	28633.48214
1557.49077	28567.91071
1560.83892	28590.05357
1564.18484	28643.76786
1567.52853	28745.76786
1570.86999	28825.76786
1574.20922	28930.33929
1577.54624	28991.625
1580.88103	28743.76786
1584.2136	28448.91071
1587.54395	28344.33929
1590.87208	28486.76786
1594.19801	28864.33929
1597.52172	29473.76786
1600.84321	29851.91071
1604.16251	29723.33929
1607.47959	29343.48214
1610.79447	28799.625
1614.10715	28112.48214
1617.41763	27388.625
1620.7259	26814.91071
1624.03199	26409.19643
1627.33587	26197.625
1630.63757	26260.48214
1633.93707	26472.76786
1637.23439	27030.48214
1640.52951	27897.625
1643.82246	28991.76786
1647.11321	30031.625
1650.40179	30549.625
1653.68819	30152.76786
1656.97241	28995.48214
1660.25446	27538.91071
1663.53433	26415.19643
1666.81203	25629.19643
1670.08756	25142.625
1673.36092	24786.33929
1676.63211	24514.625
1679.90115	24330.625
1683.16801	24212.76786
1686.43272	24078.33929
1689.69527	23992.05357
1692.95567	23947.76786
1696.2139	23891.48214
1699.46999	23890.05357
1702.72392	23842.33929
1705.97571	23852.91071
1709.22535	23841.76786
1712.47284	23820.625
1715.71819	23802.48214
1718.96139	23771.19643
1722.20246	23752.625
1725.44139	23702.625
1728.67818	23669.19643
1731.91284	23559.76786
1735.14537	23503.91071
1738.37576	23501.48214
1741.60403	23435.76786
1744.83017	23372.05357
1748.05418	23303.19643
1751.27607	23281.48214
1754.49584	23239.19643
1757.71349	23231.76786
1760.92903	23238.625
1764.14244	23241.19643
1767.35375	23291.625
1770.56294	23204.05357
1773.77002	23138.625
1776.97499	23118.625
1780.17785	23097.33929
1783.37861	23092.91071
1786.57727	22978.33929
1789.77382	22967.05357
1792.96828	22927.19643
1796.16064	22893.625
1799.3509	22809.19643
1802.53907	22756.19643
1805.72514	22741.91071
1808.90913	22720.48214
1812.09102	22713.48214
1815.27083	22628.48214
1818.44856	22624.76786
1821.6242	22635.48214
1824.79776	22613.625
1827.96924	22588.19643
1831.13864	22558.625
1834.30597	22490.91071
1837.47122	22530.48214
1840.6344	22484.33929
1843.7955	22494.76786
1846.95454	22468.48214
1850.11151	22475.48214
1853.26642	22445.05357
1856.41926	22409.625
1859.57004	22434.76786
1862.71876	22338.91071
1865.86542	22378.76786
1869.01003	22379.91071
1872.15258	22314.19643
1875.29308	22299.91071
1878.43152	22278.76786
1881.56792	22247.76786
1884.70227	22201.48214
1887.83457	22216.48214
1890.96482	22182.48214
1894.09304	22082.33929
1897.21921	22106.05357
1900.34335	22085.05357
1903.46544	22000.48214
1906.58551	22005.48214
1909.70353	21969.19643
1912.81953	21907.19643
1915.93349	21900.05357
1919.04543	21869.05357
1922.15534	21874.91071
1925.26322	21804.91071
1928.36908	21793.91071
1931.47292	21797.76786
1934.57473	21751.05357
1937.67453	21686.625
1940.77232	21624.05357
1943.86808	21547.33929
1946.96184	21477.625
1950.05358	21427.48214
1953.14331	21385.05357
1956.23103	21353.76786
1959.31675	21282.625
1962.40046	21170.625
1965.48217	21153.05357
1968.56188	21119.76786
1971.63959	21037.91071
1974.7153	20979.05357
1977.78901	20897.33929
1980.86073	20811.33929
1983.93046	20797.19643
1986.99819	20701.625
1990.06394	20704.91071
1993.1277	20652.33929
1996.18947	20575.33929
1999.24925	20496.33929
2002.30706	20427.19643
2005.36288	20305.91071
2008.41672	20321.625
2011.46859	20240.625
2014.51848	20179.48214
2017.56639	20166.33929
2020.61233	20087.91071
2023.6563	20024.76786
2026.6983	19965.48214
2029.73833	19960.05357
2032.7764	19920.76786
2035.8125	19843.05357
2038.84664	19815.48214
2041.87881	19762.19643
2044.90903	19715.05357
2047.93729	19650.05357
2050.96359	19693.91071
2053.98794	19640.05357
2057.01034	19607.48214
2060.03078	19600.91071
2063.04927	19585.625
2066.06582	19587.05357
2069.08042	19561.05357
2072.09307	19590.76786
2075.10378	19533.33929
2078.11255	19521.05357
2081.11938	19516.76786
2084.12426	19535.33929
2087.12722	19500.05357
2090.12824	19512.625
2093.12732	19535.48214
2096.12447	19502.33929
2099.11969	19523.48214
2102.11299	19484.91071
2105.10435	19491.48214
2108.09379	19464.05357
2111.08131	19538.91071
2114.0669	19559.76786
2117.05057	19544.91071
2120.03233	19601.625
2123.01216	19619.48214
2125.99008	19604.19643
2128.96609	19623.91071
2131.94018	19690.19643
2134.91236	19662.48214
2137.88263	19641.91071
2140.851	19664.33929
2143.81746	19696.19643
2146.78201	19686.05357
2149.74466	19675.05357
2152.7054	19708.91071
2155.66425	19645.76786
2158.6212	19645.48214
2161.57625	19665.91071
2164.52941	19654.625
2167.48067	19660.76786
2170.43004	19619.91071
2173.37752	19632.625
2176.32311	19625.76786
2179.26681	19575.33929
2182.20863	19586.05357
2185.14856	19625.91071
2188.08661	19614.05357
2191.02278	19590.625
2193.95707	19622.48214
2196.88948	19580.625
2199.82001	19550.33929
2202.74867	19537.625
2205.67545	19504.48214
2208.60037	19471.05357
2211.52341	19423.91071
2214.44458	19404.05357
2217.36388	19370.76786
2220.28132	19371.91071
2223.1969	19267.48214
2226.11061	19218.76786
2229.02246	19212.19643
2231.93245	19169.05357
2234.84058	19099.33929
2237.74686	19110.91071
2240.65128	19117.76786
2243.55385	19091.76786
2246.45456	19087.91071
2249.35343	19031.19643
2252.25044	19008.33929
2255.14561	18993.05357
2258.03893	18946.05357
2260.93041	18945.91071
2263.82004	18859.625
2266.70783	18845.33929
2269.59378	18740.625
2272.4779	18758.48214
2275.36017	18698.33929
2278.24061	18668.19643
2281.11922	18646.33929
2283.996	18646.48214
2286.87094	18610.48214
2289.74405	18531.33929
2292.61534	18510.48214
2295.4848	18510.19643
2298.35243	18494.625
2301.21824	18476.33929
2304.08223	18479.05357
2306.94439	18400.76786
2309.80474	18386.625
2312.66327	18372.19643
2315.51999	18382.625
2318.37489	18332.76786
2321.22797	18297.91071
2324.07925	18258.76786
2326.92871	18221.05357
2329.77637	18169.33929
2332.62222	18148.19643
2335.46626	18116.48214
2338.3085	18121.91071
2341.14893	18080.05357
2343.98756	18093.76786
2346.8244	18029.05357
2349.65943	18028.19643
2352.49267	18036.48214
2355.32411	17900.33929
2358.15376	17979.91071
2360.98161	17989.33929
2363.80768	17966.33929
2366.63195	17963.625
2369.45444	17923.33929
2372.27514	17898.48214
2375.09405	17838.76786
2377.91118	17814.19643
2380.72652	17805.91071
2383.54009	17735.33929
2386.35187	17735.05357
2389.16188	17631.05357
2391.97011	17658.33929
2394.77657	17616.91071
2397.58125	17576.33929
2400.38416	17531.91071
2403.18529	17548.625
2405.98466	17501.05357
2408.78226	17495.33929
2411.57809	17459.91071
2414.37216	17429.76786
2417.16446	17408.33929
2419.955	17427.48214
2422.74378	17366.625
2425.5308	17349.33929
2428.31606	17309.19643
2431.09956	17337.19643
2433.88131	17269.05357
2436.6613	17262.33929
2439.43954	17255.76786
2442.21603	17244.91071
2444.99077	17237.91071
2447.76377	17222.76786
2450.53501	17176.48214
2453.30451	17194.48214
2456.07226	17127.91071
2458.83827	17125.19643
2461.60254	17072.19643
2464.36507	17077.05357
2467.12586	17033.48214
2469.88492	17026.33929
2472.64224	17015.05357
2475.39782	16969.625
2478.15167	16978.33929
2480.90379	16957.76786
2483.65417	16965.76786
2486.40283	16946.19643
2489.14976	16957.05357
2491.89497	16952.19643
2494.63845	16936.76786
2497.3802	16944.625
2500.12024	16923.625
2502.85855	16885.05357
2505.59514	16853.33929
2508.33002	16806.33929
2511.06318	16785.48214
2513.79462	16766.625
2516.52435	16730.48214
2519.25237	16720.76786
2521.97867	16721.76786
2524.70327	16717.91071
2527.42616	16645.625
2530.14734	16636.91071
2532.86681	16609.33929
2535.58458	16573.76786
2538.30065	16588.19643
2541.01501	16555.76786
2543.72768	16522.91071
2546.43864	16491.19643
2549.14791	16441.33929
2551.85548	16418.625
2554.56136	16392.625
2557.26554	16384.48214
2559.96803	16334.33929
2562.66883	16318.19643
2565.36794	16242.76786
2568.06536	16229.91071
2570.7611	16203.48214
2573.45514	16164.625
2576.14751	16122.48214
2578.83819	16087.05357
2581.52719	16053.48214
2584.21451	16040.48214
2586.90015	16016.05357
2589.58411	16013.48214
2592.2664	15958.48214
2594.94701	15933.76786
2597.62594	15887.625
2600.30321	15869.05357
2602.9788	15846.625
2605.65273	15791.625
2608.32498	15783.19643
2610.99557	15807.05357
2613.66449	15755.76786
2616.33175	15714.48214
2618.99734	15742.19643
2621.66128	15671.625
2624.32355	15646.76786
2626.98416	15623.48214
2629.64311	15605.05357
2632.30041	15551.33929
2634.95605	15529.48214
2637.61004	15510.05357
2640.26238	15460.33929
2642.91306	15509.33929
2645.56209	15458.48214
2648.20948	15461.625
2650.85521	15439.33929
2653.4993	15439.33929
2656.14175	15452.19643
2658.78255	15425.91071
2661.42171	15408.05357
2664.05923	15431.76786
2666.6951	15430.48214
2669.32934	15408.19643
2671.96194	15387.19643
2674.59291	15430.33929
2677.22224	15370.48214
2679.84993	15423.48214
2682.476	15360.76786
2685.10043	15361.76786
2687.72324	15337.05357
2690.34441	15334.05357
2692.96396	15331.76786
2695.58188	15351.91071
2698.19818	15324.625
2700.81285	15374.05357
2703.4259	15350.33929
2706.03733	15330.33929
2708.64714	15367.48214
2711.25533	15327.19643
2713.86191	15325.48214
2716.46687	15366.19643
2719.07021	15328.76786
2721.67194	15313.48214
2724.27206	15270.76786
2726.87057	15313.625
2729.46747	15292.33929
2732.06276	15302.33929
2734.65644	15256.19643
2737.24852	15281.625
2739.83899	15216.76786
2742.42786	15244.91071
2745.01513	15201.48214
2747.60079	15133.91071
2750.18486	15134.33929
2752.76733	15120.48214
2755.3482	15157.19643
2757.92747	15133.05357
2760.50515	15112.91071
2763.08123	15078.33929
2765.65573	15035.91071
2768.22863	14997.05357
2770.79994	14983.33929
2773.36967	14955.48214
2775.9378	14958.33929
2778.50435	14936.91071
2781.06932	14903.19643
2783.6327	14860.19643
2786.1945	14875.33929
2788.75471	14812.48214
2791.31335	14771.625
2793.87041	14749.76786
2796.42589	14714.19643
2798.97979	14719.625
2801.53212	14658.91071
2804.08288	14646.05357
2806.63206	14625.76786
2809.17967	14579.33929
2811.72571	14545.05357
2814.27018	14481.48214
2816.81308	14479.48214
2819.35442	14450.625
2821.89419	14372.05357
2824.43239	14389.625
2826.96904	14379.48214
2829.50412	14323.91071
2832.03763	14306.48214
2834.56959	14347.48214
2837.1	14284.05357
2839.62884	14274.48214
2842.15613	14222.76786
2844.68186	14226.48214
2847.20604	14227.91071
2849.72867	14204.76786
2852.24974	14202.33929
2854.76927	14181.48214
2857.28724	14178.48214
2859.80367	14125.625
2862.31855	14123.05357
2864.83189	14061.48214
2867.34368	14039.625
2869.85393	14049.625
2872.36264	14030.625
2874.8698	13985.33929
2877.37543	13986.625
2879.87952	13977.05357
2882.38207	13961.05357
2884.88308	13952.48214
2887.38256	13939.91071
2889.88051	13947.05357
2892.37692	13940.76786
2894.8718	13956.76786
2897.36515	13950.33929
2899.85698	13939.05357
2902.34727	13966.625
2904.83604	13883.91071
2907.32328	13936.48214
2909.809	13955.625
2912.29319	13938.19643
2914.77587	13941.91071
2917.25702	13949.76786
2919.73665	13920.76786
2922.21476	13919.48214
2924.69136	13916.05357
2927.16644	13945.76786
2929.64	13909.91071
2932.11205	13882.91071
2934.58258	13827.91071
2937.05161	13871.91071
2939.51912	13863.76786
2941.98513	13851.48214
2944.44962	13824.76786
2946.91261	13824.19643
2949.37409	13822.76786
2951.83407	13804.625
2954.29254	13812.33929
2956.74951	13763.33929
2959.20498	13779.91071
2961.65895	13752.19643
2964.11142	13789.05357
2966.56239	13730.19643
2969.01186	13723.48214
2971.45984	13678.05357
2973.90632	13699.625
2976.35131	13685.91071
2978.7948	13633.48214
2981.23681	13602.48214
2983.67732	13567.91071
2986.11635	13524.48214
2988.55388	13497.48214
2990.98993	13460.33929
2993.4245	13476.625
2995.85758	13455.19643
2998.28917	13462.05357
3000.71928	13400.91071
3003.14791	13375.91071
3005.57506	13372.05357
3008.00073	13332.05357
3010.42493	13304.48214
3012.84764	13297.48214
3015.26888	13302.19643
3017.68865	13232.48214
3020.10694	13220.05357
3022.52376	13203.05357
3024.9391	13187.19643
3027.35298	13140.76786
3029.76539	13171.625
3032.17632	13175.19643
3034.5858	13104.33929
3036.9938	13112.33929
3039.40034	13110.48214
3041.80542	13081.19643
3044.20903	13072.76786
3046.61118	13068.48214
3049.01187	13029.76786
3051.4111	13017.48214
3053.80888	12985.76786
3056.20519	12964.76786
3058.60005	12971.33929
3060.99345	12928.19643
3063.3854	12902.33929
3065.7759	12869.33929
3068.16494	12827.91071
3070.55254	12836.625
3072.93868	12762.33929
3075.32338	12741.48214
3077.70662	12722.76786
3080.08842	12691.91071
3082.46878	12677.76786
3084.84769	12655.91071
3087.22515	12685.19643
3089.60118	12671.33929
3091.97576	12654.05357
3094.3489	12671.91071
3096.72061	12680.76786
3099.09087	12662.48214
3101.4597	12645.05357
3103.82709	12635.91071
3106.19305	12642.48214
3108.55757	12623.625
3110.92066	12635.76786
3113.28232	12597.19643
3115.64255	12555.48214
3118.00134	12528.19643
3120.35871	12524.33929
3122.71466	12497.05357
3125.06917	12473.76786
3127.42226	12427.33929
3129.77393	12464.33929
3132.12417	12430.91071
3134.47299	12439.91071
3136.82039	12424.91071
3139.16636	12381.625
3141.51092	12401.91071
3143.85406	12400.19643
3146.19579	12387.33929
3148.53609	12401.48214
3150.87499	12393.05357
3153.21246	12432.76786
3155.54853	12439.05357
3157.88318	12413.91071
3160.21642	12458.33929
3162.54826	12471.19643
3164.87868	12438.76786
3167.2077	12435.76786
3169.5353	12419.19643
3171.86151	12435.19643
3174.18631	12440.91071
3176.5097	12423.48214
3178.83169	12389.05357
3181.15228	12384.91071
3183.47147	12365.19643
3185.78926	12358.625
3188.10565	12327.48214
3190.42065	12306.19643
3192.73424	12316.91071
3195.04645	12290.76786
3197.35725	12291.76786
3199.66667	12245.05357
3201.97469	12294.48214
3204.28132	12238.33929
3206.58656	12307.625
3208.8904	12322.05357
3211.19287	12300.33929
3213.49394	12306.91071
3215.79363	12322.76786
3218.09193	12308.625
3220.38884	12310.76786
3222.68438	12326.91071
3224.97853	12302.625
3227.2713	12296.33929
3229.56269	12281.91071
3231.8527	12247.76786
3234.14133	12226.05357
3236.42858	12194.19643
3238.71446	12168.19643
3240.99896	12154.33929
3243.28209	12122.33929
3245.56384	12107.33929
3247.84423	12098.33929
3250.12324	12113.05357
3252.40088	12082.19643
3254.67715	12110.76786
3256.95205	12060.625
3259.22558	12068.05357
3261.49775	12051.05357
3263.76855	11999.48214
3266.03799	12001.91071
3268.30606	12012.05357
3270.57277	12010.48214
3272.83812	11974.05357
3275.10211	11906.19643
3277.36474	11913.19643
3279.62601	11909.48214
3281.88593	11877.05357
3284.14448	11876.625
3286.40168	11847.05357
3288.65753	11827.33929
3290.91202	11817.48214
3293.16516	11806.625
3295.41695	11761.33929
3297.66738	11696.91071
3299.91647	11632.91071
3302.16421	11594.19643
3304.4106	11505.91071
3306.65564	11465.625
3308.89933	11421.05357
3311.14169	11321.05357
3313.38269	11202.33929
3315.62236	11114.625
3317.86068	11054.05357
3320.09766	10950.19643
3322.3333	10921.76786
3324.5676	10831.19643
3326.80056	10714.625
3329.03219	10621.76786
3331.26248	2.76786
3333.49143	-1.08929
3335.71905	0.76786
