Data from AgNPs_FTO_APTES_UA_20uM_CRN_1000uM_R6G_10uM_NaF_0.1M_Addition_RamanShift__15__19-29-15-025.txt Node

Date: Thu Feb 17 19:29:15 GMT 2022
User: TCL
Spectrometer: QEP01345
Trigger mode: 4
Integration Time (sec): 1.000000E1
Scans to average: 7
Electric dark correction enabled: true
Nonlinearity correction enabled: false
Boxcar width: 0
XAxis mode: Raman Shifts
Number of Pixels in Spectrum: 1044
>>>>>Begin Spectral Data<<<<<
46.04893	0.16071
50.45542	-0.26786
54.85868	0.58929
59.25871	-1.55357
63.6555	60.01786
68.04907	57.73214
72.43941	63.44643
76.82654	64.875
81.21044	70.44643
85.59113	71.44643
89.96862	77.73214
94.34289	76.16071
98.71396	81.44643
103.08183	81.58929
107.4465	84.30357
111.80798	88.875
116.16626	85.30357
120.52136	86.875
124.87327	96.875
129.222	98.30357
133.56755	100.16071
137.90993	108.58929
142.24913	117.44643
146.58517	127.73214
150.91804	147.16071
155.24774	168.30357
159.57429	208.44643
163.89768	268.875
168.21792	356.58929
172.53501	480.01786
176.84895	676.16071
181.15975	950.875
185.46741	1345.875
189.77193	1879.875
194.07331	2535.30357
198.37157	3301.73214
202.6667	4084.16071
206.9587	4905.58929
211.24758	5713.16071
215.53334	6484.30357
219.81599	7307.44643
224.09553	8193.73214
228.37195	9124.16071
232.64527	10187.44643
236.91549	11296.16071
241.18261	12436.44643
245.44663	13500.875
249.70755	14524.73214
253.96539	15381.44643
258.22014	16087.73214
262.4718	16632.30357
266.72039	17051.875
270.96589	17199.16071
275.20832	17217.73214
279.44768	17007.44643
283.68397	16810.01786
287.91719	16601.16071
292.14735	16414.01786
296.37445	16278.01786
300.59849	16217.875
304.81948	16255.875
309.03742	16261.73214
313.25231	16219.01786
317.46415	16039.16071
321.67296	15837.73214
325.87872	15664.875
330.08145	15634.44643
334.28114	15749.44643
338.47781	15903.875
342.67145	16079.44643
346.86207	16344.16071
351.04966	16663.16071
355.23424	16947.875
359.4158	17245.44643
363.59435	17488.44643
367.76989	17724.73214
371.94243	17872.875
376.11196	17987.16071
380.27849	18195.01786
384.44203	18234.01786
388.60257	18350.16071
392.76012	18441.30357
396.91468	18576.30357
401.06626	18745.73214
405.21485	18909.44643
409.36047	18890.58929
413.50311	18750.16071
417.64277	18581.44643
421.77947	18494.16071
425.9132	18471.01786
430.04396	18591.875
434.17176	18663.875
438.2966	18799.875
442.41849	19008.01786
446.53742	19218.30357
450.6534	19464.01786
454.76644	19659.01786
458.87653	19746.16071
462.98368	19849.73214
467.08789	19877.58929
471.18916	19833.16071
475.2875	19716.16071
479.38291	19661.30357
483.4754	19615.58929
487.56496	19546.58929
491.6516	19539.58929
495.73531	19519.73214
499.81612	19557.30357
503.89401	19621.875
507.96899	19730.58929
512.04106	19776.16071
516.11023	19837.58929
520.1765	19871.16071
524.23987	19920.30357
528.30034	19894.30357
532.35792	19869.73214
536.41261	19860.875
540.46441	19800.58929
544.51333	19791.58929
548.55936	19827.58929
552.60252	19962.73214
556.64279	20064.30357
560.6802	20194.30357
564.71473	20207.16071
568.7464	20253.30357
572.7752	20265.875
576.80114	20246.875
580.82422	20205.30357
584.84444	20241.30357
588.86181	20278.875
592.87633	20354.01786
596.888	20453.73214
600.89682	20736.01786
604.9028	21314.875
608.90594	22724.73214
612.90624	24445.01786
616.90371	24027.01786
620.89834	21806.73214
624.89015	20688.01786
628.87913	20477.44643
632.86528	20577.30357
636.84862	20717.73214
640.82913	20719.58929
644.80683	20581.58929
648.78172	20388.01786
652.75379	20430.01786
656.72306	20586.30357
660.68952	20832.73214
664.65319	20860.01786
668.61405	20776.875
672.57211	20836.30357
676.52738	21043.58929
680.47986	21162.875
684.42955	21087.16071
688.37646	20981.875
692.32058	20941.16071
696.26192	20942.875
700.20048	21021.16071
704.13626	21089.73214
708.06928	21002.875
711.99952	20914.875
715.927	20842.73214
719.85171	20848.73214
723.77365	20887.16071
727.69284	20857.30357
731.60928	20805.01786
735.52295	20799.44643
739.43388	20746.30357
743.34206	20769.44643
747.24749	20780.01786
751.15017	20791.01786
755.05012	20791.16071
758.94733	20998.16071
762.8418	21380.30357
766.73354	22156.44643
770.62254	22964.16071
774.50882	23454.875
778.39237	23297.01786
782.27321	22484.73214
786.15132	21678.16071
790.02671	21110.58929
793.89938	20797.73214
797.76935	20647.44643
801.6366	20581.73214
805.50115	20603.58929
809.36299	20571.58929
813.22213	20514.73214
817.07857	20492.73214
820.93231	20513.73214
824.78336	20491.73214
828.63172	20501.58929
832.47738	20489.44643
836.32036	20485.875
840.16066	20498.30357
843.99827	20516.73214
847.8332	20547.58929
851.66546	20576.44643
855.49504	20597.16071
859.32195	20585.44643
863.1462	20628.01786
866.96777	20691.44643
870.78668	20707.16071
874.60293	20773.875
878.41652	20746.16071
882.22745	20724.16071
886.03573	20799.73214
889.84136	20787.875
893.64433	20750.875
897.44466	20682.44643
901.24235	20668.30357
905.0374	20565.58929
908.8298	20552.30357
912.61957	20506.01786
916.40671	20456.44643
920.19121	20504.01786
923.97308	20522.44643
927.75233	20541.73214
931.52895	20559.44643
935.30295	20539.875
939.07433	20484.875
942.84309	20374.73214
946.60924	20298.73214
950.37278	20173.30357
954.13371	20177.73214
957.89203	20121.58929
961.64774	20122.16071
965.40086	20080.30357
969.15137	20057.44643
972.89929	20029.30357
976.64461	20037.875
980.38733	20035.875
984.12747	20013.16071
987.86502	20088.58929
991.59999	20169.58929
995.33237	20211.30357
999.06217	20241.73214
1002.78939	20321.01786
1006.51404	20451.01786
1010.23611	20570.01786
1013.95561	20628.01786
1017.67255	20716.58929
1021.38692	20661.01786
1025.09872	20635.58929
1028.80796	20538.16071
1032.51465	20534.875
1036.21877	20547.16071
1039.92035	20561.30357
1043.61937	20579.16071
1047.31584	20614.30357
1051.00976	20657.16071
1054.70114	20712.58929
1058.38998	20718.01786
1062.07627	20746.44643
1065.76003	20825.58929
1069.44126	20877.58929
1073.11995	20988.44643
1076.79611	21133.44643
1080.46974	21204.01786
1084.14085	21276.58929
1087.80943	21299.73214
1091.47549	21331.01786
1095.13903	21270.875
1098.80005	21135.875
1102.45857	21107.16071
1106.11456	21064.73214
1109.76805	21088.875
1113.41903	21055.58929
1117.06751	21069.16071
1120.71348	21207.875
1124.35696	21352.16071
1127.99793	21510.58929
1131.63641	21574.875
1135.2724	21415.01786
1138.90589	21283.16071
1142.5369	21117.875
1146.16542	21001.58929
1149.79145	20852.16071
1153.415	20821.44643
1157.03607	20740.44643
1160.65467	20860.30357
1164.27079	21027.58929
1167.88443	21285.30357
1171.49561	21659.16071
1175.10432	22209.58929
1178.71056	23014.875
1182.31434	23708.01786
1185.91565	24108.58929
1189.51451	24146.30357
1193.11091	23938.44643
1196.70485	23566.30357
1200.29634	23168.30357
1203.88538	22822.58929
1207.47197	22400.44643
1211.05612	21923.73214
1214.63782	21632.44643
1218.21708	21466.30357
1221.79391	21324.30357
1225.36829	21315.73214
1228.94024	21255.30357
1232.50976	21320.58929
1236.07685	21274.01786
1239.6415	21316.58929
1243.20374	21334.875
1246.76355	21404.875
1250.32093	21454.73214
1253.8759	21573.875
1257.42845	21717.16071
1260.97859	21868.875
1264.52631	22060.16071
1268.07163	22292.58929
1271.61453	22448.58929
1275.15503	22600.73214
1278.69312	22667.16071
1282.22882	22721.16071
1285.76211	22727.16071
1289.29301	22879.16071
1292.82151	23063.30357
1296.34761	23279.01786
1299.87133	23574.44643
1303.39266	24079.875
1306.9116	24663.30357
1310.42815	25367.30357
1313.94233	25803.73214
1317.45412	25702.44643
1320.96354	25260.44643
1324.47058	24764.73214
1327.97525	24265.875
1331.47754	23868.44643
1334.97747	23667.58929
1338.47502	23757.875
1341.97022	24012.01786
1345.46305	24418.16071
1348.95352	25077.16071
1352.44163	25788.58929
1355.92738	26516.875
1359.41078	27281.73214
1362.89183	28008.30357
1366.37053	27683.01786
1369.84688	26148.30357
1373.32088	24365.44643
1376.79254	23146.01786
1380.26186	22468.01786
1383.72883	22072.30357
1387.19347	21734.58929
1390.65578	21397.875
1394.11575	21087.875
1397.57339	20860.01786
1401.0287	20733.73214
1404.48168	20716.58929
1407.93234	20703.44643
1411.38068	20768.16071
1414.82669	20815.30357
1418.27039	20753.16071
1421.71177	20799.01786
1425.15083	20709.44643
1428.58758	20592.73214
1432.02203	20466.44643
1435.45416	20434.44643
1438.88399	20454.16071
1442.31151	20427.30357
1445.73673	20447.01786
1449.15965	20427.73214
1452.58027	20458.01786
1455.9986	20431.73214
1459.41463	20439.875
1462.82837	20558.30357
1466.23982	20747.58929
1469.64898	20938.58929
1473.05586	21088.58929
1476.46045	21242.44643
1479.86276	21294.44643
1483.26279	21359.01786
1486.66054	21531.875
1490.05602	21663.30357
1493.44922	21940.01786
1496.84016	22456.73214
1500.22882	23149.01786
1503.61521	24043.73214
1506.99934	24993.44643
1510.38121	25752.30357
1513.76081	25798.30357
1517.13816	25174.875
1520.51324	24087.73214
1523.88607	23090.30357
1527.25665	22377.16071
1530.62498	22022.30357
1533.99105	21795.73214
1537.35488	21653.44643
1540.71647	21575.01786
1544.07581	21533.73214
1547.4329	21494.58929
1550.78776	21458.16071
1554.14038	21397.73214
1557.49077	21397.73214
1560.83892	21479.73214
1564.18484	21603.16071
1567.52853	21736.16071
1570.86999	21872.875
1574.20922	21984.58929
1577.54624	22046.58929
1580.88103	21760.30357
1584.2136	21392.44643
1587.54395	21095.875
1590.87208	21032.73214
1594.19801	21221.44643
1597.52172	21619.30357
1600.84321	21815.875
1604.16251	21746.44643
1607.47959	21580.58929
1610.79447	21255.16071
1614.10715	20801.30357
1617.41763	20369.30357
1620.7259	19980.30357
1624.03199	19723.73214
1627.33587	19634.44643
1630.63757	19665.58929
1633.93707	19769.16071
1637.23439	20085.73214
1640.52951	20617.01786
1643.82246	21422.44643
1647.11321	22235.875
1650.40179	22744.16071
1653.68819	22536.16071
1656.97241	21573.44643
1660.25446	20495.44643
1663.53433	19739.58929
1666.81203	19238.16071
1670.08756	18880.875
1673.36092	18659.16071
1676.63211	18517.875
1679.90115	18394.875
1683.16801	18310.30357
1686.43272	18207.58929
1689.69527	18121.58929
1692.95567	18089.73214
1696.2139	18027.44643
1699.46999	17983.73214
1702.72392	18004.58929
1705.97571	17935.30357
1709.22535	17966.16071
1712.47284	17935.44643
1715.71819	17891.875
1718.96139	17868.875
1722.20246	17836.58929
1725.44139	17811.875
1728.67818	17802.875
1731.91284	17706.73214
1735.14537	17681.73214
1738.37576	17644.58929
1741.60403	17595.875
1744.83017	17570.01786
1748.05418	17521.73214
1751.27607	17538.58929
1754.49584	17535.01786
1757.71349	17519.16071
1760.92903	17522.30357
1764.14244	17497.01786
1767.35375	17493.30357
1770.56294	17394.875
1773.77002	17373.44643
1776.97499	17321.30357
1780.17785	17267.01786
1783.37861	17181.73214
1786.57727	17160.01786
1789.77382	17128.30357
1792.96828	17129.01786
1796.16064	17007.30357
1799.3509	16955.58929
1802.53907	16928.16071
1805.72514	16895.01786
1808.90913	16857.30357
1812.09102	16805.58929
1815.27083	16770.44643
1818.44856	16783.30357
1821.6242	16769.16071
1824.79776	16728.30357
1827.96924	16705.875
1831.13864	16697.44643
1834.30597	16659.44643
1837.47122	16630.16071
1840.6344	16641.58929
1843.7955	16632.58929
1846.95454	16573.44643
1850.11151	16535.44643
1853.26642	16563.16071
1856.41926	16516.01786
1859.57004	16526.16071
1862.71876	16472.73214
1865.86542	16494.875
1869.01003	16460.58929
1872.15258	16465.58929
1875.29308	16462.73214
1878.43152	16392.01786
1881.56792	16394.73214
1884.70227	16390.58929
1887.83457	16388.01786
1890.96482	16356.58929
1894.09304	16310.73214
1897.21921	16269.44643
1900.34335	16263.73214
1903.46544	16256.01786
1906.58551	16231.44643
1909.70353	16195.73214
1912.81953	16175.73214
1915.93349	16143.01786
1919.04543	16135.44643
1922.15534	16101.01786
1925.26322	16073.58929
1928.36908	16033.01786
1931.47292	16027.30357
1934.57473	15978.44643
1937.67453	15972.44643
1940.77232	15921.44643
1943.86808	15865.44643
1946.96184	15812.01786
1950.05358	15773.73214
1953.14331	15735.73214
1956.23103	15704.44643
1959.31675	15632.73214
1962.40046	15642.875
1965.48217	15577.73214
1968.56188	15545.73214
1971.63959	15495.875
1974.7153	15473.58929
1977.78901	15405.875
1980.86073	15349.58929
1983.93046	15294.875
1986.99819	15238.16071
1990.06394	15201.875
1993.1277	15141.44643
1996.18947	15114.875
1999.24925	15067.875
2002.30706	14991.44643
2005.36288	14942.01786
2008.41672	14885.44643
2011.46859	14859.44643
2014.51848	14830.01786
2017.56639	14746.30357
2020.61233	14708.30357
2023.6563	14691.44643
2026.6983	14614.73214
2029.73833	14617.73214
2032.7764	14568.73214
2035.8125	14510.875
2038.84664	14494.73214
2041.87881	14448.875
2044.90903	14441.44643
2047.93729	14403.30357
2050.96359	14403.44643
2053.98794	14391.16071
2057.01034	14383.16071
2060.03078	14364.44643
2063.04927	14337.73214
2066.06582	14310.44643
2069.08042	14351.58929
2072.09307	14300.44643
2075.10378	14310.73214
2078.11255	14319.875
2081.11938	14316.01786
2084.12426	14281.58929
2087.12722	14298.875
2090.12824	14296.58929
2093.12732	14300.58929
2096.12447	14312.875
2099.11969	14272.73214
2102.11299	14248.01786
2105.10435	14275.30357
2108.09379	14281.16071
2111.08131	14301.16071
2114.0669	14342.01786
2117.05057	14312.73214
2120.03233	14338.73214
2123.01216	14345.16071
2125.99008	14354.58929
2128.96609	14370.58929
2131.94018	14387.875
2134.91236	14353.16071
2137.88263	14357.73214
2140.851	14378.30357
2143.81746	14394.01786
2146.78201	14391.44643
2149.74466	14403.30357
2152.7054	14431.875
2155.66425	14379.16071
2158.6212	14387.73214
2161.57625	14347.30357
2164.52941	14353.875
2167.48067	14369.44643
2170.43004	14351.875
2173.37752	14344.44643
2176.32311	14367.16071
2179.26681	14347.58929
2182.20863	14323.30357
2185.14856	14344.58929
2188.08661	14285.16071
2191.02278	14282.875
2193.95707	14318.875
2196.88948	14288.58929
2199.82001	14268.01786
2202.74867	14231.58929
2205.67545	14226.875
2208.60037	14221.73214
2211.52341	14194.30357
2214.44458	14169.30357
2217.36388	14127.16071
2220.28132	14111.73214
2223.1969	14058.30357
2226.11061	14059.44643
2229.02246	14013.01786
2231.93245	13983.30357
2234.84058	13960.58929
2237.74686	13913.875
2240.65128	13946.875
2243.55385	13912.44643
2246.45456	13905.58929
2249.35343	13891.16071
2252.25044	13867.44643
2255.14561	13844.01786
2258.03893	13827.58929
2260.93041	13816.30357
2263.82004	13768.30357
2266.70783	13758.58929
2269.59378	13706.30357
2272.4779	13705.44643
2275.36017	13639.01786
2278.24061	13605.73214
2281.11922	13583.30357
2283.996	13599.58929
2286.87094	13576.16071
2289.74405	13559.30357
2292.61534	13464.58929
2295.4848	13472.58929
2298.35243	13518.16071
2301.21824	13484.01786
2304.08223	13483.875
2306.94439	13432.01786
2309.80474	13411.16071
2312.66327	13401.875
2315.51999	13388.16071
2318.37489	13363.30357
2321.22797	13335.01786
2324.07925	13323.44643
2326.92871	13288.30357
2329.77637	13251.58929
2332.62222	13230.73214
2335.46626	13218.875
2338.3085	13194.01786
2341.14893	13197.58929
2343.98756	13186.16071
2346.8244	13148.01786
2349.65943	13157.58929
2352.49267	13148.875
2355.32411	13130.30357
2358.15376	13094.875
2360.98161	13094.875
2363.80768	13096.16071
2366.63195	13069.01786
2369.45444	13058.44643
2372.27514	13057.44643
2375.09405	13020.01786
2377.91118	13024.58929
2380.72652	12990.16071
2383.54009	12945.58929
2386.35187	12914.875
2389.16188	12853.01786
2391.97011	12872.58929
2394.77657	12836.875
2397.58125	12829.58929
2400.38416	12819.01786
2403.18529	12800.58929
2405.98466	12785.16071
2408.78226	12710.58929
2411.57809	12715.875
2414.37216	12715.73214
2417.16446	12698.01786
2419.955	12680.58929
2422.74378	12630.58929
2425.5308	12650.58929
2428.31606	12654.30357
2431.09956	12613.30357
2433.88131	12588.875
2436.6613	12589.30357
2439.43954	12606.01786
2442.21603	12546.73214
2444.99077	12555.73214
2447.76377	12540.01786
2450.53501	12532.01786
2453.30451	12532.30357
2456.07226	12494.01786
2458.83827	12445.01786
2461.60254	12431.44643
2464.36507	12443.16071
2467.12586	12417.16071
2469.88492	12406.01786
2472.64224	12385.44643
2475.39782	12356.01786
2478.15167	12372.44643
2480.90379	12376.44643
2483.65417	12362.16071
2486.40283	12345.01786
2489.14976	12329.16071
2491.89497	12346.58929
2494.63845	12348.44643
2497.3802	12334.875
2500.12024	12304.58929
2502.85855	12293.44643
2505.59514	12238.58929
2508.33002	12245.58929
2511.06318	12193.875
2513.79462	12203.44643
2516.52435	12193.875
2519.25237	12174.30357
2521.97867	12156.44643
2524.70327	12141.30357
2527.42616	12153.875
2530.14734	12132.73214
2532.86681	12095.30357
2535.58458	12077.875
2538.30065	12058.44643
2541.01501	12036.44643
2543.72768	12012.16071
2546.43864	12029.875
2549.14791	11987.875
2551.85548	11962.01786
2554.56136	11928.44643
2557.26554	11906.875
2559.96803	11899.16071
2562.66883	11875.30357
2565.36794	11828.44643
2568.06536	11836.875
2570.7611	11790.44643
2573.45514	11762.30357
2576.14751	11736.875
2578.83819	11715.01786
2581.52719	11695.73214
2584.21451	11659.58929
2586.90015	11681.58929
2589.58411	11672.875
2592.2664	11623.01786
2594.94701	11580.16071
2597.62594	11577.30357
2600.30321	11536.58929
2602.9788	11526.16071
2605.65273	11498.30357
2608.32498	11490.01786
2610.99557	11449.16071
2613.66449	11435.58929
2616.33175	11436.16071
2618.99734	11450.16071
2621.66128	11400.58929
2624.32355	11396.58929
2626.98416	11373.73214
2629.64311	11333.44643
2632.30041	11315.44643
2634.95605	11287.875
2637.61004	11301.44643
2640.26238	11270.73214
2642.91306	11277.44643
2645.56209	11269.44643
2648.20948	11267.44643
2650.85521	11265.16071
2653.4993	11216.875
2656.14175	11216.16071
2658.78255	11244.30357
2661.42171	11233.73214
2664.05923	11246.01786
2666.6951	11233.875
2669.32934	11232.16071
2671.96194	11240.01786
2674.59291	11198.30357
2677.22224	11202.01786
2679.84993	11177.16071
2682.476	11174.44643
2685.10043	11180.875
2687.72324	11184.16071
2690.34441	11168.58929
2692.96396	11180.73214
2695.58188	11175.30357
2698.19818	11165.44643
2700.81285	11191.875
2703.4259	11159.73214
2706.03733	11178.01786
2708.64714	11135.30357
2711.25533	11187.58929
2713.86191	11155.16071
2716.46687	11175.30357
2719.07021	11191.16071
2721.67194	11169.16071
2724.27206	11179.01786
2726.87057	11140.58929
2729.46747	11111.875
2732.06276	11111.875
2734.65644	11117.73214
2737.24852	11085.16071
2739.83899	11079.16071
2742.42786	11098.16071
2745.01513	11063.58929
2747.60079	11054.58929
2750.18486	11034.73214
2752.76733	11031.875
2755.3482	11023.30357
2757.92747	11008.16071
2760.50515	10995.73214
2763.08123	10990.01786
2765.65573	10969.44643
2768.22863	10898.16071
2770.79994	10929.73214
2773.36967	10905.73214
2775.9378	10873.58929
2778.50435	10856.44643
2781.06932	10865.01786
2783.6327	10847.01786
2786.1945	10815.30357
2788.75471	10784.16071
2791.31335	10782.01786
2793.87041	10744.58929
2796.42589	10733.01786
2798.97979	10730.16071
2801.53212	10696.01786
2804.08288	10664.875
2806.63206	10620.58929
2809.17967	10603.01786
2811.72571	10590.58929
2814.27018	10587.73214
2816.81308	10520.73214
2819.35442	10538.44643
2821.89419	10530.30357
2824.43239	10513.16071
2826.96904	10510.58929
2829.50412	10495.30357
2832.03763	10453.875
2834.56959	10473.58929
2837.1	10465.16071
2839.62884	10468.01786
2842.15613	10392.01786
2844.68186	10431.73214
2847.20604	10408.30357
2849.72867	10379.44643
2852.24974	10388.01786
2854.76927	10347.875
2857.28724	10334.01786
2859.80367	10328.73214
2862.31855	10303.875
2864.83189	10286.16071
2867.34368	10254.44643
2869.85393	10286.30357
2872.36264	10273.44643
2874.8698	10269.30357
2877.37543	10223.875
2879.87952	10256.30357
2882.38207	10242.16071
2884.88308	10218.01786
2887.38256	10267.44643
2889.88051	10233.58929
2892.37692	10260.44643
2894.8718	10262.16071
2897.36515	10278.875
2899.85698	10270.58929
2902.34727	10329.73214
2904.83604	10292.73214
2907.32328	10294.73214
2909.809	10301.01786
2912.29319	10320.73214
2914.77587	10322.58929
2917.25702	10297.44643
2919.73665	10321.16071
2922.21476	10327.16071
2924.69136	10308.73214
2927.16644	10323.58929
2929.64	10336.16071
2932.11205	10285.58929
2934.58258	10277.01786
2937.05161	10290.16071
2939.51912	10311.875
2941.98513	10305.01786
2944.44962	10269.44643
2946.91261	10256.01786
2949.37409	10278.58929
2951.83407	10262.58929
2954.29254	10244.16071
2956.74951	10227.44643
2959.20498	10230.58929
2961.65895	10196.16071
2964.11142	10177.16071
2966.56239	10140.30357
2969.01186	10135.30357
2971.45984	10132.58929
2973.90632	10105.30357
2976.35131	10103.44643
2978.7948	10095.73214
2981.23681	10061.01786
2983.67732	10045.73214
2986.11635	10018.73214
2988.55388	10000.58929
2990.98993	9973.73214
2993.4245	9983.30357
2995.85758	9936.44643
2998.28917	9950.58929
3000.71928	9931.44643
3003.14791	9893.44643
3005.57506	9867.73214
3008.00073	9848.58929
3010.42493	9825.73214
3012.84764	9851.73214
3015.26888	9803.44643
3017.68865	9819.73214
3020.10694	9785.30357
3022.52376	9788.16071
3024.9391	9769.875
3027.35298	9759.58929
3029.76539	9746.30357
3032.17632	9716.875
3034.5858	9721.73214
3036.9938	9702.01786
3039.40034	9685.875
3041.80542	9698.30357
3044.20903	9648.01786
3046.61118	9646.44643
3049.01187	9647.875
3051.4111	9627.58929
3053.80888	9614.44643
3056.20519	9600.16071
3058.60005	9575.875
3060.99345	9549.875
3063.3854	9542.73214
3065.7759	9525.01786
3068.16494	9515.30357
3070.55254	9475.01786
3072.93868	9463.30357
3075.32338	9452.875
3077.70662	9450.01786
3080.08842	9410.16071
3082.46878	9381.01786
3084.84769	9397.875
3087.22515	9375.30357
3089.60118	9394.58929
3091.97576	9436.30357
3094.3489	9408.58929
3096.72061	9413.73214
3099.09087	9434.30357
3101.4597	9411.16071
3103.82709	9410.73214
3106.19305	9403.16071
3108.55757	9422.16071
3110.92066	9378.44643
3113.28232	9379.73214
3115.64255	9381.44643
3118.00134	9347.875
3120.35871	9332.30357
3122.71466	9314.16071
3125.06917	9294.875
3127.42226	9312.58929
3129.77393	9314.30357
3132.12417	9296.01786
3134.47299	9298.44643
3136.82039	9274.30357
3139.16636	9269.01786
3141.51092	9301.875
3143.85406	9257.875
3146.19579	9342.30357
3148.53609	9304.16071
3150.87499	9313.16071
3153.21246	9331.875
3155.54853	9343.875
3157.88318	9343.58929
3160.21642	9388.58929
3162.54826	9359.875
3164.87868	9372.30357
3167.2077	9349.44643
3169.5353	9368.30357
3171.86151	9385.58929
3174.18631	9356.44643
3176.5097	9348.30357
3178.83169	9353.01786
3181.15228	9320.875
3183.47147	9310.44643
3185.78926	9293.44643
3188.10565	9299.44643
3190.42065	9284.01786
3192.73424	9292.16071
3195.04645	9268.16071
3197.35725	9286.58929
3199.66667	9275.16071
3201.97469	9304.875
3204.28132	9316.01786
3206.58656	9305.44643
3208.8904	9362.44643
3211.19287	9350.44643
3213.49394	9353.44643
3215.79363	9352.01786
3218.09193	9348.16071
3220.38884	9338.44643
3222.68438	9361.44643
3224.97853	9340.16071
3227.2713	9321.73214
3229.56269	9309.16071
3231.8527	9310.44643
3234.14133	9261.44643
3236.42858	9253.30357
3238.71446	9239.30357
3240.99896	9220.30357
3243.28209	9221.44643
3245.56384	9223.44643
3247.84423	9197.30357
3250.12324	9215.875
3252.40088	9210.44643
3254.67715	9166.73214
3256.95205	9200.01786
3259.22558	9175.73214
3261.49775	9185.58929
3263.76855	9147.44643
3266.03799	9151.16071
3268.30606	9153.30357
3270.57277	9151.30357
3272.83812	9090.16071
3275.10211	9078.58929
3277.36474	9081.58929
3279.62601	9065.01786
3281.88593	9049.30357
3284.14448	9052.875
3286.40168	9043.01786
3288.65753	9019.44643
3290.91202	9014.30357
3293.16516	8993.16071
3295.41695	9017.73214
3297.66738	8940.01786
3299.91647	8911.30357
3302.16421	8845.30357
3304.4106	8821.01786
3306.65564	8731.16071
3308.89933	8706.01786
3311.14169	8643.16071
3313.38269	8576.01786
3315.62236	8529.30357
3317.86068	8436.58929
3320.09766	8403.30357
3322.3333	8354.16071
3324.5676	8312.16071
3326.80056	8201.58929
3329.03219	8132.44643
3331.26248	1.44643
3333.49143	-0.69643
3335.71905	-0.26786
