Data from AgNPs_FTO_APTES_UA_20uM_CRN_1000uM_R6G_10uM_NaF_0.1M_Addition_RamanShift__10__19-23-25-017.txt Node

Date: Thu Feb 17 19:23:25 GMT 2022
User: TCL
Spectrometer: QEP01345
Trigger mode: 4
Integration Time (sec): 1.000000E1
Scans to average: 7
Electric dark correction enabled: true
Nonlinearity correction enabled: false
Boxcar width: 0
XAxis mode: Raman Shifts
Number of Pixels in Spectrum: 1044
>>>>>Begin Spectral Data<<<<<
46.04893	0.125
50.45542	-1.58929
54.85868	-0.16071
59.25871	-1.30357
63.6555	70.69643
68.04907	69.41071
72.43941	76.26786
76.82654	80.98214
81.21044	81.69643
85.59113	86.26786
89.96862	87.55357
94.34289	88.125
98.71396	97.98214
103.08183	95.69643
107.4465	101.41071
111.80798	103.41071
116.16626	104.69643
120.52136	108.125
124.87327	112.83929
129.222	115.55357
133.56755	117.55357
137.90993	129.55357
142.24913	141.41071
146.58517	163.125
150.91804	184.55357
155.24774	215.125
159.57429	261.41071
163.89768	335.83929
168.21792	448.55357
172.53501	614.55357
176.84895	853.98214
181.15975	1203.41071
185.46741	1695.98214
189.77193	2354.125
194.07331	3180.41071
198.37157	4111.26786
202.6667	5125.125
206.9587	6136.98214
211.24758	7091.41071
215.53334	8068.98214
219.81599	9080.69643
224.09553	10194.125
228.37195	11453.55357
232.64527	12799.41071
236.91549	14211.41071
241.18261	15705.26786
245.44663	17064.125
249.70755	18183.83929
253.96539	19217.98214
258.22014	20071.55357
262.4718	20769.41071
266.72039	21197.55357
270.96589	21398.41071
275.20832	21353.98214
279.44768	21170.83929
283.68397	20901.69643
287.91719	20651.98214
292.14735	20438.69643
296.37445	20384.55357
300.59849	20477.83929
304.81948	20619.41071
309.03742	20759.41071
313.25231	20834.83929
317.46415	20656.69643
321.67296	20268.98214
325.87872	19896.98214
330.08145	19739.98214
334.28114	19803.26786
338.47781	19925.26786
342.67145	20153.98214
346.86207	20497.83929
351.04966	20870.41071
355.23424	21312.83929
359.4158	21684.69643
363.59435	21936.55357
367.76989	22119.125
371.94243	22259.26786
376.11196	22321.69643
380.27849	22402.26786
384.44203	22513.26786
388.60257	22593.41071
392.76012	22733.55357
396.91468	22982.125
401.06626	23249.98214
405.21485	23433.41071
409.36047	23372.69643
413.50311	23043.69643
417.64277	22741.41071
421.77947	22586.69643
425.9132	22590.98214
430.04396	22700.125
434.17176	22851.41071
438.2966	23019.83929
442.41849	23371.83929
446.53742	23739.55357
450.6534	24144.41071
454.76644	24460.98214
458.87653	24559.125
462.98368	24587.41071
467.08789	24446.55357
471.18916	24191.26786
475.2875	23897.98214
479.38291	23663.41071
483.4754	23431.125
487.56496	23301.55357
491.6516	23213.55357
495.73531	23210.41071
499.81612	23181.125
503.89401	23310.125
507.96899	23384.69643
512.04106	23452.98214
516.11023	23540.98214
520.1765	23549.125
524.23987	23591.26786
528.30034	23557.125
532.35792	23493.41071
536.41261	23437.125
540.46441	23252.83929
544.51333	23189.69643
548.55936	23293.98214
552.60252	23574.55357
556.64279	23867.125
560.6802	24032.55357
564.71473	24054.55357
568.7464	24145.69643
572.7752	24386.55357
576.80114	24526.125
580.82422	24721.83929
584.84444	25007.55357
588.86181	25375.26786
592.87633	25850.41071
596.888	26155.83929
600.89682	26234.69643
604.9028	26719.69643
608.90594	28628.41071
612.90624	31274.69643
616.90371	30422.98214
620.89834	26313.69643
624.89015	24234.41071
628.87913	23911.26786
632.86528	24061.26786
636.84862	24317.26786
640.82913	24157.98214
644.80683	23776.98214
648.78172	23489.55357
652.75379	23467.41071
656.72306	23721.125
660.68952	24068.98214
664.65319	23943.26786
668.61405	23625.55357
672.57211	23583.83929
676.52738	23687.83929
680.47986	23822.98214
684.42955	23710.55357
688.37646	23580.41071
692.32058	23553.55357
696.26192	23665.125
700.20048	23794.26786
704.13626	23984.69643
708.06928	23970.41071
711.99952	23825.69643
715.927	23780.125
719.85171	23773.55357
723.77365	23808.26786
727.69284	23703.55357
731.60928	23577.41071
735.52295	23549.125
739.43388	23528.98214
743.34206	23554.69643
747.24749	23627.55357
751.15017	23733.83929
755.05012	23866.83929
758.94733	24275.55357
762.8418	25222.83929
766.73354	26774.69643
770.62254	28395.41071
774.50882	29047.26786
778.39237	28245.26786
782.27321	26731.26786
786.15132	25178.41071
790.02671	24242.98214
793.89938	23726.41071
797.76935	23486.98214
801.6366	23371.69643
805.50115	23333.26786
809.36299	23223.69643
813.22213	23164.83929
817.07857	23121.26786
820.93231	23101.41071
824.78336	23067.41071
828.63172	23065.98214
832.47738	23011.125
836.32036	23021.26786
840.16066	23024.69643
843.99827	22981.69643
847.8332	23007.69643
851.66546	23083.125
855.49504	23086.26786
859.32195	23099.55357
863.1462	23100.55357
866.96777	23098.55357
870.78668	23120.55357
874.60293	23201.26786
878.41652	23194.41071
882.22745	23267.83929
886.03573	23276.69643
889.84136	23318.41071
893.64433	23272.26786
897.44466	23196.98214
901.24235	23178.26786
905.0374	23046.83929
908.8298	23066.26786
912.61957	22981.26786
916.40671	22991.98214
920.19121	23075.55357
923.97308	23239.26786
927.75233	23281.41071
931.52895	23244.69643
935.30295	23049.41071
939.07433	22847.55357
942.84309	22638.69643
946.60924	22504.125
950.37278	22450.55357
954.13371	22365.41071
957.89203	22332.125
961.64774	22355.98214
965.40086	22337.83929
969.15137	22311.55357
972.89929	22259.98214
976.64461	22238.41071
980.38733	22245.125
984.12747	22254.98214
987.86502	22327.69643
991.59999	22379.69643
995.33237	22516.98214
999.06217	22701.83929
1002.78939	22903.98214
1006.51404	23136.98214
1010.23611	23389.41071
1013.95561	23608.55357
1017.67255	23683.98214
1021.38692	23629.41071
1025.09872	23407.83929
1028.80796	23181.83929
1032.51465	23055.125
1036.21877	23034.98214
1039.92035	23101.125
1043.61937	23161.83929
1047.31584	23229.41071
1051.00976	23278.83929
1054.70114	23334.69643
1058.38998	23326.125
1062.07627	23411.26786
1065.76003	23519.41071
1069.44126	23699.98214
1073.11995	23895.55357
1076.79611	24163.125
1080.46974	24266.41071
1084.14085	24401.98214
1087.80943	24580.55357
1091.47549	24700.26786
1095.13903	24609.26786
1098.80005	24362.55357
1102.45857	24195.83929
1106.11456	23999.55357
1109.76805	23963.41071
1113.41903	23909.55357
1117.06751	24116.83929
1120.71348	24394.41071
1124.35696	24731.26786
1127.99793	25038.125
1131.63641	25173.125
1135.2724	24965.41071
1138.90589	24656.41071
1142.5369	24475.98214
1146.16542	24377.125
1149.79145	24311.69643
1153.415	24193.41071
1157.03607	24303.55357
1160.65467	24574.69643
1164.27079	24967.41071
1167.88443	25676.55357
1171.49561	26599.83929
1175.10432	27821.55357
1178.71056	29472.26786
1182.31434	31051.83929
1185.91565	31895.26786
1189.51451	32033.69643
1193.11091	31597.83929
1196.70485	30864.55357
1200.29634	29981.83929
1203.88538	29109.41071
1207.47197	28210.41071
1211.05612	27376.69643
1214.63782	26753.125
1218.21708	26420.125
1221.79391	26130.125
1225.36829	26080.41071
1228.94024	26104.41071
1232.50976	26020.69643
1236.07685	25914.69643
1239.6415	25834.41071
1243.20374	25778.55357
1246.76355	25825.41071
1250.32093	25898.83929
1253.8759	26133.41071
1257.42845	26535.69643
1260.97859	26974.41071
1264.52631	27406.98214
1268.07163	27859.69643
1271.61453	28294.98214
1275.15503	28584.41071
1278.69312	28795.55357
1282.22882	29108.69643
1285.76211	29456.26786
1289.29301	29983.83929
1292.82151	30696.26786
1296.34761	31451.55357
1299.87133	32384.41071
1303.39266	33593.83929
1306.9116	35125.98214
1310.42815	36715.26786
1313.94233	37622.83929
1317.45412	37278.26786
1320.96354	36300.83929
1324.47058	35129.41071
1327.97525	34126.26786
1331.47754	33400.98214
1334.97747	33058.41071
1338.47502	33159.41071
1341.97022	33567.98214
1345.46305	34272.26786
1348.95352	35374.125
1352.44163	36558.69643
1355.92738	37856.26786
1359.41078	39556.125
1362.89183	41141.125
1366.37053	40607.83929
1369.84688	37433.69643
1373.32088	33730.55357
1376.79254	31096.98214
1380.26186	29780.98214
1383.72883	29137.125
1387.19347	28662.98214
1390.65578	28147.83929
1394.11575	27688.125
1397.57339	27424.98214
1401.0287	27368.69643
1404.48168	27301.69643
1407.93234	27242.41071
1411.38068	27188.41071
1414.82669	27065.83929
1418.27039	26827.55357
1421.71177	26601.83929
1425.15083	26237.41071
1428.58758	25979.55357
1432.02203	25967.26786
1435.45416	26067.69643
1438.88399	26264.41071
1442.31151	26424.98214
1445.73673	26450.41071
1449.15965	26567.55357
1452.58027	26582.83929
1455.9986	26593.69643
1459.41463	26659.69643
1462.82837	26877.83929
1466.23982	27274.55357
1469.64898	27678.26786
1473.05586	28045.55357
1476.46045	28297.55357
1479.86276	28466.125
1483.26279	28615.26786
1486.66054	28856.55357
1490.05602	29144.41071
1493.44922	29845.55357
1496.84016	30823.98214
1500.22882	32204.83929
1503.61521	33982.55357
1506.99934	35760.26786
1510.38121	37011.26786
1513.76081	36982.41071
1517.13816	35540.55357
1520.51324	33505.98214
1523.88607	31726.41071
1527.25665	30621.69643
1530.62498	30021.55357
1533.99105	29810.55357
1537.35488	29563.125
1540.71647	29211.83929
1544.07581	28873.41071
1547.4329	28485.41071
1550.78776	28126.69643
1554.14038	27829.41071
1557.49077	27731.83929
1560.83892	27812.125
1564.18484	27931.55357
1567.52853	28279.98214
1570.86999	28661.69643
1574.20922	28931.69643
1577.54624	28918.55357
1580.88103	28446.83929
1584.2136	27785.69643
1587.54395	27415.26786
1590.87208	27594.83929
1594.19801	28352.98214
1597.52172	29390.26786
1600.84321	29978.41071
1604.16251	29652.26786
1607.47959	28829.125
1610.79447	27833.55357
1614.10715	26668.98214
1617.41763	25596.41071
1620.7259	24710.55357
1624.03199	24083.98214
1627.33587	23850.69643
1630.63757	23995.26786
1633.93707	24548.83929
1637.23439	25667.55357
1640.52951	27351.26786
1643.82246	29577.83929
1647.11321	31769.55357
1650.40179	32859.69643
1653.68819	31894.41071
1656.97241	29388.83929
1660.25446	26598.26786
1663.53433	24520.69643
1666.81203	23196.55357
1670.08756	22352.125
1673.36092	21803.98214
1676.63211	21450.98214
1679.90115	21144.26786
1683.16801	20957.41071
1686.43272	20764.55357
1689.69527	20679.83929
1692.95567	20503.55357
1696.2139	20422.41071
1699.46999	20362.55357
1702.72392	20303.83929
1705.97571	20217.41071
1709.22535	20222.83929
1712.47284	20219.83929
1715.71819	20193.69643
1718.96139	20122.41071
1722.20246	20110.69643
1725.44139	19981.125
1728.67818	19916.26786
1731.91284	19845.69643
1735.14537	19807.41071
1738.37576	19738.41071
1741.60403	19657.125
1744.83017	19570.83929
1748.05418	19552.41071
1751.27607	19490.69643
1754.49584	19502.125
1757.71349	19452.98214
1760.92903	19442.83929
1764.14244	19462.69643
1767.35375	19440.55357
1770.56294	19356.98214
1773.77002	19297.125
1776.97499	19275.98214
1780.17785	19232.125
1783.37861	19198.98214
1786.57727	19148.69643
1789.77382	19088.125
1792.96828	19064.69643
1796.16064	18975.83929
1799.3509	18971.41071
1802.53907	18944.41071
1805.72514	18887.69643
1808.90913	18877.125
1812.09102	18781.41071
1815.27083	18779.125
1818.44856	18787.69643
1821.6242	18691.26786
1824.79776	18705.41071
1827.96924	18666.26786
1831.13864	18642.41071
1834.30597	18615.41071
1837.47122	18608.41071
1840.6344	18569.125
1843.7955	18628.98214
1846.95454	18557.69643
1850.11151	18510.41071
1853.26642	18492.98214
1856.41926	18487.98214
1859.57004	18459.41071
1862.71876	18450.26786
1865.86542	18415.69643
1869.01003	18421.26786
1872.15258	18428.55357
1875.29308	18415.98214
1878.43152	18347.55357
1881.56792	18322.125
1884.70227	18312.55357
1887.83457	18317.26786
1890.96482	18264.69643
1894.09304	18219.69643
1897.21921	18212.55357
1900.34335	18171.83929
1903.46544	18183.125
1906.58551	18124.69643
1909.70353	18078.69643
1912.81953	18068.69643
1915.93349	18034.98214
1919.04543	18026.55357
1922.15534	18023.83929
1925.26322	17960.26786
1928.36908	17889.69643
1931.47292	17884.55357
1934.57473	17914.69643
1937.67453	17851.55357
1940.77232	17724.69643
1943.86808	17692.41071
1946.96184	17663.55357
1950.05358	17590.41071
1953.14331	17575.83929
1956.23103	17520.69643
1959.31675	17515.41071
1962.40046	17469.98214
1965.48217	17408.125
1968.56188	17377.69643
1971.63959	17281.69643
1974.7153	17244.69643
1977.78901	17185.125
1980.86073	17123.125
1983.93046	17075.125
1986.99819	16991.41071
1990.06394	16976.55357
1993.1277	16930.125
1996.18947	16838.26786
1999.24925	16796.55357
2002.30706	16713.41071
2005.36288	16689.55357
2008.41672	16653.26786
2011.46859	16565.55357
2014.51848	16524.83929
2017.56639	16456.69643
2020.61233	16395.26786
2023.6563	16405.83929
2026.6983	16311.69643
2029.73833	16278.69643
2032.7764	16255.98214
2035.8125	16218.55357
2038.84664	16158.98214
2041.87881	16159.98214
2044.90903	16103.55357
2047.93729	16091.98214
2050.96359	16037.41071
2053.98794	16023.55357
2057.01034	16047.98214
2060.03078	16037.26786
2063.04927	16009.41071
2066.06582	15997.69643
2069.08042	15962.125
2072.09307	15943.41071
2075.10378	15975.98214
2078.11255	15966.125
2081.11938	15918.98214
2084.12426	15946.41071
2087.12722	15915.83929
2090.12824	15910.69643
2093.12732	15914.125
2096.12447	15929.26786
2099.11969	15889.125
2102.11299	15909.26786
2105.10435	15911.55357
2108.09379	15926.83929
2111.08131	15921.41071
2114.0669	15900.98214
2117.05057	15941.98214
2120.03233	15941.55357
2123.01216	15965.98214
2125.99008	15994.41071
2128.96609	16065.55357
2131.94018	16026.83929
2134.91236	16014.125
2137.88263	16008.98214
2140.851	16021.83929
2143.81746	16022.55357
2146.78201	15980.125
2149.74466	16048.125
2152.7054	16066.26786
2155.66425	16010.69643
2158.6212	16004.55357
2161.57625	15994.26786
2164.52941	15968.55357
2167.48067	15971.69643
2170.43004	15959.98214
2173.37752	15987.98214
2176.32311	15957.83929
2179.26681	15974.83929
2182.20863	15962.125
2185.14856	15943.98214
2188.08661	15950.69643
2191.02278	15930.69643
2193.95707	15910.125
2196.88948	15882.41071
2199.82001	15890.98214
2202.74867	15866.55357
2205.67545	15829.98214
2208.60037	15799.69643
2211.52341	15771.41071
2214.44458	15776.98214
2217.36388	15741.55357
2220.28132	15676.83929
2223.1969	15651.125
2226.11061	15662.125
2229.02246	15617.41071
2231.93245	15555.55357
2234.84058	15510.125
2237.74686	15483.41071
2240.65128	15489.26786
2243.55385	15503.83929
2246.45456	15435.83929
2249.35343	15447.83929
2252.25044	15386.41071
2255.14561	15400.41071
2258.03893	15401.41071
2260.93041	15373.26786
2263.82004	15315.26786
2266.70783	15291.98214
2269.59378	15246.41071
2272.4779	15239.41071
2275.36017	15200.26786
2278.24061	15129.125
2281.11922	15081.98214
2283.996	15067.55357
2286.87094	15119.41071
2289.74405	15057.55357
2292.61534	15023.125
2295.4848	14970.125
2298.35243	15013.125
2301.21824	14988.69643
2304.08223	14965.69643
2306.94439	14949.98214
2309.80474	14910.41071
2312.66327	14912.125
2315.51999	14904.26786
2318.37489	14840.83929
2321.22797	14829.125
2324.07925	14815.69643
2326.92871	14782.41071
2329.77637	14747.26786
2332.62222	14751.98214
2335.46626	14705.41071
2338.3085	14694.125
2341.14893	14675.83929
2343.98756	14677.98214
2346.8244	14691.98214
2349.65943	14627.69643
2352.49267	14613.41071
2355.32411	14660.69643
2358.15376	14633.125
2360.98161	14617.125
2363.80768	14623.83929
2366.63195	14570.55357
2369.45444	14549.26786
2372.27514	14545.69643
2375.09405	14544.125
2377.91118	14472.125
2380.72652	14471.41071
2383.54009	14416.83929
2386.35187	14416.55357
2389.16188	14360.55357
2391.97011	14335.125
2394.77657	14321.26786
2397.58125	14277.41071
2400.38416	14289.41071
2403.18529	14271.69643
2405.98466	14228.83929
2408.78226	14172.55357
2411.57809	14145.41071
2414.37216	14180.26786
2417.16446	14152.125
2419.955	14131.55357
2422.74378	14118.69643
2425.5308	14093.98214
2428.31606	14098.41071
2431.09956	14092.125
2433.88131	14058.69643
2436.6613	14063.41071
2439.43954	14029.98214
2442.21603	13986.98214
2444.99077	13974.98214
2447.76377	13958.125
2450.53501	13983.83929
2453.30451	13952.69643
2456.07226	13938.98214
2458.83827	13918.125
2461.60254	13922.26786
2464.36507	13893.55357
2467.12586	13861.41071
2469.88492	13854.41071
2472.64224	13854.55357
2475.39782	13814.69643
2478.15167	13830.125
2480.90379	13830.55357
2483.65417	13842.55357
2486.40283	13829.41071
2489.14976	13839.26786
2491.89497	13788.98214
2494.63845	13848.83929
2497.3802	13795.41071
2500.12024	13781.26786
2502.85855	13779.26786
2505.59514	13749.26786
2508.33002	13715.26786
2511.06318	13672.26786
2513.79462	13689.55357
2516.52435	13679.125
2519.25237	13628.69643
2521.97867	13586.125
2524.70327	13612.55357
2527.42616	13556.55357
2530.14734	13564.125
2532.86681	13547.69643
2535.58458	13527.69643
2538.30065	13498.26786
2541.01501	13481.55357
2543.72768	13502.41071
2546.43864	13459.83929
2549.14791	13419.26786
2551.85548	13419.26786
2554.56136	13378.41071
2557.26554	13363.26786
2559.96803	13330.98214
2562.66883	13312.69643
2565.36794	13284.69643
2568.06536	13249.55357
2570.7611	13261.55357
2573.45514	13238.55357
2576.14751	13185.98214
2578.83819	13128.41071
2581.52719	13143.69643
2584.21451	13118.26786
2586.90015	13095.98214
2589.58411	13066.69643
2592.2664	13094.98214
2594.94701	13007.98214
2597.62594	12994.83929
2600.30321	12980.41071
2602.9788	12944.69643
2605.65273	12902.69643
2608.32498	12927.98214
2610.99557	12911.98214
2613.66449	12901.83929
2616.33175	12882.69643
2618.99734	12902.41071
2621.66128	12836.125
2624.32355	12831.69643
2626.98416	12788.125
2629.64311	12790.26786
2632.30041	12769.125
2634.95605	12734.98214
2637.61004	12676.125
2640.26238	12700.125
2642.91306	12706.55357
2645.56209	12680.83929
2648.20948	12687.98214
2650.85521	12680.69643
2653.4993	12689.125
2656.14175	12662.98214
2658.78255	12682.26786
2661.42171	12658.55357
2664.05923	12703.69643
2666.6951	12643.55357
2669.32934	12647.69643
2671.96194	12668.125
2674.59291	12705.26786
2677.22224	12678.69643
2679.84993	12662.98214
2682.476	12607.69643
2685.10043	12635.69643
2687.72324	12647.98214
2690.34441	12617.98214
2692.96396	12632.55357
2695.58188	12640.83929
2698.19818	12585.98214
2700.81285	12634.55357
2703.4259	12610.26786
2706.03733	12583.125
2708.64714	12614.69643
2711.25533	12604.83929
2713.86191	12606.55357
2716.46687	12638.125
2719.07021	12624.69643
2721.67194	12648.55357
2724.27206	12617.98214
2726.87057	12639.26786
2729.46747	12589.69643
2732.06276	12576.83929
2734.65644	12568.98214
2737.24852	12573.69643
2739.83899	12553.83929
2742.42786	12583.26786
2745.01513	12513.55357
2747.60079	12487.125
2750.18486	12455.125
2752.76733	12495.98214
2755.3482	12464.125
2757.92747	12484.55357
2760.50515	12447.125
2763.08123	12399.98214
2765.65573	12388.41071
2768.22863	12402.41071
2770.79994	12379.125
2773.36967	12350.98214
2775.9378	12321.98214
2778.50435	12320.98214
2781.06932	12307.69643
2783.6327	12310.83929
2786.1945	12277.69643
2788.75471	12249.125
2791.31335	12188.83929
2793.87041	12194.69643
2796.42589	12163.69643
2798.97979	12130.98214
2801.53212	12135.98214
2804.08288	12108.26786
2806.63206	12102.83929
2809.17967	12059.98214
2811.72571	12049.98214
2814.27018	12011.83929
2816.81308	11986.83929
2819.35442	11952.125
2821.89419	11948.125
2824.43239	11938.69643
2826.96904	11918.125
2829.50412	11938.83929
2832.03763	11876.69643
2834.56959	11884.55357
2837.1	11858.83929
2839.62884	11846.69643
2842.15613	11850.26786
2844.68186	11839.41071
2847.20604	11857.41071
2849.72867	11837.26786
2852.24974	11839.125
2854.76927	11801.83929
2857.28724	11788.83929
2859.80367	11778.26786
2862.31855	11741.26786
2864.83189	11695.55357
2867.34368	11702.83929
2869.85393	11706.98214
2872.36264	11679.98214
2874.8698	11698.83929
2877.37543	11654.83929
2879.87952	11685.83929
2882.38207	11662.83929
2884.88308	11649.41071
2887.38256	11662.55357
2889.88051	11640.41071
2892.37692	11674.83929
2894.8718	11664.98214
2897.36515	11678.41071
2899.85698	11693.41071
2902.34727	11701.98214
2904.83604	11664.69643
2907.32328	11695.98214
2909.809	11657.26786
2912.29319	11705.125
2914.77587	11730.55357
2917.25702	11701.55357
2919.73665	11704.98214
2922.21476	11682.55357
2924.69136	11711.98214
2927.16644	11694.125
2929.64	11691.98214
2932.11205	11661.55357
2934.58258	11617.69643
2937.05161	11630.98214
2939.51912	11666.55357
2941.98513	11641.83929
2944.44962	11624.26786
2946.91261	11590.26786
2949.37409	11557.26786
2951.83407	11553.125
2954.29254	11514.55357
2956.74951	11516.83929
2959.20498	11550.55357
2961.65895	11510.26786
2964.11142	11511.55357
2966.56239	11487.125
2969.01186	11455.98214
2971.45984	11417.69643
2973.90632	11421.41071
2976.35131	11409.98214
2978.7948	11383.41071
2981.23681	11361.83929
2983.67732	11357.26786
2986.11635	11309.83929
2988.55388	11300.98214
2990.98993	11274.26786
2993.4245	11252.26786
2995.85758	11251.69643
2998.28917	11212.98214
3000.71928	11208.41071
3003.14791	11170.26786
3005.57506	11158.55357
3008.00073	11146.83929
3010.42493	11131.98214
3012.84764	11118.69643
3015.26888	11100.83929
3017.68865	11053.69643
3020.10694	11030.125
3022.52376	11011.98214
3024.9391	11026.55357
3027.35298	10984.55357
3029.76539	10974.98214
3032.17632	11001.125
3034.5858	10955.98214
3036.9938	10929.41071
3039.40034	10922.26786
3041.80542	10907.41071
3044.20903	10899.125
3046.61118	10889.41071
3049.01187	10857.83929
3051.4111	10853.98214
3053.80888	10837.55357
3056.20519	10792.26786
3058.60005	10780.83929
3060.99345	10749.41071
3063.3854	10743.125
3065.7759	10727.125
3068.16494	10693.41071
3070.55254	10679.69643
3072.93868	10668.55357
3075.32338	10639.125
3077.70662	10600.98214
3080.08842	10569.83929
3082.46878	10584.98214
3084.84769	10573.83929
3087.22515	10571.41071
3089.60118	10548.125
3091.97576	10611.41071
3094.3489	10551.125
3096.72061	10563.41071
3099.09087	10575.41071
3101.4597	10572.69643
3103.82709	10575.125
3106.19305	10545.26786
3108.55757	10525.55357
3110.92066	10505.98214
3113.28232	10514.125
3115.64255	10479.26786
3118.00134	10459.55357
3120.35871	10453.26786
3122.71466	10470.41071
3125.06917	10411.26786
3127.42226	10456.41071
3129.77393	10417.55357
3132.12417	10401.41071
3134.47299	10403.83929
3136.82039	10396.41071
3139.16636	10385.125
3141.51092	10393.55357
3143.85406	10394.83929
3146.19579	10392.55357
3148.53609	10375.26786
3150.87499	10388.125
3153.21246	10413.41071
3155.54853	10428.55357
3157.88318	10427.98214
3160.21642	10432.55357
3162.54826	10423.69643
3164.87868	10424.69643
3167.2077	10397.125
3169.5353	10435.98214
3171.86151	10437.41071
3174.18631	10414.69643
3176.5097	10415.125
3178.83169	10416.98214
3181.15228	10408.125
3183.47147	10363.55357
3185.78926	10356.26786
3188.10565	10340.26786
3190.42065	10321.69643
3192.73424	10344.69643
3195.04645	10346.98214
3197.35725	10323.55357
3199.66667	10321.98214
3201.97469	10324.41071
3204.28132	10329.125
3206.58656	10309.26786
3208.8904	10338.69643
3211.19287	10344.55357
3213.49394	10396.41071
3215.79363	10359.98214
3218.09193	10360.83929
3220.38884	10362.41071
3222.68438	10364.83929
3224.97853	10359.69643
3227.2713	10336.69643
3229.56269	10317.125
3231.8527	10313.41071
3234.14133	10308.26786
3236.42858	10287.41071
3238.71446	10254.69643
3240.99896	10251.41071
3243.28209	10185.26786
3245.56384	10195.69643
3247.84423	10214.69643
3250.12324	10196.41071
3252.40088	10167.83929
3254.67715	10184.26786
3256.95205	10183.55357
3259.22558	10174.26786
3261.49775	10147.125
3263.76855	10155.83929
3266.03799	10111.69643
3268.30606	10130.41071
3270.57277	10096.55357
3272.83812	10043.69643
3275.10211	10049.26786
3277.36474	10022.69643
3279.62601	10001.41071
3281.88593	9971.55357
3284.14448	10001.41071
3286.40168	10015.83929
3288.65753	9978.125
3290.91202	9987.98214
3293.16516	9958.83929
3295.41695	9921.83929
3297.66738	9884.41071
3299.91647	9834.26786
3302.16421	9726.41071
3304.4106	9727.69643
3306.65564	9686.41071
3308.89933	9615.83929
3311.14169	9568.98214
3313.38269	9438.69643
3315.62236	9389.98214
3317.86068	9303.26786
3320.09766	9284.69643
3322.3333	9212.41071
3324.5676	9157.69643
3326.80056	9027.69643
3329.03219	8971.83929
3331.26248	2.125
3333.49143	-2.01786
3335.71905	0.83929
