Data from AgNPs_FTO_APTES_UA_20uM_CRN_100uM_R6G_10uM_NaF_0.1M_Addition_RamanShift__23__17-45-24-894.txt Node

Date: Thu Feb 17 17:45:24 GMT 2022
User: TCL
Spectrometer: QEP01345
Trigger mode: 4
Integration Time (sec): 1.000000E1
Scans to average: 7
Electric dark correction enabled: true
Nonlinearity correction enabled: false
Boxcar width: 0
XAxis mode: Raman Shifts
Number of Pixels in Spectrum: 1044
>>>>>Begin Spectral Data<<<<<
46.04893	-0.375
50.45542	0.19643
54.85868	-0.80357
59.25871	-2.375
63.6555	78.91071
68.04907	81.19643
72.43941	85.625
76.82654	89.76786
81.21044	95.05357
85.59113	100.19643
89.96862	107.76786
94.34289	103.625
98.71396	110.76786
103.08183	109.19643
107.4465	117.05357
111.80798	112.76786
116.16626	120.19643
120.52136	127.76786
124.87327	127.625
129.222	133.91071
133.56755	136.91071
137.90993	155.48214
142.24913	163.33929
146.58517	184.19643
150.91804	209.05357
155.24774	248.33929
159.57429	311.19643
163.89768	400.76786
168.21792	533.48214
172.53501	729.91071
176.84895	1011.33929
181.15975	1437.76786
185.46741	2016.33929
189.77193	2793.625
194.07331	3778.33929
198.37157	4884.19643
202.6667	6081.33929
206.9587	7255.33929
211.24758	8492.76786
215.53334	9779.33929
219.81599	11175.05357
224.09553	12742.33929
228.37195	14455.05357
232.64527	16441.91071
236.91549	18341.33929
241.18261	20047.625
245.44663	21547.33929
249.70755	22836.33929
253.96539	23868.76786
258.22014	24784.625
262.4718	25500.05357
266.72039	25949.19643
270.96589	25957.625
275.20832	25621.05357
279.44768	25100.625
283.68397	24462.625
287.91719	23935.625
292.14735	23953.91071
296.37445	24429.48214
300.59849	25509.76786
304.81948	26882.76786
309.03742	27939.91071
313.25231	28063.19643
317.46415	26840.19643
321.67296	24879.05357
325.87872	23068.19643
330.08145	22263.48214
334.28114	22221.76786
338.47781	22700.05357
342.67145	23414.05357
346.86207	24468.48214
351.04966	26029.05357
355.23424	27855.33929
359.4158	29277.19643
363.59435	29904.48214
367.76989	30014.76786
371.94243	29937.625
376.11196	29792.625
380.27849	29505.625
384.44203	29218.05357
388.60257	28772.91071
392.76012	28480.19643
396.91468	28558.91071
401.06626	29172.625
405.21485	29683.19643
409.36047	29152.76786
413.50311	27653.33929
417.64277	26035.91071
421.77947	25071.76786
425.9132	24667.48214
430.04396	24543.48214
434.17176	24699.33929
438.2966	25111.625
442.41849	25828.33929
446.53742	26596.625
450.6534	27357.33929
454.76644	27853.33929
458.87653	27930.76786
462.98368	27640.91071
467.08789	27149.48214
471.18916	26586.91071
475.2875	25841.76786
479.38291	25275.33929
483.4754	24802.05357
487.56496	24386.48214
491.6516	24210.625
495.73531	24060.91071
499.81612	24098.48214
503.89401	24402.05357
507.96899	24802.19643
512.04106	25295.19643
516.11023	25888.625
520.1765	26325.91071
524.23987	26424.48214
528.30034	26036.76786
532.35792	25682.91071
536.41261	25300.19643
540.46441	24751.91071
544.51333	24432.19643
548.55936	24458.76786
552.60252	24826.48214
556.64279	25349.19643
560.6802	25684.48214
564.71473	26031.91071
568.7464	27108.625
572.7752	27636.19643
576.80114	26589.05357
580.82422	25350.19643
584.84444	24871.05357
588.86181	24983.76786
592.87633	25390.33929
596.888	25966.33929
600.89682	26796.05357
604.9028	29806.91071
608.90594	38554.91071
612.90624	50354.625
616.90371	48930.19643
620.89834	34376.19643
624.89015	27300.625
628.87913	25982.05357
632.86528	26216.76786
636.84862	26561.48214
640.82913	26114.05357
644.80683	24851.76786
648.78172	23994.76786
652.75379	23979.48214
656.72306	24914.625
660.68952	26170.625
664.65319	25904.05357
668.61405	24634.91071
672.57211	24076.91071
676.52738	24103.625
680.47986	24096.05357
684.42955	23831.05357
688.37646	23751.33929
692.32058	23788.33929
696.26192	23950.33929
700.20048	24223.05357
704.13626	24357.625
708.06928	24229.33929
711.99952	23930.76786
715.927	23947.19643
719.85171	24096.48214
723.77365	24205.91071
727.69284	24131.76786
731.60928	24040.625
735.52295	23976.625
739.43388	24030.91071
743.34206	24182.05357
747.24749	24211.48214
751.15017	24281.05357
755.05012	24614.76786
758.94733	25693.48214
762.8418	28388.76786
766.73354	33078.33929
770.62254	37900.48214
774.50882	40746.76786
778.39237	39527.33929
782.27321	34455.76786
786.15132	29185.33929
790.02671	26128.48214
793.89938	24760.05357
797.76935	24247.76786
801.6366	24012.625
805.50115	23891.19643
809.36299	23810.05357
813.22213	23724.33929
817.07857	23696.33929
820.93231	23663.33929
824.78336	23741.05357
828.63172	23918.625
832.47738	23981.05357
836.32036	23930.625
840.16066	23820.05357
843.99827	23757.91071
847.8332	23733.33929
851.66546	23681.05357
855.49504	23735.33929
859.32195	23730.48214
863.1462	23654.91071
866.96777	23573.05357
870.78668	23573.48214
874.60293	23631.19643
878.41652	23780.33929
882.22745	23869.05357
886.03573	23953.19643
889.84136	23941.05357
893.64433	23807.625
897.44466	23772.19643
901.24235	23697.91071
905.0374	23633.33929
908.8298	23449.05357
912.61957	23322.91071
916.40671	23363.19643
920.19121	23484.91071
923.97308	23716.48214
927.75233	24161.05357
931.52895	24583.19643
935.30295	24467.625
939.07433	23781.33929
942.84309	23216.19643
946.60924	22904.48214
950.37278	22699.05357
954.13371	22543.19643
957.89203	22377.48214
961.64774	22333.76786
965.40086	22239.91071
969.15137	22174.05357
972.89929	22091.91071
976.64461	22156.33929
980.38733	22121.19643
984.12747	22203.19643
987.86502	22379.76786
991.59999	22614.625
995.33237	23015.33929
999.06217	23637.625
1002.78939	24390.33929
1006.51404	24954.76786
1010.23611	25284.19643
1013.95561	25512.33929
1017.67255	25548.05357
1021.38692	25296.625
1025.09872	25046.33929
1028.80796	25217.625
1032.51465	25819.05357
1036.21877	26410.76786
1039.92035	26550.05357
1043.61937	26309.33929
1047.31584	25765.48214
1051.00976	25104.33929
1054.70114	24609.91071
1058.38998	24361.05357
1062.07627	24345.33929
1065.76003	24276.48214
1069.44126	24219.91071
1073.11995	24370.05357
1076.79611	24716.91071
1080.46974	25306.48214
1084.14085	26042.76786
1087.80943	26735.05357
1091.47549	26933.48214
1095.13903	26415.48214
1098.80005	25520.91071
1102.45857	24997.33929
1106.11456	24937.625
1109.76805	25300.625
1113.41903	26068.91071
1117.06751	27068.625
1120.71348	28438.33929
1124.35696	29818.625
1127.99793	30754.05357
1131.63641	30267.76786
1135.2724	28716.33929
1138.90589	27237.76786
1142.5369	26350.625
1146.16542	25720.33929
1149.79145	25338.76786
1153.415	25237.76786
1157.03607	25333.05357
1160.65467	25717.19643
1164.27079	26564.33929
1167.88443	27803.625
1171.49561	29823.19643
1175.10432	33094.05357
1178.71056	37636.48214
1182.31434	41519.05357
1185.91565	42791.19643
1189.51451	41451.33929
1193.11091	38542.48214
1196.70485	35468.625
1200.29634	33454.91071
1203.88538	31992.625
1207.47197	30224.625
1211.05612	28610.48214
1214.63782	27797.91071
1218.21708	27529.19643
1221.79391	27572.91071
1225.36829	27610.48214
1228.94024	27482.625
1232.50976	27194.625
1236.07685	27046.625
1239.6415	27144.625
1243.20374	27391.91071
1246.76355	27746.76786
1250.32093	28172.05357
1253.8759	28839.48214
1257.42845	29707.33929
1260.97859	30660.33929
1264.52631	31588.19643
1268.07163	32454.91071
1271.61453	33230.625
1275.15503	33836.19643
1278.69312	34210.76786
1282.22882	34587.48214
1285.76211	35254.625
1289.29301	36202.33929
1292.82151	37252.19643
1296.34761	38491.91071
1299.87133	40583.76786
1303.39266	44445.76786
1306.9116	50150.76786
1310.42815	56061.48214
1313.94233	58231.05357
1317.45412	55374.625
1320.96354	50007.91071
1324.47058	44759.48214
1327.97525	40830.91071
1331.47754	38519.33929
1334.97747	37916.625
1338.47502	38660.48214
1341.97022	40269.91071
1345.46305	42669.48214
1348.95352	45615.76786
1352.44163	49539.05357
1355.92738	55410.33929
1359.41078	64341.19643
1362.89183	71814.33929
1366.37053	67996.76786
1369.84688	56278.05357
1373.32088	46079.625
1376.79254	39886.76786
1380.26186	36546.05357
1383.72883	34562.625
1387.19347	33137.48214
1390.65578	31874.625
1394.11575	30919.19643
1397.57339	30538.19643
1401.0287	30614.05357
1404.48168	30819.625
1407.93234	31230.76786
1411.38068	31794.625
1414.82669	32246.05357
1418.27039	32289.625
1421.71177	31812.19643
1425.15083	31309.48214
1428.58758	31055.48214
1432.02203	31380.76786
1435.45416	31787.76786
1438.88399	31843.76786
1442.31151	31820.48214
1445.73673	31919.33929
1449.15965	32075.76786
1452.58027	31980.33929
1455.9986	31560.625
1459.41463	31312.33929
1462.82837	31509.625
1466.23982	32242.91071
1469.64898	33003.625
1473.05586	33531.625
1476.46045	33908.76786
1479.86276	34438.625
1483.26279	35227.91071
1486.66054	36246.48214
1490.05602	37485.19643
1493.44922	39258.625
1496.84016	41799.19643
1500.22882	45725.625
1503.61521	51730.625
1506.99934	59163.19643
1510.38121	65158.76786
1513.76081	66391.48214
1517.13816	61229.76786
1520.51324	52675.625
1523.88607	44893.625
1527.25665	39870.19643
1530.62498	37055.625
1533.99105	35405.19643
1537.35488	34494.48214
1540.71647	34143.48214
1544.07581	34134.48214
1547.4329	34311.76786
1550.78776	34485.05357
1554.14038	34587.625
1557.49077	34922.76786
1560.83892	35362.48214
1564.18484	36293.625
1567.52853	37335.19643
1570.86999	38213.48214
1574.20922	38536.625
1577.54624	38159.19643
1580.88103	36277.48214
1584.2136	33970.91071
1587.54395	32814.33929
1590.87208	33358.48214
1594.19801	35415.76786
1597.52172	38148.33929
1600.84321	39482.76786
1604.16251	38496.33929
1607.47959	36100.91071
1610.79447	33469.05357
1614.10715	30874.625
1617.41763	28973.19643
1620.7259	27777.48214
1624.03199	27323.76786
1627.33587	27505.05357
1630.63757	28241.625
1633.93707	29549.76786
1637.23439	31580.91071
1640.52951	34641.33929
1643.82246	38977.91071
1647.11321	44115.33929
1650.40179	47441.48214
1653.68819	45621.76786
1656.97241	39359.76786
1660.25446	33012.91071
1663.53433	28703.76786
1666.81203	26342.05357
1670.08756	24844.05357
1673.36092	24029.33929
1676.63211	23451.33929
1679.90115	23100.33929
1683.16801	22784.05357
1686.43272	22577.91071
1689.69527	22366.05357
1692.95567	22272.19643
1696.2139	22205.76786
1699.46999	22190.05357
1702.72392	22128.76786
1705.97571	22092.48214
1709.22535	22108.33929
1712.47284	22102.91071
1715.71819	22136.19643
1718.96139	22082.48214
1722.20246	21969.625
1725.44139	21913.19643
1728.67818	21763.19643
1731.91284	21660.05357
1735.14537	21563.33929
1738.37576	21447.19643
1741.60403	21437.625
1744.83017	21350.91071
1748.05418	21291.48214
1751.27607	21269.625
1754.49584	21202.625
1757.71349	21216.76786
1760.92903	21179.76786
1764.14244	21118.19643
1767.35375	21129.91071
1770.56294	21100.625
1773.77002	21032.33929
1776.97499	20969.48214
1780.17785	20947.76786
1783.37861	20890.33929
1786.57727	20864.48214
1789.77382	20822.625
1792.96828	20812.05357
1796.16064	20763.76786
1799.3509	20732.33929
1802.53907	20710.19643
1805.72514	20690.625
1808.90913	20614.33929
1812.09102	20581.48214
1815.27083	20538.05357
1818.44856	20480.33929
1821.6242	20488.48214
1824.79776	20440.19643
1827.96924	20405.91071
1831.13864	20366.625
1834.30597	20361.33929
1837.47122	20347.33929
1840.6344	20365.91071
1843.7955	20344.05357
1846.95454	20336.76786
1850.11151	20337.76786
1853.26642	20273.19643
1856.41926	20269.48214
1859.57004	20242.19643
1862.71876	20258.05357
1865.86542	20289.05357
1869.01003	20301.625
1872.15258	20330.33929
1875.29308	20310.19643
1878.43152	20288.33929
1881.56792	20287.48214
1884.70227	20303.91071
1887.83457	20276.625
1890.96482	20220.91071
1894.09304	20215.19643
1897.21921	20212.19643
1900.34335	20197.76786
1903.46544	20200.91071
1906.58551	20172.91071
1909.70353	20121.91071
1912.81953	20121.91071
1915.93349	20072.76786
1919.04543	20106.625
1922.15534	20097.19643
1925.26322	20052.05357
1928.36908	20001.19643
1931.47292	20012.19643
1934.57473	19918.76786
1937.67453	19850.19643
1940.77232	19815.05357
1943.86808	19778.33929
1946.96184	19694.76786
1950.05358	19665.48214
1953.14331	19610.05357
1956.23103	19589.76786
1959.31675	19554.76786
1962.40046	19512.76786
1965.48217	19447.625
1968.56188	19424.76786
1971.63959	19356.91071
1974.7153	19350.76786
1977.78901	19311.48214
1980.86073	19229.91071
1983.93046	19158.05357
1986.99819	19060.76786
1990.06394	18971.48214
1993.1277	18969.19643
1996.18947	18895.625
1999.24925	18800.19643
2002.30706	18783.33929
2005.36288	18712.33929
2008.41672	18657.625
2011.46859	18629.91071
2014.51848	18593.76786
2017.56639	18534.33929
2020.61233	18510.05357
2023.6563	18489.48214
2026.6983	18418.91071
2029.73833	18373.76786
2032.7764	18331.48214
2035.8125	18347.625
2038.84664	18263.19643
2041.87881	18253.33929
2044.90903	18235.33929
2047.93729	18212.48214
2050.96359	18187.76786
2053.98794	18177.91071
2057.01034	18141.19643
2060.03078	18105.19643
2063.04927	18125.625
2066.06582	18110.91071
2069.08042	18022.76786
2072.09307	18025.91071
2075.10378	18068.76786
2078.11255	18014.91071
2081.11938	18042.05357
2084.12426	18076.05357
2087.12722	18027.33929
2090.12824	18013.05357
2093.12732	17999.05357
2096.12447	17990.48214
2099.11969	18017.05357
2102.11299	18027.05357
2105.10435	18051.76786
2108.09379	18022.19643
2111.08131	18052.05357
2114.0669	18101.48214
2117.05057	18064.33929
2120.03233	18126.19643
2123.01216	18137.33929
2125.99008	18164.76786
2128.96609	18195.91071
2131.94018	18232.625
2134.91236	18231.48214
2137.88263	18222.625
2140.851	18198.48214
2143.81746	18260.05357
2146.78201	18195.19643
2149.74466	18224.33929
2152.7054	18250.33929
2155.66425	18215.05357
2158.6212	18198.48214
2161.57625	18142.625
2164.52941	18166.33929
2167.48067	18127.05357
2170.43004	18149.33929
2173.37752	18218.33929
2176.32311	18179.48214
2179.26681	18216.05357
2182.20863	18191.19643
2185.14856	18216.625
2188.08661	18166.19643
2191.02278	18196.625
2193.95707	18214.76786
2196.88948	18167.76786
2199.82001	18145.05357
2202.74867	18194.19643
2205.67545	18175.48214
2208.60037	18184.48214
2211.52341	18130.19643
2214.44458	18120.48214
2217.36388	18110.76786
2220.28132	18093.05357
2223.1969	18027.33929
2226.11061	17999.91071
2229.02246	17994.19643
2231.93245	17947.48214
2234.84058	17871.33929
2237.74686	17839.625
2240.65128	17862.33929
2243.55385	17844.05357
2246.45456	17845.48214
2249.35343	17846.05357
2252.25044	17851.91071
2255.14561	17794.91071
2258.03893	17762.625
2260.93041	17834.48214
2263.82004	17777.05357
2266.70783	17711.76786
2269.59378	17651.625
2272.4779	17620.48214
2275.36017	17611.33929
2278.24061	17548.19643
2281.11922	17527.91071
2283.996	17530.76786
2286.87094	17505.91071
2289.74405	17512.76786
2292.61534	17458.05357
2295.4848	17439.19643
2298.35243	17436.05357
2301.21824	17475.33929
2304.08223	17452.625
2306.94439	17465.05357
2309.80474	17473.19643
2312.66327	17481.05357
2315.51999	17483.05357
2318.37489	17509.91071
2321.22797	17406.91071
2324.07925	17404.48214
2326.92871	17401.625
2329.77637	17378.625
2332.62222	17361.19643
2335.46626	17376.48214
2338.3085	17360.91071
2341.14893	17375.33929
2343.98756	17410.76786
2346.8244	17384.625
2349.65943	17378.48214
2352.49267	17378.05357
2355.32411	17437.48214
2358.15376	17450.19643
2360.98161	17456.33929
2363.80768	17391.625
2366.63195	17414.625
2369.45444	17384.19643
2372.27514	17344.33929
2375.09405	17338.48214
2377.91118	17305.48214
2380.72652	17246.76786
2383.54009	17150.91071
2386.35187	17108.48214
2389.16188	17078.33929
2391.97011	17045.91071
2394.77657	17022.76786
2397.58125	17015.33929
2400.38416	16982.48214
2403.18529	16911.19643
2405.98466	16918.91071
2408.78226	16858.625
2411.57809	16831.625
2414.37216	16753.625
2417.16446	16808.91071
2419.955	16744.19643
2422.74378	16734.91071
2425.5308	16712.19643
2428.31606	16717.91071
2431.09956	16714.19643
2433.88131	16743.625
2436.6613	16714.19643
2439.43954	16716.91071
2442.21603	16734.91071
2444.99077	16719.33929
2447.76377	16706.91071
2450.53501	16733.48214
2453.30451	16730.76786
2456.07226	16705.76786
2458.83827	16695.48214
2461.60254	16698.05357
2464.36507	16632.625
2467.12586	16624.625
2469.88492	16595.625
2472.64224	16636.625
2475.39782	16660.48214
2478.15167	16697.19643
2480.90379	16707.48214
2483.65417	16757.19643
2486.40283	16778.91071
2489.14976	16809.91071
2491.89497	16830.33929
2494.63845	16845.19643
2497.3802	16812.33929
2500.12024	16805.91071
2502.85855	16794.05357
2505.59514	16725.05357
2508.33002	16691.33929
2511.06318	16630.19643
2513.79462	16590.91071
2516.52435	16539.19643
2519.25237	16502.625
2521.97867	16461.91071
2524.70327	16461.05357
2527.42616	16437.625
2530.14734	16375.91071
2532.86681	16413.05357
2535.58458	16437.19643
2538.30065	16376.48214
2541.01501	16391.48214
2543.72768	16398.91071
2546.43864	16372.625
2549.14791	16391.76786
2551.85548	16308.48214
2554.56136	16360.48214
2557.26554	16334.91071
2559.96803	16306.33929
2562.66883	16318.33929
2565.36794	16262.625
2568.06536	16261.625
2570.7611	16226.625
2573.45514	16208.625
2576.14751	16174.91071
2578.83819	16183.48214
2581.52719	16163.625
2584.21451	16123.19643
2586.90015	16148.48214
2589.58411	16096.91071
2592.2664	16088.05357
2594.94701	16085.48214
2597.62594	16079.76786
2600.30321	16062.19643
2602.9788	16026.05357
2605.65273	16017.19643
2608.32498	16059.19643
2610.99557	16040.91071
2613.66449	16060.91071
2616.33175	16036.05357
2618.99734	16079.91071
2621.66128	16043.05357
2624.32355	16037.05357
2626.98416	16031.91071
2629.64311	15988.76786
2632.30041	15997.76786
2634.95605	15971.19643
2637.61004	15941.76786
2640.26238	15891.48214
2642.91306	15883.05357
2645.56209	15885.91071
2648.20948	15861.33929
2650.85521	15832.625
2653.4993	15813.76786
2656.14175	15837.76786
2658.78255	15824.48214
2661.42171	15841.625
2664.05923	15895.33929
2666.6951	15904.33929
2669.32934	15918.76786
2671.96194	15931.76786
2674.59291	15944.76786
2677.22224	15959.76786
2679.84993	15936.76786
2682.476	15927.33929
2685.10043	15900.05357
2687.72324	15874.625
2690.34441	15879.76786
2692.96396	15917.33929
2695.58188	15872.48214
2698.19818	15860.05357
2700.81285	15843.05357
2703.4259	15812.19643
2706.03733	15852.05357
2708.64714	15893.76786
2711.25533	15875.05357
2713.86191	15858.625
2716.46687	15882.48214
2719.07021	15912.05357
2721.67194	15902.05357
2724.27206	15894.48214
2726.87057	15924.625
2729.46747	15905.76786
2732.06276	15912.625
2734.65644	15884.625
2737.24852	15850.91071
2739.83899	15813.48214
2742.42786	15858.48214
2745.01513	15806.48214
2747.60079	15798.625
2750.18486	15782.05357
2752.76733	15772.625
2755.3482	15775.48214
2757.92747	15770.48214
2760.50515	15760.76786
2763.08123	15739.05357
2765.65573	15719.625
2768.22863	15703.05357
2770.79994	15699.76786
2773.36967	15675.76786
2775.9378	15664.91071
2778.50435	15666.625
2781.06932	15683.48214
2783.6327	15676.19643
2786.1945	15675.19643
2788.75471	15620.05357
2791.31335	15622.76786
2793.87041	15612.76786
2796.42589	15575.19643
2798.97979	15592.625
2801.53212	15567.05357
2804.08288	15574.625
2806.63206	15557.19643
2809.17967	15532.76786
2811.72571	15466.625
2814.27018	15505.91071
2816.81308	15502.76786
2819.35442	15483.05357
2821.89419	15470.19643
2824.43239	15477.05357
2826.96904	15468.48214
2829.50412	15455.33929
2832.03763	15431.48214
2834.56959	15467.91071
2837.1	15417.19643
2839.62884	15425.48214
2842.15613	15431.48214
2844.68186	15425.76786
2847.20604	15420.625
2849.72867	15461.33929
2852.24974	15415.48214
2854.76927	15404.625
2857.28724	15418.05357
2859.80367	15417.33929
2862.31855	15422.33929
2864.83189	15446.48214
2867.34368	15406.48214
2869.85393	15408.48214
2872.36264	15391.48214
2874.8698	15415.91071
2877.37543	15381.33929
2879.87952	15386.48214
2882.38207	15359.05357
2884.88308	15345.91071
2887.38256	15354.625
2889.88051	15388.76786
2892.37692	15379.19643
2894.8718	15361.76786
2897.36515	15369.625
2899.85698	15390.48214
2902.34727	15430.19643
2904.83604	15408.625
2907.32328	15432.33929
2909.809	15407.91071
2912.29319	15430.33929
2914.77587	15391.76786
2917.25702	15407.48214
2919.73665	15380.625
2922.21476	15406.48214
2924.69136	15363.33929
2927.16644	15374.19643
2929.64	15337.33929
2932.11205	15291.48214
2934.58258	15264.625
2937.05161	15305.76786
2939.51912	15271.33929
2941.98513	15247.19643
2944.44962	15236.91071
2946.91261	15218.76786
2949.37409	15215.05357
2951.83407	15215.05357
2954.29254	15211.05357
2956.74951	15174.05357
2959.20498	15160.76786
2961.65895	15133.48214
2964.11142	15107.48214
2966.56239	15116.05357
2969.01186	15108.33929
2971.45984	15036.625
2973.90632	15019.48214
2976.35131	14985.48214
2978.7948	14977.91071
2981.23681	14935.19643
2983.67732	14914.76786
2986.11635	14913.76786
2988.55388	14856.19643
2990.98993	14841.33929
2993.4245	14816.91071
2995.85758	14821.76786
2998.28917	14762.48214
3000.71928	14791.48214
3003.14791	14759.19643
3005.57506	14778.91071
3008.00073	14727.05357
3010.42493	14682.48214
3012.84764	14680.625
3015.26888	14687.05357
3017.68865	14636.48214
3020.10694	14643.625
3022.52376	14613.625
3024.9391	14540.19643
3027.35298	14548.33929
3029.76539	14526.91071
3032.17632	14507.625
3034.5858	14477.33929
3036.9938	14472.48214
3039.40034	14457.625
3041.80542	14457.05357
3044.20903	14404.76786
3046.61118	14398.625
3049.01187	14386.19643
3051.4111	14354.19643
3053.80888	14353.05357
3056.20519	14312.76786
3058.60005	14266.91071
3060.99345	14216.91071
3063.3854	14211.05357
3065.7759	14136.19643
3068.16494	14138.33929
3070.55254	14115.48214
3072.93868	14039.48214
3075.32338	14013.625
3077.70662	13981.76786
3080.08842	13970.76786
3082.46878	13961.91071
3084.84769	13940.19643
3087.22515	13940.19643
3089.60118	13945.19643
3091.97576	13986.76786
3094.3489	13923.33929
3096.72061	13950.76786
3099.09087	13951.48214
3101.4597	13906.76786
3103.82709	13906.48214
3106.19305	13917.91071
3108.55757	13908.48214
3110.92066	13864.625
3113.28232	13871.91071
3115.64255	13841.05357
3118.00134	13797.33929
3120.35871	13782.76786
3122.71466	13765.33929
3125.06917	13712.33929
3127.42226	13732.33929
3129.77393	13706.76786
3132.12417	13707.91071
3134.47299	13723.48214
3136.82039	13669.625
3139.16636	13719.91071
3141.51092	13707.91071
3143.85406	13741.33929
3146.19579	13731.48214
3148.53609	13707.91071
3150.87499	13743.33929
3153.21246	13739.05357
3155.54853	13753.05357
3157.88318	13755.76786
3160.21642	13779.625
3162.54826	13780.48214
3164.87868	13783.48214
3167.2077	13756.33929
3169.5353	13746.91071
3171.86151	13756.625
3174.18631	13767.91071
3176.5097	13731.48214
3178.83169	13695.05357
3181.15228	13763.19643
3183.47147	13711.91071
3185.78926	13708.48214
3188.10565	13712.05357
3190.42065	13723.19643
3192.73424	13717.91071
3195.04645	13698.05357
3197.35725	13706.19643
3199.66667	13711.19643
3201.97469	13688.19643
3204.28132	13724.625
3206.58656	13743.33929
3208.8904	13775.91071
3211.19287	13780.05357
3213.49394	13802.91071
3215.79363	13787.05357
3218.09193	13815.19643
3220.38884	13820.48214
3222.68438	13859.48214
3224.97853	13870.76786
3227.2713	13829.19643
3229.56269	13805.33929
3231.8527	13823.91071
3234.14133	13792.91071
3236.42858	13786.05357
3238.71446	13766.625
3240.99896	13736.48214
3243.28209	13685.76786
3245.56384	13672.05357
3247.84423	13697.05357
3250.12324	13694.33929
3252.40088	13692.76786
3254.67715	13668.625
3256.95205	13690.05357
3259.22558	13670.91071
3261.49775	13660.625
3263.76855	13672.76786
3266.03799	13635.19643
3268.30606	13634.19643
3270.57277	13607.48214
3272.83812	13621.91071
3275.10211	13565.76786
3277.36474	13543.05357
3279.62601	13566.19643
3281.88593	13542.91071
3284.14448	13523.33929
3286.40168	13524.19643
3288.65753	13501.625
3290.91202	13486.76786
3293.16516	13497.91071
3295.41695	13487.625
3297.66738	13446.33929
3299.91647	13361.625
3302.16421	13274.48214
3304.4106	13197.76786
3306.65564	13141.76786
3308.89933	13027.48214
3311.14169	12956.48214
3313.38269	12846.19643
3315.62236	12771.625
3317.86068	12669.05357
3320.09766	12582.48214
3322.3333	12529.76786
3324.5676	12460.33929
3326.80056	12280.48214
3329.03219	12198.625
3331.26248	2.76786
3333.49143	-0.375
3335.71905	0.48214
