Data from AgNPs_FTO_APTES_UA_20uM_CRN_1000uM_R6G_10uM_NaF_0.1M_Addition_RamanShift__6__19-18-45-012.txt Node

Date: Thu Feb 17 19:18:45 GMT 2022
User: TCL
Spectrometer: QEP01345
Trigger mode: 4
Integration Time (sec): 1.000000E1
Scans to average: 7
Electric dark correction enabled: true
Nonlinearity correction enabled: false
Boxcar width: 0
XAxis mode: Raman Shifts
Number of Pixels in Spectrum: 1044
>>>>>Begin Spectral Data<<<<<
46.04893	1.16071
50.45542	-2.125
54.85868	0.58929
59.25871	-2.83929
63.6555	79.73214
68.04907	81.58929
72.43941	88.58929
76.82654	87.58929
81.21044	93.73214
85.59113	95.30357
89.96862	99.30357
94.34289	104.01786
98.71396	110.58929
103.08183	105.30357
107.4465	113.44643
111.80798	115.01786
116.16626	114.875
120.52136	121.58929
124.87327	126.58929
129.222	128.16071
133.56755	137.875
137.90993	152.875
142.24913	164.01786
146.58517	177.30357
150.91804	206.875
155.24774	247.01786
159.57429	305.30357
163.89768	392.73214
168.21792	525.73214
172.53501	723.875
176.84895	1007.58929
181.15975	1422.875
185.46741	2007.73214
189.77193	2799.30357
194.07331	3768.01786
198.37157	4907.44643
202.6667	6060.58929
206.9587	7256.44643
211.24758	8395.16071
215.53334	9551.73214
219.81599	10762.58929
224.09553	12083.875
228.37195	13608.73214
232.64527	15274.01786
236.91549	17008.58929
241.18261	18700.01786
245.44663	20257.01786
249.70755	21607.01786
253.96539	22711.875
258.22014	23627.73214
262.4718	24450.44643
266.72039	24929.30357
270.96589	25107.73214
275.20832	25075.01786
279.44768	24804.875
283.68397	24495.01786
287.91719	24151.58929
292.14735	23970.875
296.37445	23941.30357
300.59849	24111.58929
304.81948	24444.73214
309.03742	24701.44643
313.25231	24783.30357
317.46415	24650.73214
321.67296	24210.58929
325.87872	23773.44643
330.08145	23509.44643
334.28114	23477.30357
338.47781	23657.58929
342.67145	23993.01786
346.86207	24372.44643
351.04966	24951.58929
355.23424	25502.875
359.4158	25965.58929
363.59435	26243.44643
367.76989	26421.875
371.94243	26478.44643
376.11196	26524.01786
380.27849	26642.73214
384.44203	26736.44643
388.60257	26851.30357
392.76012	27009.30357
396.91468	27236.44643
401.06626	27568.58929
405.21485	27781.44643
409.36047	27588.01786
413.50311	27185.44643
417.64277	26743.44643
421.77947	26597.16071
425.9132	26568.01786
430.04396	26707.30357
434.17176	26911.16071
438.2966	27211.73214
442.41849	27722.16071
446.53742	28505.30357
450.6534	29234.58929
454.76644	29666.16071
458.87653	29728.875
462.98368	29529.30357
467.08789	29157.01786
471.18916	28748.16071
475.2875	28150.44643
479.38291	27649.44643
483.4754	27302.73214
487.56496	27018.01786
491.6516	26867.875
495.73531	26847.875
499.81612	26770.73214
503.89401	26997.01786
507.96899	27126.58929
512.04106	27187.44643
516.11023	27282.01786
520.1765	27309.30357
524.23987	27411.73214
528.30034	27419.73214
532.35792	27411.01786
536.41261	27229.73214
540.46441	26931.875
544.51333	26844.875
548.55936	26918.16071
552.60252	27246.73214
556.64279	27797.58929
560.6802	28116.73214
564.71473	28215.30357
568.7464	28278.16071
572.7752	28608.30357
576.80114	28776.30357
580.82422	28986.01786
584.84444	29514.875
588.86181	30595.875
592.87633	32004.01786
596.888	32776.01786
600.89682	32282.44643
604.9028	32303.44643
608.90594	34650.58929
612.90624	38083.875
616.90371	36764.44643
620.89834	31025.30357
624.89015	28146.30357
628.87913	27669.44643
632.86528	27832.73214
636.84862	28047.73214
640.82913	27899.01786
644.80683	27320.58929
648.78172	26881.875
652.75379	26880.58929
656.72306	27233.875
660.68952	27676.30357
664.65319	27496.16071
668.61405	26971.875
672.57211	26858.16071
676.52738	26998.73214
680.47986	27149.73214
684.42955	27001.73214
688.37646	26738.44643
692.32058	26733.30357
696.26192	26898.73214
700.20048	27180.58929
704.13626	27392.01786
708.06928	27359.73214
711.99952	27236.16071
715.927	27142.30357
719.85171	27243.58929
723.77365	27193.875
727.69284	27080.58929
731.60928	26903.58929
735.52295	26886.73214
739.43388	26973.16071
743.34206	27024.44643
747.24749	27088.16071
751.15017	27191.01786
755.05012	27413.16071
758.94733	27988.875
762.8418	29254.16071
766.73354	31435.01786
770.62254	33691.73214
774.50882	34396.01786
778.39237	33330.58929
782.27321	31202.16071
786.15132	29123.58929
790.02671	27806.44643
793.89938	27117.875
797.76935	26834.44643
801.6366	26706.875
805.50115	26615.16071
809.36299	26498.875
813.22213	26350.875
817.07857	26254.30357
820.93231	26243.16071
824.78336	26185.73214
828.63172	26217.875
832.47738	26167.16071
836.32036	26164.01786
840.16066	26215.73214
843.99827	26182.44643
847.8332	26227.875
851.66546	26174.30357
855.49504	26232.30357
859.32195	26274.73214
863.1462	26264.875
866.96777	26288.73214
870.78668	26214.44643
874.60293	26304.58929
878.41652	26380.44643
882.22745	26443.16071
886.03573	26526.01786
889.84136	26523.875
893.64433	26434.30357
897.44466	26324.01786
901.24235	26254.01786
905.0374	26152.58929
908.8298	26095.16071
912.61957	25985.58929
916.40671	26063.875
920.19121	26219.73214
923.97308	26408.01786
927.75233	26552.73214
931.52895	26519.01786
935.30295	26270.73214
939.07433	25896.16071
942.84309	25659.58929
946.60924	25467.01786
950.37278	25374.16071
954.13371	25320.16071
957.89203	25287.01786
961.64774	25278.44643
965.40086	25273.16071
969.15137	25226.44643
972.89929	25211.16071
976.64461	25193.875
980.38733	25240.58929
984.12747	25270.875
987.86502	25366.58929
991.59999	25533.16071
995.33237	25749.44643
999.06217	26061.73214
1002.78939	26413.30357
1006.51404	26869.875
1010.23611	27192.58929
1013.95561	27466.73214
1017.67255	27634.30357
1021.38692	27436.16071
1025.09872	27100.30357
1028.80796	26759.30357
1032.51465	26694.58929
1036.21877	26721.16071
1039.92035	26822.01786
1043.61937	26852.16071
1047.31584	26843.01786
1051.00976	26773.01786
1054.70114	26761.16071
1058.38998	26744.01786
1062.07627	26767.73214
1065.76003	26907.01786
1069.44126	27122.30357
1073.11995	27436.73214
1076.79611	27710.44643
1080.46974	27907.01786
1084.14085	28216.01786
1087.80943	28386.01786
1091.47549	28569.73214
1095.13903	28444.44643
1098.80005	28094.16071
1102.45857	27734.44643
1106.11456	27506.875
1109.76805	27499.73214
1113.41903	27629.58929
1117.06751	27939.01786
1120.71348	28327.30357
1124.35696	28833.01786
1127.99793	29252.73214
1131.63641	29306.44643
1135.2724	29012.30357
1138.90589	28605.875
1142.5369	28385.73214
1146.16542	28290.16071
1149.79145	28248.16071
1153.415	28175.16071
1157.03607	28365.875
1160.65467	28764.44643
1164.27079	29491.73214
1167.88443	30566.58929
1171.49561	32003.30357
1175.10432	34035.16071
1178.71056	36594.30357
1182.31434	38985.01786
1185.91565	39982.875
1189.51451	39730.16071
1193.11091	38567.73214
1196.70485	37304.30357
1200.29634	35963.58929
1203.88538	34722.01786
1207.47197	33491.875
1211.05612	32430.30357
1214.63782	31722.44643
1218.21708	31358.30357
1221.79391	31331.73214
1225.36829	31421.30357
1228.94024	31466.16071
1232.50976	31149.73214
1236.07685	30799.16071
1239.6415	30511.16071
1243.20374	30374.44643
1246.76355	30470.16071
1250.32093	30623.16071
1253.8759	30962.01786
1257.42845	31570.73214
1260.97859	32220.73214
1264.52631	32953.30357
1268.07163	33625.58929
1271.61453	34301.01786
1275.15503	34789.875
1278.69312	35282.01786
1282.22882	35769.73214
1285.76211	36530.73214
1289.29301	37514.73214
1292.82151	38657.58929
1296.34761	40015.30357
1299.87133	41732.01786
1303.39266	43838.30357
1306.9116	46442.01786
1310.42815	49196.58929
1313.94233	50822.16071
1317.45412	50276.16071
1320.96354	48411.44643
1324.47058	46168.58929
1327.97525	44251.30357
1331.47754	42856.44643
1334.97747	42019.875
1338.47502	41854.875
1341.97022	42146.58929
1345.46305	42901.44643
1348.95352	44112.73214
1352.44163	45814.01786
1355.92738	48052.58929
1359.41078	51203.875
1362.89183	53811.16071
1366.37053	53000.44643
1369.84688	48074.16071
1373.32088	42387.30357
1376.79254	38582.01786
1380.26186	36911.16071
1383.72883	36180.16071
1387.19347	35674.30357
1390.65578	34976.875
1394.11575	34418.44643
1397.57339	34292.73214
1401.0287	34411.16071
1404.48168	34487.16071
1407.93234	34486.73214
1411.38068	34321.73214
1414.82669	34143.16071
1418.27039	33678.875
1421.71177	33199.44643
1425.15083	32575.73214
1428.58758	32239.44643
1432.02203	32368.30357
1435.45416	32843.58929
1438.88399	33302.875
1442.31151	33483.44643
1445.73673	33629.44643
1449.15965	33684.58929
1452.58027	33590.73214
1455.9986	33355.44643
1459.41463	33372.58929
1462.82837	33683.16071
1466.23982	34262.58929
1469.64898	34903.875
1473.05586	35423.875
1476.46045	35792.73214
1479.86276	35951.01786
1483.26279	36080.73214
1486.66054	36315.875
1490.05602	36799.01786
1493.44922	37614.30357
1496.84016	38763.01786
1500.22882	40309.875
1503.61521	42442.44643
1506.99934	44705.875
1510.38121	46364.30357
1513.76081	46324.44643
1517.13816	44405.01786
1520.51324	41497.16071
1523.88607	39156.875
1527.25665	37720.30357
1530.62498	37068.875
1533.99105	36702.01786
1537.35488	36347.58929
1540.71647	35885.73214
1544.07581	35321.73214
1547.4329	34761.16071
1550.78776	34196.16071
1554.14038	33782.30357
1557.49077	33655.44643
1560.83892	33662.44643
1564.18484	33905.875
1567.52853	34388.01786
1570.86999	34866.30357
1574.20922	35312.44643
1577.54624	35369.01786
1580.88103	34742.73214
1584.2136	33982.44643
1587.54395	33708.875
1590.87208	34352.73214
1594.19801	35970.16071
1597.52172	37949.30357
1600.84321	39042.58929
1604.16251	38499.01786
1607.47959	36746.16071
1610.79447	34578.73214
1614.10715	32458.30357
1617.41763	30718.58929
1620.7259	29428.44643
1624.03199	28687.58929
1627.33587	28583.73214
1630.63757	28952.01786
1633.93707	30080.44643
1637.23439	32102.01786
1640.52951	35245.875
1643.82246	39238.44643
1647.11321	42840.44643
1650.40179	44066.58929
1653.68819	41630.16071
1656.97241	36991.30357
1660.25446	32467.16071
1663.53433	29302.44643
1666.81203	27372.875
1670.08756	26245.44643
1673.36092	25509.01786
1676.63211	24996.73214
1679.90115	24607.30357
1683.16801	24325.44643
1686.43272	24059.73214
1689.69527	23928.16071
1692.95567	23760.58929
1696.2139	23631.58929
1699.46999	23575.73214
1702.72392	23506.44643
1705.97571	23445.30357
1709.22535	23424.16071
1712.47284	23369.01786
1715.71819	23432.73214
1718.96139	23321.73214
1722.20246	23227.44643
1725.44139	23170.30357
1728.67818	23075.58929
1731.91284	22974.16071
1735.14537	22877.44643
1738.37576	22809.44643
1741.60403	22742.44643
1744.83017	22661.01786
1748.05418	22546.30357
1751.27607	22567.44643
1754.49584	22540.01786
1757.71349	22520.875
1760.92903	22469.875
1764.14244	22443.58929
1767.35375	22454.01786
1770.56294	22349.875
1773.77002	22331.16071
1776.97499	22278.44643
1780.17785	22239.30357
1783.37861	22182.44643
1786.57727	22115.73214
1789.77382	22091.01786
1792.96828	22060.73214
1796.16064	22001.30357
1799.3509	21954.16071
1802.53907	21859.58929
1805.72514	21824.58929
1808.90913	21801.44643
1812.09102	21767.73214
1815.27083	21716.58929
1818.44856	21689.73214
1821.6242	21680.58929
1824.79776	21648.30357
1827.96924	21635.16071
1831.13864	21566.58929
1834.30597	21548.30357
1837.47122	21535.16071
1840.6344	21555.58929
1843.7955	21536.875
1846.95454	21516.30357
1850.11151	21478.58929
1853.26642	21435.44643
1856.41926	21425.73214
1859.57004	21418.875
1862.71876	21388.58929
1865.86542	21391.30357
1869.01003	21329.73214
1872.15258	21343.58929
1875.29308	21311.875
1878.43152	21275.58929
1881.56792	21303.44643
1884.70227	21275.73214
1887.83457	21245.16071
1890.96482	21234.44643
1894.09304	21189.16071
1897.21921	21155.73214
1900.34335	21164.16071
1903.46544	21160.30357
1906.58551	21111.58929
1909.70353	21065.30357
1912.81953	21042.30357
1915.93349	21030.58929
1919.04543	20933.73214
1922.15534	20912.44643
1925.26322	20887.30357
1928.36908	20819.875
1931.47292	20824.875
1934.57473	20788.44643
1937.67453	20756.73214
1940.77232	20668.73214
1943.86808	20587.58929
1946.96184	20567.16071
1950.05358	20499.73214
1953.14331	20482.44643
1956.23103	20455.44643
1959.31675	20391.01786
1962.40046	20310.58929
1965.48217	20268.30357
1968.56188	20209.875
1971.63959	20107.73214
1974.7153	20075.16071
1977.78901	20047.73214
1980.86073	19964.73214
1983.93046	19932.73214
1986.99819	19842.01786
1990.06394	19756.58929
1993.1277	19705.875
1996.18947	19648.16071
1999.24925	19582.30357
2002.30706	19528.58929
2005.36288	19462.30357
2008.41672	19430.58929
2011.46859	19325.16071
2014.51848	19290.16071
2017.56639	19225.44643
2020.61233	19178.01786
2023.6563	19084.875
2026.6983	19056.73214
2029.73833	19047.58929
2032.7764	18957.875
2035.8125	18953.58929
2038.84664	18862.01786
2041.87881	18897.16071
2044.90903	18871.875
2047.93729	18800.73214
2050.96359	18856.73214
2053.98794	18815.01786
2057.01034	18810.44643
2060.03078	18774.30357
2063.04927	18749.01786
2066.06582	18720.58929
2069.08042	18750.30357
2072.09307	18691.16071
2075.10378	18707.44643
2078.11255	18676.30357
2081.11938	18698.44643
2084.12426	18664.58929
2087.12722	18688.44643
2090.12824	18675.44643
2093.12732	18676.73214
2096.12447	18684.58929
2099.11969	18653.30357
2102.11299	18626.58929
2105.10435	18626.44643
2108.09379	18660.58929
2111.08131	18655.01786
2114.0669	18686.01786
2117.05057	18721.73214
2120.03233	18728.73214
2123.01216	18752.01786
2125.99008	18771.30357
2128.96609	18818.16071
2131.94018	18833.01786
2134.91236	18814.30357
2137.88263	18798.01786
2140.851	18822.875
2143.81746	18816.875
2146.78201	18815.44643
2149.74466	18803.875
2152.7054	18834.01786
2155.66425	18823.44643
2158.6212	18801.30357
2161.57625	18780.44643
2164.52941	18775.58929
2167.48067	18760.44643
2170.43004	18741.73214
2173.37752	18772.73214
2176.32311	18784.01786
2179.26681	18782.30357
2182.20863	18740.875
2185.14856	18770.01786
2188.08661	18715.875
2191.02278	18760.30357
2193.95707	18747.16071
2196.88948	18716.875
2199.82001	18704.01786
2202.74867	18645.16071
2205.67545	18638.875
2208.60037	18675.30357
2211.52341	18577.73214
2214.44458	18553.44643
2217.36388	18529.875
2220.28132	18485.44643
2223.1969	18461.875
2226.11061	18448.58929
2229.02246	18418.16071
2231.93245	18342.01786
2234.84058	18352.58929
2237.74686	18303.73214
2240.65128	18325.16071
2243.55385	18304.01786
2246.45456	18279.16071
2249.35343	18207.58929
2252.25044	18237.58929
2255.14561	18175.58929
2258.03893	18190.875
2260.93041	18124.01786
2263.82004	18102.58929
2266.70783	18059.16071
2269.59378	17982.16071
2272.4779	17990.16071
2275.36017	17947.875
2278.24061	17920.30357
2281.11922	17829.58929
2283.996	17799.73214
2286.87094	17846.875
2289.74405	17811.58929
2292.61534	17767.30357
2295.4848	17714.875
2298.35243	17754.16071
2301.21824	17748.30357
2304.08223	17719.73214
2306.94439	17686.01786
2309.80474	17659.58929
2312.66327	17641.73214
2315.51999	17639.73214
2318.37489	17605.16071
2321.22797	17630.73214
2324.07925	17569.44643
2326.92871	17549.875
2329.77637	17499.73214
2332.62222	17478.58929
2335.46626	17464.875
2338.3085	17471.01786
2341.14893	17452.01786
2343.98756	17449.875
2346.8244	17434.44643
2349.65943	17391.875
2352.49267	17401.30357
2355.32411	17405.73214
2358.15376	17406.58929
2360.98161	17431.30357
2363.80768	17403.875
2366.63195	17383.58929
2369.45444	17351.58929
2372.27514	17331.16071
2375.09405	17287.44643
2377.91118	17311.16071
2380.72652	17221.01786
2383.54009	17167.58929
2386.35187	17184.30357
2389.16188	17100.01786
2391.97011	17101.875
2394.77657	17094.73214
2397.58125	17050.16071
2400.38416	17030.58929
2403.18529	16978.44643
2405.98466	16941.30357
2408.78226	16890.01786
2411.57809	16899.58929
2414.37216	16858.875
2417.16446	16881.58929
2419.955	16803.875
2422.74378	16859.58929
2425.5308	16860.44643
2428.31606	16769.30357
2431.09956	16847.16071
2433.88131	16817.16071
2436.6613	16789.875
2439.43954	16775.73214
2442.21603	16787.30357
2444.99077	16769.58929
2447.76377	16736.73214
2450.53501	16700.58929
2453.30451	16707.875
2456.07226	16681.73214
2458.83827	16665.44643
2461.60254	16667.875
2464.36507	16649.44643
2467.12586	16647.58929
2469.88492	16604.16071
2472.64224	16610.01786
2475.39782	16583.30357
2478.15167	16623.875
2480.90379	16621.01786
2483.65417	16626.01786
2486.40283	16603.44643
2489.14976	16637.30357
2491.89497	16618.16071
2494.63845	16626.875
2497.3802	16606.73214
2500.12024	16598.44643
2502.85855	16559.01786
2505.59514	16503.875
2508.33002	16510.875
2511.06318	16473.30357
2513.79462	16466.58929
2516.52435	16452.875
2519.25237	16424.30357
2521.97867	16342.875
2524.70327	16362.44643
2527.42616	16356.01786
2530.14734	16314.58929
2532.86681	16320.73214
2535.58458	16332.16071
2538.30065	16259.58929
2541.01501	16233.58929
2543.72768	16245.58929
2546.43864	16251.01786
2549.14791	16189.58929
2551.85548	16192.73214
2554.56136	16190.01786
2557.26554	16146.875
2559.96803	16115.44643
2562.66883	16072.58929
2565.36794	16049.01786
2568.06536	16040.58929
2570.7611	16013.30357
2573.45514	15989.58929
2576.14751	15944.73214
2578.83819	15905.73214
2581.52719	15895.16071
2584.21451	15901.58929
2586.90015	15882.01786
2589.58411	15850.875
2592.2664	15838.30357
2594.94701	15784.875
2597.62594	15764.44643
2600.30321	15742.01786
2602.9788	15703.16071
2605.65273	15679.16071
2608.32498	15686.44643
2610.99557	15716.58929
2613.66449	15723.875
2616.33175	15673.30357
2618.99734	15634.44643
2621.66128	15655.44643
2624.32355	15588.01786
2626.98416	15588.30357
2629.64311	15574.58929
2632.30041	15558.73214
2634.95605	15525.875
2637.61004	15453.875
2640.26238	15484.58929
2642.91306	15453.44643
2645.56209	15490.44643
2648.20948	15480.30357
2650.85521	15456.73214
2653.4993	15464.58929
2656.14175	15446.73214
2658.78255	15467.01786
2661.42171	15462.73214
2664.05923	15506.44643
2666.6951	15476.30357
2669.32934	15489.875
2671.96194	15465.30357
2674.59291	15479.30357
2677.22224	15450.875
2679.84993	15471.01786
2682.476	15433.44643
2685.10043	15442.58929
2687.72324	15465.30357
2690.34441	15441.73214
2692.96396	15418.875
2695.58188	15418.875
2698.19818	15422.01786
2700.81285	15430.30357
2703.4259	15409.30357
2706.03733	15446.16071
2708.64714	15417.16071
2711.25533	15448.30357
2713.86191	15436.01786
2716.46687	15473.44643
2719.07021	15459.30357
2721.67194	15482.01786
2724.27206	15497.16071
2726.87057	15485.01786
2729.46747	15417.58929
2732.06276	15431.44643
2734.65644	15418.44643
2737.24852	15448.44643
2739.83899	15402.01786
2742.42786	15420.875
2745.01513	15382.875
2747.60079	15349.875
2750.18486	15314.44643
2752.76733	15302.44643
2755.3482	15336.58929
2757.92747	15333.875
2760.50515	15288.58929
2763.08123	15261.30357
2765.65573	15234.01786
2768.22863	15252.44643
2770.79994	15240.58929
2773.36967	15244.44643
2775.9378	15189.73214
2778.50435	15174.16071
2781.06932	15160.01786
2783.6327	15145.01786
2786.1945	15113.58929
2788.75471	15094.30357
2791.31335	15044.30357
2793.87041	15038.73214
2796.42589	15013.73214
2798.97979	15074.58929
2801.53212	14995.44643
2804.08288	14978.58929
2806.63206	14924.01786
2809.17967	14889.875
2811.72571	14860.16071
2814.27018	14851.875
2816.81308	14789.16071
2819.35442	14790.16071
2821.89419	14763.30357
2824.43239	14759.30357
2826.96904	14738.58929
2829.50412	14765.30357
2832.03763	14722.875
2834.56959	14730.58929
2837.1	14733.73214
2839.62884	14685.875
2842.15613	14663.16071
2844.68186	14682.58929
2847.20604	14658.44643
2849.72867	14652.16071
2852.24974	14653.73214
2854.76927	14611.58929
2857.28724	14598.875
2859.80367	14555.875
2862.31855	14543.30357
2864.83189	14541.73214
2867.34368	14544.01786
2869.85393	14542.73214
2872.36264	14531.73214
2874.8698	14471.30357
2877.37543	14491.44643
2879.87952	14471.44643
2882.38207	14433.30357
2884.88308	14481.01786
2887.38256	14474.58929
2889.88051	14502.30357
2892.37692	14496.73214
2894.8718	14488.875
2897.36515	14513.01786
2899.85698	14527.01786
2902.34727	14529.44643
2904.83604	14514.16071
2907.32328	14522.73214
2909.809	14542.58929
2912.29319	14575.875
2914.77587	14570.875
2917.25702	14586.01786
2919.73665	14548.44643
2922.21476	14579.58929
2924.69136	14571.58929
2927.16644	14572.30357
2929.64	14548.73214
2932.11205	14513.30357
2934.58258	14464.30357
2937.05161	14510.875
2939.51912	14517.30357
2941.98513	14448.58929
2944.44962	14456.44643
2946.91261	14404.73214
2949.37409	14424.16071
2951.83407	14381.01786
2954.29254	14364.875
2956.74951	14342.875
2959.20498	14372.44643
2961.65895	14343.875
2964.11142	14335.73214
2966.56239	14306.16071
2969.01186	14319.73214
2971.45984	14258.30357
2973.90632	14242.73214
2976.35131	14225.30357
2978.7948	14186.58929
2981.23681	14154.73214
2983.67732	14100.73214
2986.11635	14115.30357
2988.55388	14076.58929
2990.98993	14075.44643
2993.4245	14002.58929
2995.85758	14007.73214
2998.28917	13961.01786
3000.71928	13969.30357
3003.14791	13950.58929
3005.57506	13908.16071
3008.00073	13883.875
3010.42493	13879.01786
3012.84764	13838.16071
3015.26888	13824.16071
3017.68865	13791.01786
3020.10694	13792.875
3022.52376	13765.01786
3024.9391	13746.16071
3027.35298	13681.16071
3029.76539	13681.01786
3032.17632	13675.58929
3034.5858	13663.58929
3036.9938	13644.30357
3039.40034	13644.44643
3041.80542	13646.30357
3044.20903	13600.875
3046.61118	13592.875
3049.01187	13548.875
3051.4111	13562.01786
3053.80888	13544.30357
3056.20519	13489.30357
3058.60005	13454.44643
3060.99345	13454.16071
3063.3854	13427.16071
3065.7759	13361.58929
3068.16494	13377.16071
3070.55254	13291.73214
3072.93868	13319.875
3075.32338	13241.73214
3077.70662	13214.44643
3080.08842	13230.875
3082.46878	13186.44643
3084.84769	13168.44643
3087.22515	13192.73214
3089.60118	13188.16071
3091.97576	13217.01786
3094.3489	13178.73214
3096.72061	13179.875
3099.09087	13208.30357
3101.4597	13164.875
3103.82709	13146.16071
3106.19305	13149.16071
3108.55757	13170.16071
3110.92066	13133.875
3113.28232	13087.01786
3115.64255	13080.30357
3118.00134	13052.44643
3120.35871	13058.58929
3122.71466	12988.58929
3125.06917	13008.58929
3127.42226	12945.16071
3129.77393	12996.58929
3132.12417	12965.58929
3134.47299	12948.875
3136.82039	12926.30357
3139.16636	12943.44643
3141.51092	12945.30357
3143.85406	12947.44643
3146.19579	12953.73214
3148.53609	12941.875
3150.87499	12945.58929
3153.21246	12980.73214
3155.54853	12964.73214
3157.88318	12975.16071
3160.21642	13011.73214
3162.54826	12996.01786
3164.87868	13011.30357
3167.2077	12968.01786
3169.5353	12943.01786
3171.86151	12972.44643
3174.18631	12980.16071
3176.5097	12977.875
3178.83169	12958.01786
3181.15228	12938.44643
3183.47147	12897.44643
3185.78926	12862.16071
3188.10565	12859.875
3190.42065	12836.30357
3192.73424	12876.44643
3195.04645	12844.875
3197.35725	12842.01786
3199.66667	12830.73214
3201.97469	12804.875
3204.28132	12824.16071
3206.58656	12839.44643
3208.8904	12883.30357
3211.19287	12900.01786
3213.49394	12884.01786
3215.79363	12914.58929
3218.09193	12885.875
3220.38884	12850.73214
3222.68438	12885.44643
3224.97853	12884.875
3227.2713	12863.875
3229.56269	12846.875
3231.8527	12869.44643
3234.14133	12836.30357
3236.42858	12770.30357
3238.71446	12764.73214
3240.99896	12727.875
3243.28209	12695.875
3245.56384	12674.44643
3247.84423	12706.73214
3250.12324	12701.30357
3252.40088	12663.44643
3254.67715	12657.01786
3256.95205	12638.875
3259.22558	12635.73214
3261.49775	12622.30357
3263.76855	12622.01786
3266.03799	12574.30357
3268.30606	12597.73214
3270.57277	12578.73214
3272.83812	12524.30357
3275.10211	12519.58929
3277.36474	12486.58929
3279.62601	12487.44643
3281.88593	12461.73214
3284.14448	12464.44643
3286.40168	12456.16071
3288.65753	12472.73214
3290.91202	12435.58929
3293.16516	12437.30357
3295.41695	12415.875
3297.66738	12336.58929
3299.91647	12276.875
3302.16421	12212.30357
3304.4106	12154.58929
3306.65564	12079.44643
3308.89933	11992.30357
3311.14169	11907.73214
3313.38269	11830.73214
3315.62236	11754.16071
3317.86068	11631.875
3320.09766	11555.58929
3322.3333	11479.30357
3324.5676	11429.58929
3326.80056	11278.73214
3329.03219	11220.58929
3331.26248	2.73214
3333.49143	-0.26786
3335.71905	-0.26786
