Data from AgNPs_FTO_APTES_UA_20uM_CRN_0uM_R6G_10uM_NaF_0.1M_Addition_RamanShift__7__10-57-51-927.txt Node

Date: Thu Feb 17 10:57:51 GMT 2022
User: TCL
Spectrometer: QEP01345
Trigger mode: 4
Integration Time (sec): 7.000000E0
Scans to average: 10
Electric dark correction enabled: true
Nonlinearity correction enabled: false
Boxcar width: 0
XAxis mode: Raman Shifts
Number of Pixels in Spectrum: 1044
>>>>>Begin Spectral Data<<<<<
46.04893	1.1
50.45542	-0.1
54.85868	-0.4
59.25871	-0.6
63.6555	40
68.04907	35.1
72.43941	40.9
76.82654	42
81.21044	44.7
85.59113	48.2
89.96862	49.9
94.34289	50.7
98.71396	49.9
103.08183	54.8
107.4465	54.5
111.80798	53
116.16626	55.6
120.52136	58.2
124.87327	60.6
129.222	65.4
133.56755	68.7
137.90993	67
142.24913	77.7
146.58517	86.8
150.91804	105.3
155.24774	118.9
159.57429	149.8
163.89768	194
168.21792	257.3
172.53501	350.5
176.84895	490.1
181.15975	692
185.46741	970.3
189.77193	1336.9
194.07331	1812.8
198.37157	2359.3
202.6667	2939.8
206.9587	3515.7
211.24758	4083.7
215.53334	4656
219.81599	5279.1
224.09553	5970.8
228.37195	6724.9
232.64527	7521
236.91549	8361.1
241.18261	9154.5
245.44663	9850.1
249.70755	10440.4
253.96539	10961.2
258.22014	11347.8
262.4718	11666.8
266.72039	11898.4
270.96589	11986
275.20832	11887.6
279.44768	11710.4
283.68397	11474.8
287.91719	11285.3
292.14735	11194.1
296.37445	11188.3
300.59849	11349.6
304.81948	11585.6
309.03742	11832
313.25231	11912
317.46415	11723.6
321.67296	11249.6
325.87872	10660.7
330.08145	10323.4
334.28114	10202.8
338.47781	10269.8
342.67145	10438.6
346.86207	10704.4
351.04966	11113.7
355.23424	11545.1
359.4158	11823.4
363.59435	11891.8
367.76989	11812.5
371.94243	11668
376.11196	11521.8
380.27849	11442.2
384.44203	11338.5
388.60257	11304.5
392.76012	11367.5
396.91468	11573.4
401.06626	11796.6
405.21485	11891.5
409.36047	11692.8
413.50311	11288
417.64277	10938.3
421.77947	10764.9
425.9132	10779.6
430.04396	10767.1
434.17176	10787
438.2966	10790.6
442.41849	10897.1
446.53742	11111
450.6534	11270.7
454.76644	11336.3
458.87653	11276.4
462.98368	11228.1
467.08789	11072.7
471.18916	10938.6
475.2875	10711.8
479.38291	10531.7
483.4754	10385.3
487.56496	10305.6
491.6516	10235
495.73531	10197.2
499.81612	10193.9
503.89401	10273.8
507.96899	10366.1
512.04106	10486.7
516.11023	10555
520.1765	10579.7
524.23987	10550.6
528.30034	10494.9
532.35792	10397.4
536.41261	10236.8
540.46441	10058.3
544.51333	9990.9
548.55936	10027.4
552.60252	10209.8
556.64279	10423.8
560.6802	10595.2
564.71473	10714.1
568.7464	10999.1
572.7752	11281.5
576.80114	11373.7
580.82422	11479.4
584.84444	11731.8
588.86181	12170.3
592.87633	12671.1
596.888	12931.9
600.89682	12629.8
604.9028	12788.5
608.90594	14673.3
612.90624	17678.6
616.90371	17263.8
620.89834	13016.6
624.89015	10711.9
628.87913	10282.1
632.86528	10452.7
636.84862	10562.7
640.82913	10339.2
644.80683	9907.9
648.78172	9590.7
652.75379	9601.7
656.72306	9855.8
660.68952	10167
664.65319	10071
668.61405	9667.4
672.57211	9416
676.52738	9427.9
680.47986	9466.1
684.42955	9401.2
688.37646	9349.7
692.32058	9358.6
696.26192	9451.3
700.20048	9552.3
704.13626	9663.3
708.06928	9703.8
711.99952	9612.5
715.927	9583.5
719.85171	9549.5
723.77365	9548.8
727.69284	9421.1
731.60928	9248.7
735.52295	9220.8
739.43388	9211.3
743.34206	9257.1
747.24749	9283.6
751.15017	9389.9
755.05012	9565.8
758.94733	9948.2
762.8418	10902.2
766.73354	12469.2
770.62254	13955.7
774.50882	14306.7
778.39237	13557.6
782.27321	12227.9
786.15132	10880.6
790.02671	9952.9
793.89938	9515.7
797.76935	9264.9
801.6366	9187.8
805.50115	9098.5
809.36299	9018.2
813.22213	8932.6
817.07857	8857.8
820.93231	8846.6
824.78336	8840.6
828.63172	8837.7
832.47738	8829.9
836.32036	8818.9
840.16066	8772.1
843.99827	8748.8
847.8332	8745.4
851.66546	8769.8
855.49504	8792.6
859.32195	8752.1
863.1462	8721
866.96777	8719.5
870.78668	8735.9
874.60293	8738.1
878.41652	8744.3
882.22745	8798.3
886.03573	8858.6
889.84136	8867.6
893.64433	8884
897.44466	8895.1
901.24235	8946
905.0374	8967.1
908.8298	8902.8
912.61957	8891.7
916.40671	8911.5
920.19121	8995.5
923.97308	9114.8
927.75233	9261.5
931.52895	9302.2
935.30295	9121.9
939.07433	8818.9
942.84309	8598.7
946.60924	8443.3
950.37278	8358.8
954.13371	8303.1
957.89203	8284.2
961.64774	8237.4
965.40086	8200.2
969.15137	8184.7
972.89929	8127.7
976.64461	8098.4
980.38733	8045.2
984.12747	8047.3
987.86502	8039.1
991.59999	8069.2
995.33237	8164.9
999.06217	8269.9
1002.78939	8432.9
1006.51404	8645.6
1010.23611	8848.6
1013.95561	8953.9
1017.67255	8936.1
1021.38692	8808.9
1025.09872	8629
1028.80796	8444.9
1032.51465	8378.6
1036.21877	8389.4
1039.92035	8424.8
1043.61937	8496.2
1047.31584	8565.1
1051.00976	8607.8
1054.70114	8637.4
1058.38998	8644.9
1062.07627	8635
1065.76003	8655
1069.44126	8698.6
1073.11995	8831.1
1076.79611	8992.8
1080.46974	9156.7
1084.14085	9399.4
1087.80943	9680.5
1091.47549	9781.7
1095.13903	9610
1098.80005	9311.6
1102.45857	8939.5
1106.11456	8723.2
1109.76805	8701.4
1113.41903	8735.4
1117.06751	8935.3
1120.71348	9220.5
1124.35696	9643.9
1127.99793	10059.9
1131.63641	10090.2
1135.2724	9760.2
1138.90589	9402.9
1142.5369	9175.5
1146.16542	9036.6
1149.79145	9013.8
1153.415	9024.6
1157.03607	9126.6
1160.65467	9366.8
1164.27079	9842.6
1167.88443	10535.9
1171.49561	11383.9
1175.10432	12572.4
1178.71056	14134.8
1182.31434	15550.5
1185.91565	16092.7
1189.51451	15949.2
1193.11091	15324
1196.70485	14350.9
1200.29634	13275.2
1203.88538	12397.2
1207.47197	11686.2
1211.05612	11132.1
1214.63782	10701.7
1218.21708	10373.4
1221.79391	10212.5
1225.36829	10183.3
1228.94024	10158.7
1232.50976	10136.8
1236.07685	10054.4
1239.6415	9978.3
1243.20374	9937.7
1246.76355	9917
1250.32093	9947.1
1253.8759	10093.1
1257.42845	10441.9
1260.97859	10896.6
1264.52631	11401.2
1268.07163	11891.7
1271.61453	12323.7
1275.15503	12615.1
1278.69312	12904.2
1282.22882	13163.1
1285.76211	13641.5
1289.29301	14254.5
1292.82151	14880.7
1296.34761	15596.8
1299.87133	16460.2
1303.39266	17686.7
1306.9116	19260.5
1310.42815	20939.4
1313.94233	21932.5
1317.45412	21326.5
1320.96354	19901
1324.47058	18544.5
1327.97525	17461.8
1331.47754	16746.3
1334.97747	16358.6
1338.47502	16203.3
1341.97022	16409.4
1345.46305	16969.9
1348.95352	17929.6
1352.44163	18935.7
1355.92738	20081.8
1359.41078	21844.8
1362.89183	24010.1
1366.37053	24073.3
1369.84688	20955.6
1373.32088	17124.2
1376.79254	14594
1380.26186	13422.5
1383.72883	12838.2
1387.19347	12329.5
1390.65578	11918.2
1394.11575	11663.8
1397.57339	11696.4
1401.0287	11810.5
1404.48168	11848.7
1407.93234	11741.8
1411.38068	11506.3
1414.82669	11284.9
1418.27039	11046.5
1421.71177	10820.1
1425.15083	10565.2
1428.58758	10446.9
1432.02203	10556.9
1435.45416	10817.3
1438.88399	11016.6
1442.31151	11061.4
1445.73673	11091.9
1449.15965	11150.9
1452.58027	11211.2
1455.9986	11263.5
1459.41463	11373.3
1462.82837	11526.9
1466.23982	11748
1469.64898	11953
1473.05586	12111.3
1476.46045	12192.7
1479.86276	12322.2
1483.26279	12452.1
1486.66054	12726.6
1490.05602	13234.8
1493.44922	14015.5
1496.84016	15063
1500.22882	16525
1503.61521	18223.2
1506.99934	20158.4
1510.38121	21822.5
1513.76081	22289.1
1517.13816	21073
1520.51324	18692.9
1523.88607	16469.3
1527.25665	14991.6
1530.62498	14048
1533.99105	13421.7
1537.35488	12869.3
1540.71647	12383.8
1544.07581	11917.9
1547.4329	11646.1
1550.78776	11467.5
1554.14038	11450.7
1557.49077	11559.4
1560.83892	11790
1564.18484	12108.7
1567.52853	12469.4
1570.86999	12836.4
1574.20922	13053
1577.54624	13093.3
1580.88103	12577.3
1584.2136	11819.6
1587.54395	11466.5
1590.87208	11656.1
1594.19801	12250.2
1597.52172	12911.9
1600.84321	13078.4
1604.16251	12490.6
1607.47959	11610.3
1610.79447	10812.3
1614.10715	10046.7
1617.41763	9298.6
1620.7259	8734.7
1624.03199	8457.2
1627.33587	8452.4
1630.63757	8751.3
1633.93707	9446.9
1637.23439	10691.5
1640.52951	12506.5
1643.82246	14765.8
1647.11321	16946.6
1650.40179	18029.4
1653.68819	17014.6
1656.97241	14360.3
1660.25446	11498.6
1663.53433	9414.8
1666.81203	8184.5
1670.08756	7488
1673.36092	7074.8
1676.63211	6804.1
1679.90115	6635.7
1683.16801	6490.8
1686.43272	6387.8
1689.69527	6318.1
1692.95567	6249.8
1696.2139	6204.2
1699.46999	6184.5
1702.72392	6163
1705.97571	6133.8
1709.22535	6083
1712.47284	6105.6
1715.71819	6104.5
1718.96139	6134.4
1722.20246	6112.9
1725.44139	6072.6
1728.67818	6050.6
1731.91284	6030.2
1735.14537	5990.8
1738.37576	5927.7
1741.60403	5965.6
1744.83017	5989.6
1748.05418	6010.6
1751.27607	6030.7
1754.49584	6050.5
1757.71349	6096.1
1760.92903	6111.7
1764.14244	6153.8
1767.35375	6182.6
1770.56294	6165.6
1773.77002	6198.3
1776.97499	6174.6
1780.17785	6172.7
1783.37861	6152.1
1786.57727	6122.4
1789.77382	6046.1
1792.96828	6026.7
1796.16064	5959
1799.3509	5886.2
1802.53907	5823
1805.72514	5758.7
1808.90913	5670.8
1812.09102	5618.7
1815.27083	5553.4
1818.44856	5497
1821.6242	5455.5
1824.79776	5401.4
1827.96924	5388.9
1831.13864	5360.1
1834.30597	5359.3
1837.47122	5327.1
1840.6344	5309
1843.7955	5312.4
1846.95454	5296.4
1850.11151	5290.8
1853.26642	5280.8
1856.41926	5251.9
1859.57004	5230.1
1862.71876	5219.4
1865.86542	5202.5
1869.01003	5187.6
1872.15258	5172.9
1875.29308	5138.3
1878.43152	5121.5
1881.56792	5101.2
1884.70227	5091.1
1887.83457	5071.3
1890.96482	5065.6
1894.09304	5048
1897.21921	5029.1
1900.34335	4998.5
1903.46544	4996.9
1906.58551	4997.3
1909.70353	4976.9
1912.81953	4970.1
1915.93349	4949.8
1919.04543	4922.5
1922.15534	4909.1
1925.26322	4886.3
1928.36908	4859.7
1931.47292	4845.1
1934.57473	4834.9
1937.67453	4807.3
1940.77232	4781.2
1943.86808	4753.4
1946.96184	4743.2
1950.05358	4719
1953.14331	4699.8
1956.23103	4675.8
1959.31675	4654.1
1962.40046	4650.1
1965.48217	4605.5
1968.56188	4597.1
1971.63959	4598.3
1974.7153	4583
1977.78901	4565.9
1980.86073	4543.1
1983.93046	4517.1
1986.99819	4478.4
1990.06394	4478.8
1993.1277	4451.2
1996.18947	4426.2
1999.24925	4424.4
2002.30706	4392.1
2005.36288	4370.9
2008.41672	4350.9
2011.46859	4335.5
2014.51848	4321.1
2017.56639	4298
2020.61233	4281.7
2023.6563	4260.2
2026.6983	4244.9
2029.73833	4228
2032.7764	4206.4
2035.8125	4217.5
2038.84664	4219.1
2041.87881	4207.4
2044.90903	4180.5
2047.93729	4184.7
2050.96359	4172
2053.98794	4188.8
2057.01034	4152.1
2060.03078	4155.5
2063.04927	4122.8
2066.06582	4143.3
2069.08042	4160
2072.09307	4150.7
2075.10378	4131.9
2078.11255	4132.3
2081.11938	4122.4
2084.12426	4116.1
2087.12722	4106.4
2090.12824	4106.5
2093.12732	4110.9
2096.12447	4105.8
2099.11969	4092.1
2102.11299	4079.3
2105.10435	4080.5
2108.09379	4074.9
2111.08131	4074
2114.0669	4074.2
2117.05057	4066.9
2120.03233	4052.8
2123.01216	4068
2125.99008	4074
2128.96609	4053.3
2131.94018	4046.7
2134.91236	4046.7
2137.88263	4037.6
2140.851	4039.4
2143.81746	4023.5
2146.78201	4023.1
2149.74466	4012.6
2152.7054	4003.6
2155.66425	3993.2
2158.6212	3992.7
2161.57625	3982.2
2164.52941	3980.7
2167.48067	3964.2
2170.43004	3945.7
2173.37752	3957
2176.32311	3945.5
2179.26681	3939.3
2182.20863	3947.8
2185.14856	3943.6
2188.08661	3940.6
2191.02278	3922.1
2193.95707	3917.8
2196.88948	3889.6
2199.82001	3889.4
2202.74867	3890.4
2205.67545	3876.9
2208.60037	3879.2
2211.52341	3855.6
2214.44458	3847.2
2217.36388	3839.8
2220.28132	3822
2223.1969	3818.3
2226.11061	3798.4
2229.02246	3780.3
2231.93245	3785.3
2234.84058	3783.6
2237.74686	3778.5
2240.65128	3777
2243.55385	3748.5
2246.45456	3746.2
2249.35343	3738
2252.25044	3735.6
2255.14561	3739.4
2258.03893	3722.8
2260.93041	3721.5
2263.82004	3724.2
2266.70783	3691.4
2269.59378	3681.2
2272.4779	3677.6
2275.36017	3653.7
2278.24061	3647.1
2281.11922	3644.2
2283.996	3628.5
2286.87094	3621.2
2289.74405	3596.4
2292.61534	3583.1
2295.4848	3577.7
2298.35243	3570.6
2301.21824	3562.9
2304.08223	3544.4
2306.94439	3539.2
2309.80474	3549.3
2312.66327	3536.7
2315.51999	3530.9
2318.37489	3520.2
2321.22797	3517.3
2324.07925	3511.6
2326.92871	3500.4
2329.77637	3508.1
2332.62222	3488.5
2335.46626	3479.2
2338.3085	3469.1
2341.14893	3465
2343.98756	3471.6
2346.8244	3465.7
2349.65943	3463.8
2352.49267	3484.8
2355.32411	3479.7
2358.15376	3486.6
2360.98161	3493.9
2363.80768	3493.7
2366.63195	3482.7
2369.45444	3488.8
2372.27514	3476.8
2375.09405	3479.5
2377.91118	3463
2380.72652	3430.5
2383.54009	3427.4
2386.35187	3398.7
2389.16188	3379.5
2391.97011	3371.8
2394.77657	3357.7
2397.58125	3347.6
2400.38416	3341.3
2403.18529	3315.9
2405.98466	3310.1
2408.78226	3298.1
2411.57809	3311.3
2414.37216	3281.4
2417.16446	3299.5
2419.955	3289.3
2422.74378	3275.3
2425.5308	3275.1
2428.31606	3281.2
2431.09956	3274.3
2433.88131	3275.1
2436.6613	3275.9
2439.43954	3278.2
2442.21603	3266.2
2444.99077	3271.3
2447.76377	3273.7
2450.53501	3262.1
2453.30451	3259.1
2456.07226	3260.3
2458.83827	3268.6
2461.60254	3249.2
2464.36507	3235.2
2467.12586	3246.3
2469.88492	3226.7
2472.64224	3218.6
2475.39782	3231.4
2478.15167	3242
2480.90379	3232.2
2483.65417	3245.7
2486.40283	3251.8
2489.14976	3259.5
2491.89497	3240.5
2494.63845	3238.2
2497.3802	3235.9
2500.12024	3238.5
2502.85855	3224.5
2505.59514	3215
2508.33002	3198.6
2511.06318	3187.6
2513.79462	3181.2
2516.52435	3158.6
2519.25237	3146.9
2521.97867	3132.5
2524.70327	3126
2527.42616	3102.8
2530.14734	3105.3
2532.86681	3093
2535.58458	3093.9
2538.30065	3099.4
2541.01501	3091.8
2543.72768	3092.8
2546.43864	3089.6
2549.14791	3085.1
2551.85548	3080.3
2554.56136	3091.4
2557.26554	3143
2559.96803	3052.9
2562.66883	3051.2
2565.36794	3046.9
2568.06536	3050.4
2570.7611	3038.5
2573.45514	3039.7
2576.14751	3016.4
2578.83819	3007.6
2581.52719	3013.1
2584.21451	3001.3
2586.90015	2999.6
2589.58411	2991
2592.2664	2986.5
2594.94701	2977.5
2597.62594	2970.1
2600.30321	2964.1
2602.9788	2949.5
2605.65273	2955.5
2608.32498	2957.6
2610.99557	2966.9
2613.66449	2951.9
2616.33175	2952.5
2618.99734	2942.8
2621.66128	2942.2
2624.32355	2931.6
2626.98416	2934
2629.64311	2920.2
2632.30041	2913.5
2634.95605	2918.4
2637.61004	2911.2
2640.26238	2887.4
2642.91306	2902.7
2645.56209	2894.1
2648.20948	2882.3
2650.85521	2882.6
2653.4993	2884.1
2656.14175	2890.7
2658.78255	2893.1
2661.42171	2889.1
2664.05923	2890.7
2666.6951	2905.9
2669.32934	2898.4
2671.96194	2903.5
2674.59291	2892.3
2677.22224	2888.8
2679.84993	2896
2682.476	2876.1
2685.10043	2886.7
2687.72324	2878.9
2690.34441	2877.8
2692.96396	2869.4
2695.58188	2867.6
2698.19818	2871.4
2700.81285	2868.8
2703.4259	2852.2
2706.03733	2850.2
2708.64714	2851.8
2711.25533	2857.2
2713.86191	2864.8
2716.46687	2856.6
2719.07021	2860.2
2721.67194	2862.7
2724.27206	2865.1
2726.87057	2857.4
2729.46747	2857.9
2732.06276	2850.5
2734.65644	2848.3
2737.24852	2840.7
2739.83899	2845.7
2742.42786	2839
2745.01513	2819.6
2747.60079	2813.9
2750.18486	2812.4
2752.76733	2809.1
2755.3482	2808
2757.92747	2783.6
2760.50515	2793.6
2763.08123	2782.9
2765.65573	2779.8
2768.22863	2781.2
2770.79994	2770
2773.36967	2764.1
2775.9378	2752.2
2778.50435	2769.8
2781.06932	2766.2
2783.6327	2765.7
2786.1945	2761.3
2788.75471	2759.9
2791.31335	2757.1
2793.87041	2754.4
2796.42589	2744.1
2798.97979	2746.1
2801.53212	2731.1
2804.08288	2733.8
2806.63206	2742.2
2809.17967	2723.9
2811.72571	2722.7
2814.27018	2712.1
2816.81308	2719.2
2819.35442	2705.5
2821.89419	2701.2
2824.43239	2722.2
2826.96904	2709.4
2829.50412	2717.2
2832.03763	2699.5
2834.56959	2704.7
2837.1	2693.8
2839.62884	2703.2
2842.15613	2707.1
2844.68186	2717.8
2847.20604	2723.9
2849.72867	2728.7
2852.24974	2727.1
2854.76927	2725.6
2857.28724	2740.2
2859.80367	2725.4
2862.31855	2721.6
2864.83189	2735.3
2867.34368	2733
2869.85393	2727.4
2872.36264	2726.5
2874.8698	2714.1
2877.37543	2719.9
2879.87952	2717.4
2882.38207	2715
2884.88308	2690.5
2887.38256	2712.1
2889.88051	2694
2892.37692	2703.4
2894.8718	2689.9
2897.36515	2711.3
2899.85698	2707
2902.34727	2714.7
2904.83604	2707.7
2907.32328	2717.8
2909.809	2718.9
2912.29319	2734
2914.77587	2740.8
2917.25702	2749.9
2919.73665	2740.3
2922.21476	2727.9
2924.69136	2729
2927.16644	2710.1
2929.64	2704.4
2932.11205	2703.8
2934.58258	2688.1
2937.05161	2691
2939.51912	2675.7
2941.98513	2675.2
2944.44962	2664.3
2946.91261	2628.5
2949.37409	2645.5
2951.83407	2635.2
2954.29254	2622.1
2956.74951	2625.4
2959.20498	2615.8
2961.65895	2623.9
2964.11142	2607
2966.56239	2598.8
2969.01186	2587.7
2971.45984	2578.6
2973.90632	2565.8
2976.35131	2553
2978.7948	2553.6
2981.23681	2548
2983.67732	2548
2986.11635	2533.8
2988.55388	2523.1
2990.98993	2513.6
2993.4245	2502.7
2995.85758	2499.7
2998.28917	2501.8
3000.71928	2499.1
3003.14791	2489.4
3005.57506	2477.3
3008.00073	2469.8
3010.42493	2472.7
3012.84764	2469.9
3015.26888	2464.1
3017.68865	2461
3020.10694	2461.6
3022.52376	2440.6
3024.9391	2432.7
3027.35298	2430.2
3029.76539	2417.7
3032.17632	2424.4
3034.5858	2406.1
3036.9938	2415
3039.40034	2399.1
3041.80542	2391.3
3044.20903	2395.9
3046.61118	2394.6
3049.01187	2388.3
3051.4111	2389.1
3053.80888	2381.9
3056.20519	2376.8
3058.60005	2377.2
3060.99345	2374.7
3063.3854	2375
3065.7759	2368.8
3068.16494	2357
3070.55254	2360.4
3072.93868	2337.9
3075.32338	2351.2
3077.70662	2346
3080.08842	2335.4
3082.46878	2339.5
3084.84769	2317
3087.22515	2327.4
3089.60118	2328.3
3091.97576	2316.8
3094.3489	2323
3096.72061	2315.2
3099.09087	2329
3101.4597	2338.1
3103.82709	2329
3106.19305	2332.1
3108.55757	2334.7
3110.92066	2337.3
3113.28232	2329.7
3115.64255	2329.6
3118.00134	2314.2
3120.35871	2316.3
3122.71466	2320.2
3125.06917	2315.7
3127.42226	2306.9
3129.77393	2321.6
3132.12417	2314.6
3134.47299	2325.2
3136.82039	2314.2
3139.16636	2328.1
3141.51092	2325.8
3143.85406	2326.1
3146.19579	2338.2
3148.53609	2340
3150.87499	2346.7
3153.21246	2341.6
3155.54853	2348.1
3157.88318	2352.5
3160.21642	2354.8
3162.54826	2359.8
3164.87868	2358.2
3167.2077	2373.6
3169.5353	2367
3171.86151	2361
3174.18631	2365.6
3176.5097	2373.5
3178.83169	2371.6
3181.15228	2365.4
3183.47147	2348
3185.78926	2370.3
3188.10565	2363.1
3190.42065	2352.4
3192.73424	2361.3
3195.04645	2362.5
3197.35725	2342.8
3199.66667	2357.9
3201.97469	2364.3
3204.28132	2369.9
3206.58656	2369.3
3208.8904	2364.3
3211.19287	2365.9
3213.49394	2381.5
3215.79363	2379.8
3218.09193	2382.9
3220.38884	2381.9
3222.68438	2380.8
3224.97853	2382.1
3227.2713	2376.4
3229.56269	2371.7
3231.8527	2371.8
3234.14133	2373.3
3236.42858	2373.4
3238.71446	2357.4
3240.99896	2348.9
3243.28209	2361.6
3245.56384	2352.2
3247.84423	2356.1
3250.12324	2354.2
3252.40088	2349.7
3254.67715	2339.5
3256.95205	2338.5
3259.22558	2335.4
3261.49775	2340.1
3263.76855	2317.9
3266.03799	2309.5
3268.30606	2312.6
3270.57277	2314.8
3272.83812	2316.4
3275.10211	2323.5
3277.36474	2314.6
3279.62601	2318.5
3281.88593	2337.4
3284.14448	2309
3286.40168	2311.4
3288.65753	2315.2
3290.91202	2300.5
3293.16516	2290.3
3295.41695	2294.6
3297.66738	2289.8
3299.91647	2272.6
3302.16421	2261.6
3304.4106	2246.1
3306.65564	2241.9
3308.89933	2217
3311.14169	2195.7
3313.38269	2179.7
3315.62236	2170.8
3317.86068	2145.4
3320.09766	2125.5
3322.3333	2112
3324.5676	2096.4
3326.80056	2061.6
3329.03219	2064.3
3331.26248	0.8
3333.49143	-0.3
3335.71905	-0.9
