Data from AgNPs_FTO_APTES_UA_10uM_CRN_100uM_R6G_10uM_NaF_0.1M_Addition_RamanShift__1__17-15-04-856.txt Node

Date: Thu Feb 17 17:15:04 GMT 2022
User: TCL
Spectrometer: QEP01345
Trigger mode: 4
Integration Time (sec): 1.000000E1
Scans to average: 7
Electric dark correction enabled: true
Nonlinearity correction enabled: false
Boxcar width: 0
XAxis mode: Raman Shifts
Number of Pixels in Spectrum: 1044
>>>>>Begin Spectral Data<<<<<
46.04893	-0.80357
50.45542	-0.80357
54.85868	-0.375
59.25871	-0.94643
63.6555	100.91071
68.04907	96.05357
72.43941	103.48214
76.82654	104.76786
81.21044	112.625
85.59113	112.48214
89.96862	117.76786
94.34289	120.625
98.71396	126.76786
103.08183	126.625
107.4465	134.05357
111.80798	131.48214
116.16626	136.625
120.52136	140.33929
124.87327	147.05357
129.222	154.05357
133.56755	157.76786
137.90993	178.76786
142.24913	189.91071
146.58517	211.33929
150.91804	240.625
155.24774	290.91071
159.57429	355.76786
163.89768	451.48214
168.21792	606.76786
172.53501	827.625
176.84895	1145.19643
181.15975	1638.625
185.46741	2299.19643
189.77193	3182.33929
194.07331	4290.05357
198.37157	5559.76786
202.6667	6879.48214
206.9587	8199.625
211.24758	9527.625
215.53334	10803.76786
219.81599	12181.05357
224.09553	13691.91071
228.37195	15367.33929
232.64527	17177.91071
236.91549	19108.48214
241.18261	21019.76786
245.44663	22813.05357
249.70755	24401.33929
253.96539	25767.33929
258.22014	26944.625
262.4718	27892.76786
266.72039	28572.05357
270.96589	28900.76786
275.20832	28898.33929
279.44768	28587.625
283.68397	28206.05357
287.91719	27750.33929
292.14735	27463.05357
296.37445	27515.91071
300.59849	27720.91071
304.81948	28016.05357
309.03742	28341.91071
313.25231	28389.33929
317.46415	28091.05357
321.67296	27559.625
325.87872	27022.91071
330.08145	26770.48214
334.28114	26822.91071
338.47781	27118.19643
342.67145	27497.48214
346.86207	28059.33929
351.04966	28737.625
355.23424	29433.05357
359.4158	30051.05357
363.59435	30436.19643
367.76989	30611.33929
371.94243	30813.05357
376.11196	30857.05357
380.27849	30981.05357
384.44203	31189.625
388.60257	31261.19643
392.76012	31441.76786
396.91468	31707.91071
401.06626	32073.33929
405.21485	32432.76786
409.36047	32288.625
413.50311	31814.625
417.64277	31247.48214
421.77947	31065.91071
425.9132	31008.19643
430.04396	31115.33929
434.17176	31347.33929
438.2966	31630.625
442.41849	32123.76786
446.53742	32895.33929
450.6534	33715.76786
454.76644	34132.19643
458.87653	34203.625
462.98368	34016.19643
467.08789	33661.19643
471.18916	33292.48214
475.2875	32821.19643
479.38291	32375.76786
483.4754	32011.91071
487.56496	31771.48214
491.6516	31755.76786
495.73531	31751.19643
499.81612	31825.625
503.89401	31996.91071
507.96899	32189.91071
512.04106	32228.48214
516.11023	32326.625
520.1765	32469.91071
524.23987	32595.76786
528.30034	32595.05357
532.35792	32586.48214
536.41261	32426.91071
540.46441	32066.48214
544.51333	31895.19643
548.55936	32013.76786
552.60252	32266.91071
556.64279	32753.33929
560.6802	33065.76786
564.71473	33029.19643
568.7464	33123.48214
572.7752	33322.76786
576.80114	33297.625
580.82422	33272.33929
584.84444	33700.48214
588.86181	34500.05357
592.87633	35614.05357
596.888	36305.05357
600.89682	36205.625
604.9028	36988.91071
608.90594	40378.76786
612.90624	44793.33929
616.90371	43394.625
620.89834	37080.05357
624.89015	34140.33929
628.87913	33679.19643
632.86528	33726.625
636.84862	33840.76786
640.82913	33510.19643
644.80683	32903.48214
648.78172	32446.48214
652.75379	32548.48214
656.72306	32990.48214
660.68952	33614.33929
664.65319	33522.05357
668.61405	33040.625
672.57211	33002.625
676.52738	33089.19643
680.47986	33006.05357
684.42955	32858.19643
688.37646	32852.91071
692.32058	32964.48214
696.26192	33283.91071
700.20048	33623.625
704.13626	33739.19643
708.06928	33499.91071
711.99952	33304.48214
715.927	33309.91071
719.85171	33496.48214
723.77365	33457.48214
727.69284	33214.19643
731.60928	33093.19643
735.52295	33020.19643
739.43388	33067.33929
743.34206	33173.48214
747.24749	33232.19643
751.15017	33289.91071
755.05012	33544.05357
758.94733	34032.76786
762.8418	35346.19643
766.73354	37508.91071
770.62254	39762.19643
774.50882	40744.48214
778.39237	39837.76786
782.27321	37715.91071
786.15132	35672.91071
790.02671	34355.91071
793.89938	33672.33929
797.76935	33391.05357
801.6366	33287.33929
805.50115	33228.05357
809.36299	33120.91071
813.22213	33013.48214
817.07857	33010.33929
820.93231	33000.19643
824.78336	33033.05357
828.63172	33088.33929
832.47738	33222.76786
836.32036	33263.05357
840.16066	33331.91071
843.99827	33402.625
847.8332	33412.33929
851.66546	33323.19643
855.49504	33281.91071
859.32195	33381.48214
863.1462	33343.91071
866.96777	33328.33929
870.78668	33388.625
874.60293	33385.76786
878.41652	33534.91071
882.22745	33573.76786
886.03573	33752.91071
889.84136	33711.33929
893.64433	33609.91071
897.44466	33453.05357
901.24235	33360.91071
905.0374	33294.33929
908.8298	33164.33929
912.61957	33150.19643
916.40671	33203.48214
920.19121	33375.48214
923.97308	33626.05357
927.75233	33893.19643
931.52895	34024.91071
935.30295	33878.48214
939.07433	33534.91071
942.84309	33250.05357
946.60924	33134.05357
950.37278	33054.91071
954.13371	32938.625
957.89203	32791.625
961.64774	32779.48214
965.40086	32730.625
969.15137	32694.05357
972.89929	32693.76786
976.64461	32844.625
980.38733	32838.91071
984.12747	33013.48214
987.86502	33345.33929
991.59999	33641.05357
995.33237	34074.33929
999.06217	34670.19643
1002.78939	35330.625
1006.51404	35702.91071
1010.23611	36019.76786
1013.95561	36194.91071
1017.67255	36240.33929
1021.38692	36120.33929
1025.09872	35938.48214
1028.80796	36033.33929
1032.51465	36676.33929
1036.21877	37413.48214
1039.92035	37629.625
1043.61937	37282.48214
1047.31584	36781.76786
1051.00976	36042.76786
1054.70114	35605.76786
1058.38998	35433.33929
1062.07627	35427.33929
1065.76003	35554.76786
1069.44126	35638.19643
1073.11995	35946.76786
1076.79611	36326.33929
1080.46974	36697.91071
1084.14085	37040.91071
1087.80943	37287.05357
1091.47549	37353.91071
1095.13903	37162.625
1098.80005	36706.625
1102.45857	36390.91071
1106.11456	36162.48214
1109.76805	36185.76786
1113.41903	36426.48214
1117.06751	36645.33929
1120.71348	37012.05357
1124.35696	37459.48214
1127.99793	37779.625
1131.63641	37825.76786
1135.2724	37445.19643
1138.90589	37038.05357
1142.5369	36587.19643
1146.16542	36420.76786
1149.79145	36283.19643
1153.415	36187.625
1157.03607	36138.19643
1160.65467	36527.76786
1164.27079	37259.19643
1167.88443	38236.625
1171.49561	39715.33929
1175.10432	41808.48214
1178.71056	44556.19643
1182.31434	47022.05357
1185.91565	48369.19643
1189.51451	48168.91071
1193.11091	46800.33929
1196.70485	45165.48214
1200.29634	43783.91071
1203.88538	42563.76786
1207.47197	41288.91071
1211.05612	40340.625
1214.63782	39672.48214
1218.21708	39420.91071
1221.79391	39471.625
1225.36829	39618.48214
1228.94024	39565.05357
1232.50976	39208.76786
1236.07685	38744.05357
1239.6415	38597.625
1243.20374	38605.05357
1246.76355	38880.76786
1250.32093	39309.48214
1253.8759	39826.76786
1257.42845	40531.76786
1260.97859	41301.91071
1264.52631	42070.05357
1268.07163	43008.91071
1271.61453	43804.76786
1275.15503	44549.48214
1278.69312	45079.91071
1282.22882	45522.05357
1285.76211	45989.625
1289.29301	46689.76786
1292.82151	47520.33929
1296.34761	48656.91071
1299.87133	50311.19643
1303.39266	52758.91071
1306.9116	55853.76786
1310.42815	59086.33929
1313.94233	60627.91071
1317.45412	59714.625
1320.96354	57225.76786
1324.47058	54414.91071
1327.97525	52021.91071
1331.47754	50277.91071
1334.97747	49534.19643
1338.47502	49351.05357
1341.97022	49605.33929
1345.46305	50246.76786
1348.95352	51569.91071
1352.44163	53476.48214
1355.92738	56349.625
1359.41078	60169.91071
1362.89183	63203.48214
1366.37053	61901.76786
1369.84688	56309.05357
1373.32088	50415.76786
1376.79254	46792.05357
1380.26186	45033.76786
1383.72883	44280.625
1387.19347	43520.91071
1390.65578	42647.19643
1394.11575	41964.48214
1397.57339	41718.05357
1401.0287	41574.91071
1404.48168	41476.48214
1407.93234	41398.76786
1411.38068	41468.19643
1414.82669	41608.19643
1418.27039	41539.19643
1421.71177	41278.625
1425.15083	40822.625
1428.58758	40665.48214
1432.02203	40945.76786
1435.45416	41422.19643
1438.88399	41788.48214
1442.31151	41886.91071
1445.73673	41834.76786
1449.15965	41775.19643
1452.58027	41611.33929
1455.9986	41384.48214
1459.41463	41364.48214
1462.82837	41706.05357
1466.23982	42293.05357
1469.64898	42971.91071
1473.05586	43540.76786
1476.46045	43994.05357
1479.86276	44372.91071
1483.26279	44605.48214
1486.66054	44953.625
1490.05602	45712.05357
1493.44922	46525.48214
1496.84016	47667.33929
1500.22882	49313.91071
1503.61521	51736.48214
1506.99934	54374.91071
1510.38121	56428.76786
1513.76081	56370.33929
1517.13816	54208.05357
1520.51324	50696.33929
1523.88607	47670.91071
1527.25665	45798.76786
1530.62498	44961.33929
1533.99105	44518.33929
1537.35488	44200.19643
1540.71647	43927.19643
1544.07581	43642.91071
1547.4329	43391.33929
1550.78776	43156.33929
1554.14038	42989.76786
1557.49077	42926.05357
1560.83892	43003.76786
1564.18484	43266.33929
1567.52853	43664.76786
1570.86999	44134.625
1574.20922	44530.48214
1577.54624	44530.625
1580.88103	43893.05357
1584.2136	43080.48214
1587.54395	42946.05357
1590.87208	43894.625
1594.19801	45671.76786
1597.52172	47856.625
1600.84321	48938.625
1604.16251	48233.91071
1607.47959	46304.48214
1610.79447	43946.19643
1614.10715	41664.76786
1617.41763	39917.48214
1620.7259	38701.33929
1624.03199	38214.91071
1627.33587	38207.19643
1630.63757	38789.33929
1633.93707	39903.91071
1637.23439	41674.05357
1640.52951	44409.48214
1643.82246	47952.48214
1647.11321	51217.48214
1650.40179	52278.19643
1653.68819	50026.05357
1656.97241	45531.05357
1660.25446	41253.19643
1663.53433	38396.91071
1666.81203	36719.19643
1670.08756	35687.05357
1673.36092	35026.48214
1676.63211	34614.48214
1679.90115	34304.91071
1683.16801	34059.05357
1686.43272	33855.05357
1689.69527	33700.91071
1692.95567	33593.625
1696.2139	33517.19643
1699.46999	33458.33929
1702.72392	33442.48214
1705.97571	33437.05357
1709.22535	33454.48214
1712.47284	33410.91071
1715.71819	33425.91071
1718.96139	33422.33929
1722.20246	33344.91071
1725.44139	33277.33929
1728.67818	33177.19643
1731.91284	33122.48214
1735.14537	33012.19643
1738.37576	32933.625
1741.60403	32884.33929
1744.83017	32785.76786
1748.05418	32774.33929
1751.27607	32702.19643
1754.49584	32664.33929
1757.71349	32724.05357
1760.92903	32693.91071
1764.14244	32671.625
1767.35375	32626.33929
1770.56294	32595.48214
1773.77002	32565.625
1776.97499	32571.33929
1780.17785	32582.625
1783.37861	32582.91071
1786.57727	32453.05357
1789.77382	32431.76786
1792.96828	32441.05357
1796.16064	32397.19643
1799.3509	32323.76786
1802.53907	32320.625
1805.72514	32235.19643
1808.90913	32206.91071
1812.09102	32196.91071
1815.27083	32131.05357
1818.44856	32121.91071
1821.6242	32086.91071
1824.79776	32043.05357
1827.96924	32022.48214
1831.13864	31974.625
1834.30597	32030.625
1837.47122	32013.05357
1840.6344	32009.91071
1843.7955	32033.48214
1846.95454	31968.19643
1850.11151	32024.76786
1853.26642	31940.05357
1856.41926	31882.76786
1859.57004	31886.48214
1862.71876	31880.19643
1865.86542	31950.625
1869.01003	31910.625
1872.15258	31835.19643
1875.29308	31874.19643
1878.43152	31824.625
1881.56792	31844.33929
1884.70227	31847.76786
1887.83457	31812.76786
1890.96482	31794.48214
1894.09304	31763.625
1897.21921	31754.19643
1900.34335	31736.19643
1903.46544	31692.48214
1906.58551	31739.05357
1909.70353	31629.76786
1912.81953	31627.76786
1915.93349	31583.33929
1919.04543	31531.05357
1922.15534	31598.33929
1925.26322	31570.48214
1928.36908	31477.48214
1931.47292	31452.625
1934.57473	31407.48214
1937.67453	31289.625
1940.77232	31275.33929
1943.86808	31206.33929
1946.96184	31070.91071
1950.05358	31026.76786
1953.14331	31048.19643
1956.23103	30950.76786
1959.31675	30941.33929
1962.40046	30843.19643
1965.48217	30741.625
1968.56188	30703.625
1971.63959	30602.76786
1974.7153	30523.33929
1977.78901	30504.76786
1980.86073	30425.48214
1983.93046	30363.91071
1986.99819	30220.19643
1990.06394	30197.05357
1993.1277	30102.625
1996.18947	30010.625
1999.24925	29874.19643
2002.30706	29858.76786
2005.36288	29813.48214
2008.41672	29711.48214
2011.46859	29701.48214
2014.51848	29591.91071
2017.56639	29519.19643
2020.61233	29485.91071
2023.6563	29409.91071
2026.6983	29409.76786
2029.73833	29304.19643
2032.7764	29321.05357
2035.8125	29230.05357
2038.84664	29215.625
2041.87881	29173.91071
2044.90903	29090.625
2047.93729	29058.19643
2050.96359	29080.76786
2053.98794	29029.48214
2057.01034	29040.05357
2060.03078	28972.48214
2063.04927	28962.19643
2066.06582	29008.91071
2069.08042	28957.33929
2072.09307	28998.76786
2075.10378	29003.48214
2078.11255	29018.33929
2081.11938	29008.48214
2084.12426	29028.05357
2087.12722	28950.19643
2090.12824	29007.76786
2093.12732	28959.625
2096.12447	28986.05357
2099.11969	29032.76786
2102.11299	29060.05357
2105.10435	29065.76786
2108.09379	29095.625
2111.08131	29130.05357
2114.0669	29169.48214
2117.05057	29191.625
2120.03233	29204.625
2123.01216	29265.33929
2125.99008	29366.33929
2128.96609	29391.91071
2131.94018	29436.48214
2134.91236	29427.76786
2137.88263	29447.19643
2140.851	29494.76786
2143.81746	29525.19643
2146.78201	29595.625
2149.74466	29636.48214
2152.7054	29607.625
2155.66425	29595.33929
2158.6212	29597.33929
2161.57625	29526.19643
2164.52941	29573.19643
2167.48067	29545.91071
2170.43004	29541.91071
2173.37752	29581.625
2176.32311	29626.19643
2179.26681	29606.76786
2182.20863	29625.05357
2185.14856	29673.76786
2188.08661	29680.625
2191.02278	29720.48214
2193.95707	29706.625
2196.88948	29626.91071
2199.82001	29703.76786
2202.74867	29641.76786
2205.67545	29666.91071
2208.60037	29678.625
2211.52341	29554.91071
2214.44458	29578.19643
2217.36388	29528.48214
2220.28132	29512.48214
2223.1969	29445.48214
2226.11061	29353.05357
2229.02246	29374.625
2231.93245	29336.625
2234.84058	29273.76786
2237.74686	29195.19643
2240.65128	29218.76786
2243.55385	29195.19643
2246.45456	29209.33929
2249.35343	29194.625
2252.25044	29197.625
2255.14561	29144.625
2258.03893	29089.625
2260.93041	29095.19643
2263.82004	28977.05357
2266.70783	28972.33929
2269.59378	28945.05357
2272.4779	28893.33929
2275.36017	28816.33929
2278.24061	28806.76786
2281.11922	28760.48214
2283.996	28764.91071
2286.87094	28741.625
2289.74405	28690.33929
2292.61534	28748.19643
2295.4848	28674.05357
2298.35243	28681.91071
2301.21824	28730.625
2304.08223	28692.625
2306.94439	28671.05357
2309.80474	28709.48214
2312.66327	28689.05357
2315.51999	28714.05357
2318.37489	28759.19643
2321.22797	28626.19643
2324.07925	28634.19643
2326.92871	28589.91071
2329.77637	28516.05357
2332.62222	28533.33929
2335.46626	28552.48214
2338.3085	28539.48214
2341.14893	28509.76786
2343.98756	28498.91071
2346.8244	28480.05357
2349.65943	28394.625
2352.49267	28455.76786
2355.32411	28490.33929
2358.15376	28467.19643
2360.98161	28421.76786
2363.80768	28416.76786
2366.63195	28376.19643
2369.45444	28374.05357
2372.27514	28325.05357
2375.09405	28261.91071
2377.91118	28208.48214
2380.72652	28221.625
2383.54009	28155.625
2386.35187	28153.91071
2389.16188	28060.05357
2391.97011	28085.19643
2394.77657	28016.91071
2397.58125	28035.48214
2400.38416	27997.91071
2403.18529	27990.76786
2405.98466	27963.33929
2408.78226	27877.33929
2411.57809	27839.48214
2414.37216	27816.48214
2417.16446	27749.76786
2419.955	27780.48214
2422.74378	27752.76786
2425.5308	27732.625
2428.31606	27716.91071
2431.09956	27695.91071
2433.88131	27671.33929
2436.6613	27743.05357
2439.43954	27709.76786
2442.21603	27750.05357
2444.99077	27675.91071
2447.76377	27683.33929
2450.53501	27670.33929
2453.30451	27643.91071
2456.07226	27660.33929
2458.83827	27597.625
2461.60254	27629.625
2464.36507	27571.33929
2467.12586	27552.625
2469.88492	27513.76786
2472.64224	27585.625
2475.39782	27573.48214
2478.15167	27588.33929
2480.90379	27609.33929
2483.65417	27678.33929
2486.40283	27723.625
2489.14976	27680.76786
2491.89497	27717.05357
2494.63845	27695.76786
2497.3802	27684.76786
2500.12024	27648.91071
2502.85855	27649.91071
2505.59514	27625.91071
2508.33002	27557.19643
2511.06318	27541.91071
2513.79462	27490.05357
2516.52435	27531.33929
2519.25237	27494.76786
2521.97867	27418.76786
2524.70327	27444.76786
2527.42616	27415.91071
2530.14734	27386.48214
2532.86681	27333.76786
2535.58458	27419.48214
2538.30065	27382.48214
2541.01501	27318.76786
2543.72768	27287.91071
2546.43864	27263.48214
2549.14791	27229.91071
2551.85548	27200.625
2554.56136	27216.76786
2557.26554	27153.76786
2559.96803	27108.33929
2562.66883	27118.19643
2565.36794	27042.19643
2568.06536	27061.05357
2570.7611	27037.76786
2573.45514	26989.91071
2576.14751	26947.19643
2578.83819	26943.625
2581.52719	26970.48214
2584.21451	26924.19643
2586.90015	26886.19643
2589.58411	26846.19643
2592.2664	26788.76786
2594.94701	26780.91071
2597.62594	26751.05357
2600.30321	26696.48214
2602.9788	26699.33929
2605.65273	26674.76786
2608.32498	26696.48214
2610.99557	26673.48214
2613.66449	26640.05357
2616.33175	26609.76786
2618.99734	26637.19643
2621.66128	26621.48214
2624.32355	26575.48214
2626.98416	26547.33929
2629.64311	26558.76786
2632.30041	26506.05357
2634.95605	26492.48214
2637.61004	26428.05357
2640.26238	26361.48214
2642.91306	26457.33929
2645.56209	26447.76786
2648.20948	26449.19643
2650.85521	26409.91071
2653.4993	26418.05357
2656.14175	26384.91071
2658.78255	26319.33929
2661.42171	26341.625
2664.05923	26431.05357
2666.6951	26438.76786
2669.32934	26494.625
2671.96194	26440.625
2674.59291	26465.48214
2677.22224	26458.33929
2679.84993	26486.625
2682.476	26466.33929
2685.10043	26481.19643
2687.72324	26418.33929
2690.34441	26422.33929
2692.96396	26432.76786
2695.58188	26410.05357
2698.19818	26376.33929
2700.81285	26394.76786
2703.4259	26373.48214
2706.03733	26421.05357
2708.64714	26445.05357
2711.25533	26474.48214
2713.86191	26538.91071
2716.46687	26529.33929
2719.07021	26562.05357
2721.67194	26556.33929
2724.27206	26562.33929
2726.87057	26614.05357
2729.46747	26618.91071
2732.06276	26552.91071
2734.65644	26563.33929
2737.24852	26532.33929
2739.83899	26511.48214
2742.42786	26492.33929
2745.01513	26500.05357
2747.60079	26493.19643
2750.18486	26432.19643
2752.76733	26407.33929
2755.3482	26428.625
2757.92747	26437.91071
2760.50515	26441.05357
2763.08123	26410.91071
2765.65573	26383.48214
2768.22863	26387.625
2770.79994	26291.91071
2773.36967	26295.625
2775.9378	26311.76786
2778.50435	26276.33929
2781.06932	26231.91071
2783.6327	26257.33929
2786.1945	26221.05357
2788.75471	26162.19643
2791.31335	26157.625
2793.87041	26116.33929
2796.42589	26058.48214
2798.97979	26084.33929
2801.53212	26023.91071
2804.08288	25979.33929
2806.63206	25971.625
2809.17967	25917.05357
2811.72571	25885.33929
2814.27018	25890.91071
2816.81308	25760.33929
2819.35442	25719.625
2821.89419	25619.625
2824.43239	25632.76786
2826.96904	25604.48214
2829.50412	25664.625
2832.03763	25600.05357
2834.56959	25606.19643
2837.1	25604.33929
2839.62884	25560.19643
2842.15613	25492.625
2844.68186	25509.19643
2847.20604	25516.05357
2849.72867	25559.05357
2852.24974	25544.05357
2854.76927	25538.05357
2857.28724	25478.91071
2859.80367	25450.05357
2862.31855	25442.19643
2864.83189	25462.33929
2867.34368	25402.48214
2869.85393	25387.76786
2872.36264	25377.76786
2874.8698	25350.33929
2877.37543	25366.76786
2879.87952	25365.19643
2882.38207	25317.19643
2884.88308	25304.19643
2887.38256	25387.48214
2889.88051	25402.05357
2892.37692	25410.05357
2894.8718	25411.625
2897.36515	25451.05357
2899.85698	25444.625
2902.34727	25520.48214
2904.83604	25499.91071
2907.32328	25528.33929
2909.809	25542.33929
2912.29319	25573.19643
2914.77587	25540.19643
2917.25702	25557.76786
2919.73665	25591.48214
2922.21476	25564.19643
2924.69136	25535.625
2927.16644	25539.19643
2929.64	25489.625
2932.11205	25466.48214
2934.58258	25421.05357
2937.05161	25455.76786
2939.51912	25446.91071
2941.98513	25466.48214
2944.44962	25439.33929
2946.91261	25383.33929
2949.37409	25441.76786
2951.83407	25434.625
2954.29254	25457.76786
2956.74951	25456.05357
2959.20498	25383.76786
2961.65895	25361.05357
2964.11142	25407.76786
2966.56239	25408.625
2969.01186	25368.625
2971.45984	25360.48214
2973.90632	25356.625
2976.35131	25288.33929
2978.7948	25263.91071
2981.23681	25237.76786
2983.67732	25204.76786
2986.11635	25173.91071
2988.55388	25134.91071
2990.98993	25097.19643
2993.4245	25093.05357
2995.85758	25040.05357
2998.28917	25039.48214
3000.71928	24968.05357
3003.14791	24953.625
3005.57506	24944.19643
3008.00073	24887.91071
3010.42493	24942.33929
3012.84764	24827.625
3015.26888	24810.48214
3017.68865	24788.48214
3020.10694	24782.19643
3022.52376	24722.05357
3024.9391	24696.33929
3027.35298	24662.19643
3029.76539	24683.19643
3032.17632	24681.76786
3034.5858	24627.19643
3036.9938	24600.91071
3039.40034	24582.625
3041.80542	24580.625
3044.20903	24517.91071
3046.61118	24544.19643
3049.01187	24527.19643
3051.4111	24491.05357
3053.80888	24451.19643
3056.20519	24378.33929
3058.60005	24320.48214
3060.99345	24335.48214
3063.3854	24304.76786
3065.7759	24243.48214
3068.16494	24212.05357
3070.55254	24085.33929
3072.93868	24078.33929
3075.32338	24074.91071
3077.70662	24060.33929
3080.08842	24048.625
3082.46878	23996.625
3084.84769	23954.625
3087.22515	23976.48214
3089.60118	23979.76786
3091.97576	23996.76786
3094.3489	24018.19643
3096.72061	24018.625
3099.09087	24035.48214
3101.4597	23984.48214
3103.82709	23976.76786
3106.19305	23989.05357
3108.55757	24027.05357
3110.92066	23982.33929
3113.28232	23949.625
3115.64255	23892.19643
3118.00134	23832.33929
3120.35871	23803.33929
3122.71466	23811.33929
3125.06917	23710.91071
3127.42226	23661.91071
3129.77393	23708.76786
3132.12417	23663.33929
3134.47299	23655.48214
3136.82039	23654.91071
3139.16636	23664.19643
3141.51092	23640.625
3143.85406	23667.625
3146.19579	23686.76786
3148.53609	23686.76786
3150.87499	23676.91071
3153.21246	23730.19643
3155.54853	23786.05357
3157.88318	23790.91071
3160.21642	23812.91071
3162.54826	23783.625
3164.87868	23849.76786
3167.2077	23755.91071
3169.5353	23786.19643
3171.86151	23839.625
3174.18631	23759.05357
3176.5097	23775.625
3178.83169	23725.48214
3181.15228	23781.625
3183.47147	23783.33929
3185.78926	23716.625
3188.10565	23666.91071
3190.42065	23696.19643
3192.73424	23691.625
3195.04645	23578.48214
3197.35725	23639.33929
3199.66667	23610.19643
3201.97469	23623.48214
3204.28132	23569.76786
3206.58656	23634.625
3208.8904	23679.625
3211.19287	23701.76786
3213.49394	23735.19643
3215.79363	23688.91071
3218.09193	23716.48214
3220.38884	23749.625
3222.68438	23806.48214
3224.97853	23759.05357
3227.2713	23718.19643
3229.56269	23686.48214
3231.8527	23693.91071
3234.14133	23676.91071
3236.42858	23605.625
3238.71446	23624.19643
3240.99896	23528.05357
3243.28209	23500.19643
3245.56384	23503.76786
3247.84423	23503.33929
3250.12324	23472.625
3252.40088	23476.76786
3254.67715	23494.76786
3256.95205	23501.33929
3259.22558	23528.91071
3261.49775	23462.76786
3263.76855	23435.76786
3266.03799	23479.48214
3268.30606	23451.76786
3270.57277	23387.05357
3272.83812	23365.19643
3275.10211	23296.05357
3277.36474	23235.19643
3279.62601	23300.76786
3281.88593	23227.33929
3284.14448	23251.76786
3286.40168	23246.48214
3288.65753	23225.05357
3290.91202	23219.33929
3293.16516	23239.33929
3295.41695	23148.91071
3297.66738	23053.33929
3299.91647	22925.91071
3302.16421	22807.33929
3304.4106	22695.91071
3306.65564	22609.19643
3308.89933	22424.05357
3311.14169	22290.48214
3313.38269	22095.625
3315.62236	21994.33929
3317.86068	21852.76786
3320.09766	21722.625
3322.3333	21594.48214
3324.5676	21477.19643
3326.80056	21169.33929
3329.03219	21058.19643
3331.26248	4.48214
3333.49143	-1.94643
3335.71905	-0.80357
