Data from AgNPs_FTO_APTES_UA_20uM_CRN_1000uM_R6G_10uM_NaF_0.1M_Addition_RamanShift__1__19-12-55-004.txt Node

Date: Thu Feb 17 19:12:55 GMT 2022
User: TCL
Spectrometer: QEP01345
Trigger mode: 4
Integration Time (sec): 1.000000E1
Scans to average: 7
Electric dark correction enabled: true
Nonlinearity correction enabled: false
Boxcar width: 0
XAxis mode: Raman Shifts
Number of Pixels in Spectrum: 1044
>>>>>Begin Spectral Data<<<<<
46.04893	-0.01786
50.45542	-0.44643
54.85868	0.26786
59.25871	-1.01786
63.6555	87.55357
68.04907	86.26786
72.43941	91.98214
76.82654	95.125
81.21044	101.26786
85.59113	100.125
89.96862	108.26786
94.34289	110.55357
98.71396	111.83929
103.08183	109.83929
107.4465	120.69643
111.80798	118.69643
116.16626	125.69643
120.52136	127.98214
124.87327	140.26786
129.222	145.41071
133.56755	144.69643
137.90993	160.26786
142.24913	178.83929
146.58517	196.41071
150.91804	223.125
155.24774	269.69643
159.57429	329.41071
163.89768	428.83929
168.21792	580.125
172.53501	790.69643
176.84895	1107.41071
181.15975	1553.69643
185.46741	2201.26786
189.77193	3065.41071
194.07331	4147.69643
198.37157	5384.55357
202.6667	6685.83929
206.9587	8019.83929
211.24758	9341.69643
215.53334	10642.98214
219.81599	12057.69643
224.09553	13635.98214
228.37195	15354.83929
232.64527	17280.55357
236.91549	19206.26786
241.18261	21035.41071
245.44663	22655.26786
249.70755	23971.69643
253.96539	25126.26786
258.22014	26071.26786
262.4718	26866.41071
266.72039	27451.83929
270.96589	27722.69643
275.20832	27615.55357
279.44768	27252.41071
283.68397	26809.69643
287.91719	26398.83929
292.14735	26289.41071
296.37445	26503.83929
300.59849	26980.41071
304.81948	27771.41071
309.03742	28402.69643
313.25231	28669.55357
317.46415	28220.41071
321.67296	27183.98214
325.87872	26174.26786
330.08145	25625.83929
334.28114	25577.125
338.47781	25845.55357
342.67145	26282.125
346.86207	26981.26786
351.04966	27960.98214
355.23424	29004.83929
359.4158	29758.98214
363.59435	30252.26786
367.76989	30385.83929
371.94243	30391.98214
376.11196	30365.26786
380.27849	30345.98214
384.44203	30271.69643
388.60257	30261.26786
392.76012	30310.26786
396.91468	30510.83929
401.06626	31010.125
405.21485	31324.41071
409.36047	31003.41071
413.50311	30150.55357
417.64277	29258.98214
421.77947	28697.98214
425.9132	28446.98214
430.04396	28527.41071
434.17176	28702.98214
438.2966	29059.26786
442.41849	29591.55357
446.53742	30244.41071
450.6534	30926.125
454.76644	31366.41071
458.87653	31380.98214
462.98368	31245.125
467.08789	30982.83929
471.18916	30609.83929
475.2875	30060.83929
479.38291	29640.55357
483.4754	29245.26786
487.56496	29026.83929
491.6516	28904.55357
495.73531	28880.55357
499.81612	29003.125
503.89401	29188.69643
507.96899	29355.125
512.04106	29598.83929
516.11023	29816.98214
520.1765	30069.83929
524.23987	30162.26786
528.30034	30159.41071
532.35792	30041.55357
536.41261	29790.55357
540.46441	29383.83929
544.51333	29254.55357
548.55936	29332.125
552.60252	29686.98214
556.64279	30225.26786
560.6802	30517.26786
564.71473	30704.26786
568.7464	31122.55357
572.7752	31464.83929
576.80114	30991.41071
580.82422	30484.55357
584.84444	30460.69643
588.86181	30865.98214
592.87633	31526.125
596.888	32160.41071
600.89682	32701.41071
604.9028	34411.41071
608.90594	39608.41071
612.90624	46889.55357
616.90371	45885.98214
620.89834	36255.69643
624.89015	31372.83929
628.87913	30500.26786
632.86528	30720.41071
636.84862	31095.83929
640.82913	30882.83929
644.80683	30022.26786
648.78172	29442.26786
652.75379	29444.98214
656.72306	30119.55357
660.68952	30938.98214
664.65319	30708.125
668.61405	29838.125
672.57211	29524.41071
676.52738	29681.98214
680.47986	29671.26786
684.42955	29480.83929
688.37646	29297.26786
692.32058	29364.83929
696.26192	29622.55357
700.20048	29889.125
704.13626	30043.69643
708.06928	30003.26786
711.99952	29785.26786
715.927	29689.69643
719.85171	29890.69643
723.77365	29923.69643
727.69284	29810.41071
731.60928	29545.98214
735.52295	29540.69643
739.43388	29567.26786
743.34206	29589.41071
747.24749	29613.125
751.15017	29694.41071
755.05012	29931.69643
758.94733	30748.26786
762.8418	32597.69643
766.73354	35988.83929
770.62254	39247.83929
774.50882	40771.41071
778.39237	39518.41071
782.27321	36397.69643
786.15132	33113.41071
790.02671	31029.125
793.89938	30085.41071
797.76935	29597.83929
801.6366	29442.26786
805.50115	29347.41071
809.36299	29223.83929
813.22213	29156.83929
817.07857	29123.83929
820.93231	29122.55357
824.78336	29139.69643
828.63172	29166.69643
832.47738	29254.41071
836.32036	29230.125
840.16066	29154.83929
843.99827	29175.26786
847.8332	29135.83929
851.66546	29115.26786
855.49504	29169.26786
859.32195	29194.125
863.1462	29157.55357
866.96777	29195.26786
870.78668	29206.69643
874.60293	29241.26786
878.41652	29340.83929
882.22745	29415.98214
886.03573	29543.41071
889.84136	29555.125
893.64433	29422.55357
897.44466	29342.98214
901.24235	29252.41071
905.0374	29173.41071
908.8298	29048.125
912.61957	28919.69643
916.40671	29012.125
920.19121	29109.26786
923.97308	29348.26786
927.75233	29569.41071
931.52895	29734.41071
935.30295	29636.26786
939.07433	29150.83929
942.84309	28761.26786
946.60924	28526.69643
950.37278	28376.26786
954.13371	28307.98214
957.89203	28216.125
961.64774	28200.41071
965.40086	28179.125
969.15137	28188.69643
972.89929	28171.125
976.64461	28192.98214
980.38733	28262.41071
984.12747	28345.26786
987.86502	28507.125
991.59999	28683.55357
995.33237	28934.69643
999.06217	29317.83929
1002.78939	29737.41071
1006.51404	30148.69643
1010.23611	30507.41071
1013.95561	30650.69643
1017.67255	30657.55357
1021.38692	30542.83929
1025.09872	30255.98214
1028.80796	30159.26786
1032.51465	30229.55357
1036.21877	30535.26786
1039.92035	30603.41071
1043.61937	30656.41071
1047.31584	30530.83929
1051.00976	30352.125
1054.70114	30130.41071
1058.38998	30019.26786
1062.07627	30071.26786
1065.76003	30200.41071
1069.44126	30316.55357
1073.11995	30648.83929
1076.79611	30969.26786
1080.46974	31406.41071
1084.14085	31868.69643
1087.80943	32216.98214
1091.47549	32411.55357
1095.13903	32093.55357
1098.80005	31651.125
1102.45857	31132.98214
1106.11456	30958.41071
1109.76805	31034.26786
1113.41903	31282.55357
1117.06751	31754.41071
1120.71348	32458.125
1124.35696	33273.55357
1127.99793	33969.26786
1131.63641	33989.55357
1135.2724	33187.98214
1138.90589	32337.125
1142.5369	31808.98214
1146.16542	31346.69643
1149.79145	31192.83929
1153.415	31018.98214
1157.03607	31051.98214
1160.65467	31437.98214
1164.27079	32045.125
1167.88443	33127.125
1171.49561	34642.55357
1175.10432	37100.98214
1178.71056	40336.41071
1182.31434	43128.125
1185.91565	44238.41071
1189.51451	43671.83929
1193.11091	42156.26786
1196.70485	40414.98214
1200.29634	38867.26786
1203.88538	37590.55357
1207.47197	36146.69643
1211.05612	34707.26786
1214.63782	33818.26786
1218.21708	33433.69643
1221.79391	33355.26786
1225.36829	33385.26786
1228.94024	33424.55357
1232.50976	33225.83929
1236.07685	33045.83929
1239.6415	32924.55357
1243.20374	32931.55357
1246.76355	33127.69643
1250.32093	33381.83929
1253.8759	33814.26786
1257.42845	34409.41071
1260.97859	35145.55357
1264.52631	35987.55357
1268.07163	36767.41071
1271.61453	37489.98214
1275.15503	37943.26786
1278.69312	38219.69643
1282.22882	38450.98214
1285.76211	38946.125
1289.29301	39899.83929
1292.82151	40860.55357
1296.34761	42026.41071
1299.87133	43601.26786
1303.39266	46032.125
1306.9116	49633.55357
1310.42815	53615.26786
1313.94233	55624.98214
1317.45412	54168.55357
1320.96354	51063.41071
1324.47058	47779.55357
1327.97525	44889.69643
1331.47754	42950.69643
1334.97747	42034.125
1338.47502	42019.26786
1341.97022	42641.41071
1345.46305	44066.125
1348.95352	46394.55357
1352.44163	49355.98214
1355.92738	53055.83929
1359.41078	58344.125
1362.89183	63311.69643
1366.37053	61946.125
1369.84688	54237.69643
1373.32088	46353.41071
1376.79254	41713.26786
1380.26186	39520.125
1383.72883	38273.41071
1387.19347	37347.98214
1390.65578	36298.41071
1394.11575	35373.55357
1397.57339	34875.83929
1401.0287	34609.41071
1404.48168	34501.69643
1407.93234	34395.69643
1411.38068	34432.125
1414.82669	34581.83929
1418.27039	34615.41071
1421.71177	34573.125
1425.15083	34132.125
1428.58758	33837.125
1432.02203	33987.98214
1435.45416	34327.69643
1438.88399	34520.55357
1442.31151	34553.83929
1445.73673	34539.83929
1449.15965	34643.83929
1452.58027	34463.83929
1455.9986	34276.98214
1459.41463	34198.98214
1462.82837	34443.83929
1466.23982	34966.83929
1469.64898	35565.69643
1473.05586	36119.98214
1476.46045	36398.125
1479.86276	36786.41071
1483.26279	37200.26786
1486.66054	37723.26786
1490.05602	38609.83929
1493.44922	39957.55357
1496.84016	42061.41071
1500.22882	45303.41071
1503.61521	49560.26786
1506.99934	54325.41071
1510.38121	58124.26786
1513.76081	58702.98214
1517.13816	55182.55357
1520.51324	49458.69643
1523.88607	44349.55357
1527.25665	41262.98214
1530.62498	39602.125
1533.99105	38651.26786
1537.35488	38145.69643
1540.71647	37574.41071
1544.07581	37232.83929
1547.4329	36964.41071
1550.78776	36684.125
1554.14038	36634.26786
1557.49077	36618.26786
1560.83892	37003.69643
1564.18484	37619.55357
1567.52853	38541.26786
1570.86999	39411.26786
1574.20922	39922.41071
1577.54624	39796.55357
1580.88103	38606.98214
1584.2136	36890.98214
1587.54395	35919.83929
1590.87208	36088.125
1594.19801	37276.41071
1597.52172	39076.83929
1600.84321	39999.125
1604.16251	39490.26786
1607.47959	38180.26786
1610.79447	36357.98214
1614.10715	34573.41071
1617.41763	33055.41071
1620.7259	31975.26786
1624.03199	31363.83929
1627.33587	31300.69643
1630.63757	31698.55357
1633.93707	32573.55357
1637.23439	34154.55357
1640.52951	36850.98214
1643.82246	40655.69643
1647.11321	44896.83929
1650.40179	47501.41071
1653.68819	45964.98214
1656.97241	41101.41071
1660.25446	36069.69643
1663.53433	32561.69643
1666.81203	30450.55357
1670.08756	29282.125
1673.36092	28530.125
1676.63211	28025.83929
1679.90115	27657.83929
1683.16801	27347.41071
1686.43272	27105.41071
1689.69527	26911.98214
1692.95567	26785.55357
1696.2139	26678.83929
1699.46999	26590.55357
1702.72392	26530.98214
1705.97571	26532.69643
1709.22535	26517.41071
1712.47284	26489.69643
1715.71819	26536.55357
1718.96139	26469.69643
1722.20246	26369.83929
1725.44139	26313.125
1728.67818	26197.83929
1731.91284	26133.55357
1735.14537	26010.83929
1738.37576	25938.26786
1741.60403	25779.55357
1744.83017	25711.55357
1748.05418	25654.26786
1751.27607	25605.69643
1754.49584	25569.41071
1757.71349	25546.125
1760.92903	25542.98214
1764.14244	25496.125
1767.35375	25495.98214
1770.56294	25434.83929
1773.77002	25333.98214
1776.97499	25277.55357
1780.17785	25253.26786
1783.37861	25213.125
1786.57727	25145.125
1789.77382	25108.55357
1792.96828	25111.41071
1796.16064	24996.26786
1799.3509	24970.69643
1802.53907	24899.83929
1805.72514	24889.125
1808.90913	24822.83929
1812.09102	24797.41071
1815.27083	24757.55357
1818.44856	24710.83929
1821.6242	24698.83929
1824.79776	24662.69643
1827.96924	24601.41071
1831.13864	24532.55357
1834.30597	24545.83929
1837.47122	24548.83929
1840.6344	24496.69643
1843.7955	24513.69643
1846.95454	24461.125
1850.11151	24393.69643
1853.26642	24378.55357
1856.41926	24377.83929
1859.57004	24395.83929
1862.71876	24354.98214
1865.86542	24353.125
1869.01003	24324.98214
1872.15258	24334.41071
1875.29308	24324.69643
1878.43152	24304.55357
1881.56792	24271.83929
1884.70227	24234.125
1887.83457	24222.41071
1890.96482	24156.55357
1894.09304	24175.69643
1897.21921	24137.55357
1900.34335	24121.41071
1903.46544	24106.83929
1906.58551	24093.55357
1909.70353	24011.69643
1912.81953	24006.41071
1915.93349	23997.26786
1919.04543	23932.41071
1922.15534	23899.26786
1925.26322	23893.69643
1928.36908	23804.125
1931.47292	23823.26786
1934.57473	23771.69643
1937.67453	23717.41071
1940.77232	23643.98214
1943.86808	23559.98214
1946.96184	23530.98214
1950.05358	23421.55357
1953.14331	23419.83929
1956.23103	23381.98214
1959.31675	23329.125
1962.40046	23316.98214
1965.48217	23232.26786
1968.56188	23138.26786
1971.63959	23073.55357
1974.7153	23014.55357
1977.78901	22962.83929
1980.86073	22928.83929
1983.93046	22833.41071
1986.99819	22724.69643
1990.06394	22697.83929
1993.1277	22607.55357
1996.18947	22557.55357
1999.24925	22463.98214
2002.30706	22414.125
2005.36288	22278.26786
2008.41672	22226.26786
2011.46859	22157.83929
2014.51848	22092.83929
2017.56639	22081.98214
2020.61233	22001.83929
2023.6563	21948.98214
2026.6983	21844.98214
2029.73833	21837.41071
2032.7764	21807.41071
2035.8125	21784.83929
2038.84664	21683.125
2041.87881	21685.98214
2044.90903	21642.41071
2047.93729	21576.125
2050.96359	21664.83929
2053.98794	21599.41071
2057.01034	21573.41071
2060.03078	21562.98214
2063.04927	21510.41071
2066.06582	21531.41071
2069.08042	21474.55357
2072.09307	21460.98214
2075.10378	21495.41071
2078.11255	21526.55357
2081.11938	21471.55357
2084.12426	21459.98214
2087.12722	21469.26786
2090.12824	21470.69643
2093.12732	21463.83929
2096.12447	21488.69643
2099.11969	21434.125
2102.11299	21446.41071
2105.10435	21472.69643
2108.09379	21442.26786
2111.08131	21529.69643
2114.0669	21546.41071
2117.05057	21547.98214
2120.03233	21585.98214
2123.01216	21602.41071
2125.99008	21631.41071
2128.96609	21696.69643
2131.94018	21708.98214
2134.91236	21678.26786
2137.88263	21659.83929
2140.851	21698.69643
2143.81746	21748.83929
2146.78201	21722.83929
2149.74466	21720.125
2152.7054	21761.41071
2155.66425	21720.55357
2158.6212	21672.41071
2161.57625	21668.98214
2164.52941	21670.125
2167.48067	21643.26786
2170.43004	21686.125
2173.37752	21688.69643
2176.32311	21617.26786
2179.26681	21669.26786
2182.20863	21700.69643
2185.14856	21658.98214
2188.08661	21644.55357
2191.02278	21635.98214
2193.95707	21640.69643
2196.88948	21587.98214
2199.82001	21641.98214
2202.74867	21595.125
2205.67545	21614.125
2208.60037	21586.26786
2211.52341	21528.98214
2214.44458	21525.98214
2217.36388	21460.69643
2220.28132	21463.83929
2223.1969	21351.83929
2226.11061	21353.125
2229.02246	21301.83929
2231.93245	21275.83929
2234.84058	21187.83929
2237.74686	21169.125
2240.65128	21201.55357
2243.55385	21222.26786
2246.45456	21161.83929
2249.35343	21141.98214
2252.25044	21113.41071
2255.14561	21125.83929
2258.03893	21064.69643
2260.93041	21088.125
2263.82004	21060.26786
2266.70783	20966.26786
2269.59378	20895.69643
2272.4779	20899.69643
2275.36017	20841.55357
2278.24061	20821.83929
2281.11922	20747.98214
2283.996	20761.55357
2286.87094	20725.41071
2289.74405	20698.83929
2292.61534	20631.69643
2295.4848	20606.125
2298.35243	20659.83929
2301.21824	20645.26786
2304.08223	20659.41071
2306.94439	20623.83929
2309.80474	20558.55357
2312.66327	20555.83929
2315.51999	20566.125
2318.37489	20526.55357
2321.22797	20521.98214
2324.07925	20484.55357
2326.92871	20452.41071
2329.77637	20402.69643
2332.62222	20363.69643
2335.46626	20349.55357
2338.3085	20358.26786
2341.14893	20342.41071
2343.98756	20327.125
2346.8244	20335.125
2349.65943	20346.26786
2352.49267	20294.125
2355.32411	20337.41071
2358.15376	20319.26786
2360.98161	20299.98214
2363.80768	20331.26786
2366.63195	20303.69643
2369.45444	20226.69643
2372.27514	20242.41071
2375.09405	20167.55357
2377.91118	20177.98214
2380.72652	20122.83929
2383.54009	20072.125
2386.35187	20030.125
2389.16188	19995.83929
2391.97011	19945.83929
2394.77657	19958.41071
2397.58125	19870.55357
2400.38416	19886.69643
2403.18529	19843.125
2405.98466	19797.69643
2408.78226	19713.98214
2411.57809	19694.41071
2414.37216	19704.83929
2417.16446	19700.125
2419.955	19641.41071
2422.74378	19630.98214
2425.5308	19656.26786
2428.31606	19676.55357
2431.09956	19651.83929
2433.88131	19618.41071
2436.6613	19649.41071
2439.43954	19642.69643
2442.21603	19602.55357
2444.99077	19580.69643
2447.76377	19546.98214
2450.53501	19554.26786
2453.30451	19559.125
2456.07226	19514.41071
2458.83827	19498.26786
2461.60254	19498.125
2464.36507	19486.83929
2467.12586	19452.41071
2469.88492	19423.26786
2472.64224	19477.41071
2475.39782	19428.98214
2478.15167	19414.83929
2480.90379	19473.69643
2483.65417	19471.69643
2486.40283	19505.69643
2489.14976	19477.69643
2491.89497	19503.55357
2494.63845	19501.69643
2497.3802	19449.98214
2500.12024	19491.26786
2502.85855	19425.125
2505.59514	19361.55357
2508.33002	19348.125
2511.06318	19221.83929
2513.79462	19301.98214
2516.52435	19259.69643
2519.25237	19246.55357
2521.97867	19157.55357
2524.70327	19157.83929
2527.42616	19140.55357
2530.14734	19094.69643
2532.86681	19109.26786
2535.58458	19051.69643
2538.30065	19060.41071
2541.01501	19087.125
2543.72768	19029.26786
2546.43864	18981.125
2549.14791	18984.26786
2551.85548	18988.125
2554.56136	18929.69643
2557.26554	18930.125
2559.96803	18875.69643
2562.66883	18916.125
2565.36794	18818.83929
2568.06536	18747.55357
2570.7611	18743.41071
2573.45514	18711.83929
2576.14751	18705.83929
2578.83819	18655.55357
2581.52719	18639.69643
2584.21451	18623.83929
2586.90015	18592.41071
2589.58411	18565.83929
2592.2664	18568.125
2594.94701	18481.55357
2597.62594	18460.55357
2600.30321	18426.26786
2602.9788	18398.125
2605.65273	18363.125
2608.32498	18384.83929
2610.99557	18362.98214
2613.66449	18356.83929
2616.33175	18319.41071
2618.99734	18360.55357
2621.66128	18325.98214
2624.32355	18286.83929
2626.98416	18269.69643
2629.64311	18254.83929
2632.30041	18223.41071
2634.95605	18173.125
2637.61004	18153.41071
2640.26238	18093.98214
2642.91306	18096.26786
2645.56209	18124.83929
2648.20948	18099.125
2650.85521	18097.26786
2653.4993	18091.26786
2656.14175	18106.41071
2658.78255	18105.83929
2661.42171	18088.26786
2664.05923	18184.98214
2666.6951	18132.69643
2669.32934	18137.26786
2671.96194	18140.41071
2674.59291	18174.83929
2677.22224	18101.55357
2679.84993	18098.125
2682.476	18074.125
2685.10043	18077.26786
2687.72324	18034.41071
2690.34441	18032.125
2692.96396	18045.125
2695.58188	18092.26786
2698.19818	18084.98214
2700.81285	18055.55357
2703.4259	18052.125
2706.03733	18065.55357
2708.64714	18043.98214
2711.25533	18089.41071
2713.86191	18075.26786
2716.46687	18109.83929
2719.07021	18124.26786
2721.67194	18122.26786
2724.27206	18056.83929
2726.87057	18077.69643
2729.46747	18070.55357
2732.06276	18059.41071
2734.65644	18039.55357
2737.24852	18022.125
2739.83899	18028.125
2742.42786	18056.125
2745.01513	17996.41071
2747.60079	17964.125
2750.18486	17910.83929
2752.76733	17899.98214
2755.3482	17936.69643
2757.92747	17920.69643
2760.50515	17875.98214
2763.08123	17856.69643
2765.65573	17775.83929
2768.22863	17793.125
2770.79994	17765.55357
2773.36967	17817.83929
2775.9378	17751.26786
2778.50435	17742.69643
2781.06932	17688.41071
2783.6327	17712.83929
2786.1945	17676.98214
2788.75471	17661.26786
2791.31335	17586.98214
2793.87041	17566.83929
2796.42589	17565.83929
2798.97979	17552.26786
2801.53212	17477.26786
2804.08288	17493.26786
2806.63206	17456.98214
2809.17967	17416.69643
2811.72571	17391.83929
2814.27018	17394.69643
2816.81308	17327.55357
2819.35442	17359.26786
2821.89419	17320.69643
2824.43239	17308.98214
2826.96904	17266.41071
2829.50412	17254.98214
2832.03763	17213.69643
2834.56959	17238.125
2837.1	17234.69643
2839.62884	17205.83929
2842.15613	17179.125
2844.68186	17214.41071
2847.20604	17204.98214
2849.72867	17201.41071
2852.24974	17201.26786
2854.76927	17165.26786
2857.28724	17147.41071
2859.80367	17119.83929
2862.31855	17076.69643
2864.83189	17087.69643
2867.34368	17077.26786
2869.85393	17088.98214
2872.36264	17040.69643
2874.8698	17035.55357
2877.37543	17054.98214
2879.87952	17052.26786
2882.38207	17005.98214
2884.88308	17010.55357
2887.38256	17034.83929
2889.88051	17025.55357
2892.37692	17038.69643
2894.8718	17004.125
2897.36515	17086.41071
2899.85698	17044.55357
2902.34727	17073.41071
2904.83604	17110.83929
2907.32328	17045.69643
2909.809	17117.125
2912.29319	17174.69643
2914.77587	17173.98214
2917.25702	17146.55357
2919.73665	17168.83929
2922.21476	17138.83929
2924.69136	17156.69643
2927.16644	17167.69643
2929.64	17076.26786
2932.11205	17049.41071
2934.58258	16966.98214
2937.05161	17009.69643
2939.51912	17021.69643
2941.98513	16994.125
2944.44962	16966.98214
2946.91261	16895.83929
2949.37409	16961.26786
2951.83407	16888.41071
2954.29254	16877.98214
2956.74951	16859.41071
2959.20498	16841.69643
2961.65895	16835.41071
2964.11142	16891.125
2966.56239	16798.125
2969.01186	16780.26786
2971.45984	16777.83929
2973.90632	16761.125
2976.35131	16715.26786
2978.7948	16710.98214
2981.23681	16695.125
2983.67732	16626.125
2986.11635	16595.125
2988.55388	16587.83929
2990.98993	16537.98214
2993.4245	16520.125
2995.85758	16519.125
2998.28917	16502.26786
3000.71928	16500.69643
3003.14791	16418.41071
3005.57506	16419.41071
3008.00073	16371.69643
3010.42493	16366.125
3012.84764	16310.83929
3015.26888	16341.55357
3017.68865	16273.83929
3020.10694	16266.41071
3022.52376	16238.26786
3024.9391	16200.55357
3027.35298	16164.55357
3029.76539	16172.83929
3032.17632	16148.41071
3034.5858	16101.55357
3036.9938	16105.125
3039.40034	16113.125
3041.80542	16055.98214
3044.20903	16070.26786
3046.61118	16046.69643
3049.01187	16007.83929
3051.4111	15986.125
3053.80888	15939.26786
3056.20519	15953.69643
3058.60005	15896.83929
3060.99345	15924.26786
3063.3854	15849.83929
3065.7759	15813.41071
3068.16494	15779.98214
3070.55254	15747.98214
3072.93868	15678.41071
3075.32338	15686.26786
3077.70662	15654.26786
3080.08842	15596.41071
3082.46878	15593.83929
3084.84769	15607.69643
3087.22515	15569.26786
3089.60118	15587.125
3091.97576	15587.69643
3094.3489	15578.55357
3096.72061	15592.69643
3099.09087	15609.98214
3101.4597	15554.83929
3103.82709	15579.55357
3106.19305	15565.55357
3108.55757	15545.55357
3110.92066	15485.98214
3113.28232	15503.26786
3115.64255	15457.98214
3118.00134	15412.26786
3120.35871	15420.69643
3122.71466	15395.55357
3125.06917	15385.125
3127.42226	15335.55357
3129.77393	15355.69643
3132.12417	15356.98214
3134.47299	15341.83929
3136.82039	15290.83929
3139.16636	15308.98214
3141.51092	15306.41071
3143.85406	15283.98214
3146.19579	15340.41071
3148.53609	15318.41071
3150.87499	15321.83929
3153.21246	15310.69643
3155.54853	15357.98214
3157.88318	15339.55357
3160.21642	15379.41071
3162.54826	15399.98214
3164.87868	15400.55357
3167.2077	15324.83929
3169.5353	15352.98214
3171.86151	15374.69643
3174.18631	15368.83929
3176.5097	15360.98214
3178.83169	15310.69643
3181.15228	15304.41071
3183.47147	15243.125
3185.78926	15222.83929
3188.10565	15206.83929
3190.42065	15186.83929
3192.73424	15188.83929
3195.04645	15177.83929
3197.35725	15177.98214
3199.66667	15199.69643
3201.97469	15200.83929
3204.28132	15189.41071
3206.58656	15203.125
3208.8904	15235.55357
3211.19287	15260.41071
3213.49394	15253.69643
3215.79363	15270.98214
3218.09193	15269.41071
3220.38884	15231.98214
3222.68438	15277.55357
3224.97853	15267.83929
3227.2713	15244.83929
3229.56269	15210.41071
3231.8527	15232.125
3234.14133	15178.55357
3236.42858	15137.83929
3238.71446	15151.41071
3240.99896	15085.125
3243.28209	15058.98214
3245.56384	15035.55357
3247.84423	15052.41071
3250.12324	15035.98214
3252.40088	15033.125
3254.67715	15031.125
3256.95205	15021.69643
3259.22558	14972.41071
3261.49775	14962.26786
3263.76855	14978.98214
3266.03799	14967.26786
3268.30606	14982.125
3270.57277	14900.69643
3272.83812	14886.98214
3275.10211	14826.83929
3277.36474	14820.125
3279.62601	14822.125
3281.88593	14816.41071
3284.14448	14793.26786
3286.40168	14819.98214
3288.65753	14799.41071
3290.91202	14800.83929
3293.16516	14775.125
3295.41695	14752.26786
3297.66738	14692.125
3299.91647	14603.69643
3302.16421	14484.26786
3304.4106	14465.98214
3306.65564	14367.41071
3308.89933	14270.98214
3311.14169	14206.83929
3313.38269	14074.83929
3315.62236	13999.98214
3317.86068	13872.26786
3320.09766	13778.125
3322.3333	13717.98214
3324.5676	13624.26786
3326.80056	13442.26786
3329.03219	13382.26786
3331.26248	1.83929
3333.49143	-1.30357
3335.71905	0.125
