Data from AgNPs_FTO_APTES_UA_20uM_CRN_200uM_R6G_10uM_NaF_0.1M_Addition_RamanShift__9__18-02-54-916.txt Node

Date: Thu Feb 17 18:02:54 GMT 2022
User: TCL
Spectrometer: QEP01345
Trigger mode: 4
Integration Time (sec): 1.000000E1
Scans to average: 7
Electric dark correction enabled: true
Nonlinearity correction enabled: false
Boxcar width: 0
XAxis mode: Raman Shifts
Number of Pixels in Spectrum: 1044
>>>>>Begin Spectral Data<<<<<
46.04893	0.51786
50.45542	-1.33929
54.85868	1.23214
59.25871	-2.625
63.6555	101.08929
68.04907	101.94643
72.43941	104.80357
76.82654	110.23214
81.21044	117.94643
85.59113	115.94643
89.96862	120.375
94.34289	123.08929
98.71396	134.23214
103.08183	134.23214
107.4465	141.23214
111.80798	140.375
116.16626	141.23214
120.52136	146.51786
124.87327	160.375
129.222	165.94643
133.56755	173.08929
137.90993	191.375
142.24913	207.66071
146.58517	225.23214
150.91804	265.94643
155.24774	315.51786
159.57429	388.51786
163.89768	498.51786
168.21792	671.94643
172.53501	912.66071
176.84895	1268.51786
181.15975	1809.80357
185.46741	2546.51786
189.77193	3543.94643
194.07331	4775.375
198.37157	6185.23214
202.6667	7650.66071
206.9587	9144.80357
211.24758	10636.23214
215.53334	12019.51786
219.81599	13517.08929
224.09553	15140.08929
228.37195	16943.08929
232.64527	18940.375
236.91549	21068.80357
241.18261	23201.23214
245.44663	25360.08929
249.70755	27249.08929
253.96539	28900.66071
258.22014	30319.23214
262.4718	31422.23214
266.72039	32211.66071
270.96589	32577.66071
275.20832	32665.66071
279.44768	32414.08929
283.68397	32052.08929
287.91719	31669.80357
292.14735	31343.80357
296.37445	31195.375
300.59849	31169.94643
304.81948	31223.80357
309.03742	31344.23214
313.25231	31361.375
317.46415	31173.51786
321.67296	30818.51786
325.87872	30515.375
330.08145	30495.375
334.28114	30558.66071
338.47781	30788.23214
342.67145	31124.66071
346.86207	31625.51786
351.04966	32131.375
355.23424	32701.08929
359.4158	33144.94643
363.59435	33502.23214
367.76989	33723.23214
371.94243	33977.08929
376.11196	34130.51786
380.27849	34367.80357
384.44203	34537.23214
388.60257	34779.66071
392.76012	35085.08929
396.91468	35436.375
401.06626	35863.51786
405.21485	36181.08929
409.36047	36102.66071
413.50311	35857.375
417.64277	35681.51786
421.77947	35678.66071
425.9132	35826.80357
430.04396	36028.23214
434.17176	36224.23214
438.2966	36543.23214
442.41849	36978.375
446.53742	37640.375
450.6534	38405.23214
454.76644	38800.51786
458.87653	38925.23214
462.98368	38859.66071
467.08789	38634.23214
471.18916	38184.08929
475.2875	37756.375
479.38291	37310.80357
483.4754	36972.08929
487.56496	36720.80357
491.6516	36651.80357
495.73531	36645.375
499.81612	36595.66071
503.89401	36850.94643
507.96899	37030.94643
512.04106	37137.08929
516.11023	37159.51786
520.1765	37098.66071
524.23987	37094.80357
528.30034	37082.08929
532.35792	37112.08929
536.41261	36924.375
540.46441	36621.375
544.51333	36516.51786
548.55936	36657.23214
552.60252	37093.08929
556.64279	37593.08929
560.6802	37925.66071
564.71473	37962.80357
568.7464	38041.23214
572.7752	38380.94643
576.80114	38840.08929
580.82422	39498.375
584.84444	40393.08929
588.86181	41756.66071
592.87633	43347.94643
596.888	43999.375
600.89682	43105.94643
604.9028	42610.08929
608.90594	44081.23214
612.90624	46361.08929
616.90371	44882.66071
620.89834	40317.66071
624.89015	38133.375
628.87913	37903.08929
632.86528	38061.23214
636.84862	38193.08929
640.82913	38018.375
644.80683	37532.66071
648.78172	37191.08929
652.75379	37229.08929
656.72306	37539.51786
660.68952	37882.80357
664.65319	37863.51786
668.61405	37503.66071
672.57211	37546.375
676.52738	37798.51786
680.47986	37854.94643
684.42955	37646.94643
688.37646	37529.94643
692.32058	37683.51786
696.26192	37912.51786
700.20048	38257.23214
704.13626	38461.08929
708.06928	38423.51786
711.99952	38327.51786
715.927	38209.66071
719.85171	38313.08929
723.77365	38264.375
727.69284	38112.94643
731.60928	37856.94643
735.52295	37790.23214
739.43388	37856.08929
743.34206	37951.94643
747.24749	38072.375
751.15017	38213.23214
755.05012	38444.23214
758.94733	38959.66071
762.8418	40052.80357
766.73354	41867.08929
770.62254	43569.80357
774.50882	44224.375
778.39237	43170.66071
782.27321	41450.08929
786.15132	39908.23214
790.02671	38828.94643
793.89938	38223.51786
797.76935	38006.08929
801.6366	37885.375
805.50115	37744.51786
809.36299	37694.94643
813.22213	37557.51786
817.07857	37490.94643
820.93231	37453.08929
824.78336	37454.51786
828.63172	37428.51786
832.47738	37409.23214
836.32036	37402.23214
840.16066	37480.23214
843.99827	37484.375
847.8332	37533.08929
851.66546	37647.08929
855.49504	37667.66071
859.32195	37757.23214
863.1462	37690.80357
866.96777	37698.80357
870.78668	37730.66071
874.60293	37815.23214
878.41652	37816.08929
882.22745	37873.51786
886.03573	37967.66071
889.84136	38026.23214
893.64433	37942.80357
897.44466	37805.23214
901.24235	37815.94643
905.0374	37660.51786
908.8298	37585.51786
912.61957	37493.94643
916.40671	37641.23214
920.19121	37813.80357
923.97308	38057.66071
927.75233	38104.66071
931.52895	37998.94643
935.30295	37750.23214
939.07433	37407.51786
942.84309	37135.66071
946.60924	37039.23214
950.37278	36953.375
954.13371	36935.375
957.89203	36846.23214
961.64774	36850.375
965.40086	36863.08929
969.15137	36815.80357
972.89929	36785.66071
976.64461	36757.94643
980.38733	36779.08929
984.12747	36860.66071
987.86502	36921.23214
991.59999	37049.66071
995.33237	37269.94643
999.06217	37565.51786
1002.78939	37921.08929
1006.51404	38325.375
1010.23611	38843.51786
1013.95561	39114.66071
1017.67255	39247.23214
1021.38692	39106.23214
1025.09872	38743.94643
1028.80796	38415.23214
1032.51465	38247.08929
1036.21877	38296.94643
1039.92035	38329.375
1043.61937	38458.375
1047.31584	38426.94643
1051.00976	38424.08929
1054.70114	38508.23214
1058.38998	38565.08929
1062.07627	38718.66071
1065.76003	38897.80357
1069.44126	39191.23214
1073.11995	39511.51786
1076.79611	39830.94643
1080.46974	40099.66071
1084.14085	40280.80357
1087.80943	40500.66071
1091.47549	40614.375
1095.13903	40582.375
1098.80005	40348.94643
1102.45857	39880.08929
1106.11456	39637.23214
1109.76805	39492.66071
1113.41903	39490.23214
1117.06751	39680.51786
1120.71348	39874.66071
1124.35696	40214.08929
1127.99793	40482.375
1131.63641	40647.23214
1135.2724	40465.51786
1138.90589	40365.375
1142.5369	40207.08929
1146.16542	40208.94643
1149.79145	40244.94643
1153.415	40216.51786
1157.03607	40313.23214
1160.65467	40753.66071
1164.27079	41532.23214
1167.88443	42652.80357
1171.49561	44057.23214
1175.10432	45773.80357
1178.71056	48056.23214
1182.31434	50239.66071
1185.91565	51225.23214
1189.51451	51156.94643
1193.11091	50288.08929
1196.70485	49197.94643
1200.29634	47962.23214
1203.88538	46780.94643
1207.47197	45832.375
1211.05612	45086.80357
1214.63782	44373.08929
1218.21708	43865.66071
1221.79391	43549.08929
1225.36829	43468.51786
1228.94024	43516.51786
1232.50976	43329.66071
1236.07685	42955.80357
1239.6415	42739.51786
1243.20374	42629.66071
1246.76355	42699.51786
1250.32093	42894.51786
1253.8759	43314.66071
1257.42845	43895.80357
1260.97859	44615.94643
1264.52631	45341.08929
1268.07163	46076.51786
1271.61453	46757.23214
1275.15503	47340.51786
1278.69312	47907.23214
1282.22882	48591.23214
1285.76211	49426.375
1289.29301	50423.375
1292.82151	51711.51786
1296.34761	53188.51786
1299.87133	54946.23214
1303.39266	57033.66071
1306.9116	59063.51786
1310.42815	61106.375
1313.94233	62202.375
1317.45412	61683.80357
1320.96354	60007.51786
1324.47058	58524.80357
1327.97525	57293.66071
1331.47754	56476.08929
1334.97747	56023.66071
1338.47502	55875.375
1341.97022	56013.94643
1345.46305	56306.23214
1348.95352	57027.08929
1352.44163	58145.51786
1355.92738	59610.375
1359.41078	61839.66071
1362.89183	63539.375
1366.37053	62737.94643
1369.84688	58836.375
1373.32088	54003.375
1376.79254	50550.23214
1380.26186	48989.23214
1383.72883	48417.08929
1387.19347	47927.66071
1390.65578	47294.23214
1394.11575	46846.80357
1397.57339	46820.66071
1401.0287	46889.94643
1404.48168	47017.23214
1407.93234	47021.375
1411.38068	46853.23214
1414.82669	46492.08929
1418.27039	45945.375
1421.71177	45298.94643
1425.15083	44636.08929
1428.58758	44310.80357
1432.02203	44437.66071
1435.45416	44895.80357
1438.88399	45484.80357
1442.31151	45704.80357
1445.73673	45875.51786
1449.15965	45807.94643
1452.58027	45694.66071
1455.9986	45533.66071
1459.41463	45596.08929
1462.82837	46032.375
1466.23982	46694.08929
1469.64898	47392.94643
1473.05586	47956.23214
1476.46045	48387.66071
1479.86276	48539.08929
1483.26279	48664.51786
1486.66054	48808.51786
1490.05602	49212.08929
1493.44922	49876.66071
1496.84016	50706.375
1500.22882	51729.66071
1503.61521	53234.08929
1506.99934	54738.80357
1510.38121	55628.80357
1513.76081	55440.80357
1517.13816	53998.66071
1520.51324	52126.94643
1523.88607	50688.94643
1527.25665	49933.23214
1530.62498	49638.08929
1533.99105	49410.23214
1537.35488	49040.375
1540.71647	48463.94643
1544.07581	47841.375
1547.4329	47218.66071
1550.78776	46637.23214
1554.14038	46169.51786
1557.49077	45933.80357
1560.83892	45932.66071
1564.18484	46090.23214
1567.52853	46280.80357
1570.86999	46654.375
1574.20922	46995.51786
1577.54624	47161.51786
1580.88103	46821.80357
1584.2136	46476.66071
1587.54395	46599.23214
1590.87208	47713.94643
1594.19801	49374.94643
1597.52172	51336.08929
1600.84321	52288.80357
1604.16251	51453.80357
1607.47959	49475.80357
1610.79447	47135.51786
1614.10715	44816.08929
1617.41763	42956.08929
1620.7259	41585.375
1624.03199	40787.375
1627.33587	40605.80357
1630.63757	41111.80357
1633.93707	42349.94643
1637.23439	44608.80357
1640.52951	47931.375
1643.82246	52195.375
1647.11321	55645.94643
1650.40179	56599.94643
1653.68819	53854.66071
1656.97241	49023.80357
1660.25446	44437.66071
1663.53433	41205.08929
1666.81203	39253.23214
1670.08756	37977.66071
1673.36092	37253.08929
1676.63211	36769.08929
1679.90115	36373.375
1683.16801	36081.375
1686.43272	35760.94643
1689.69527	35606.80357
1692.95567	35484.51786
1696.2139	35425.80357
1699.46999	35346.375
1702.72392	35256.23214
1705.97571	35232.08929
1709.22535	35241.23214
1712.47284	35202.375
1715.71819	35149.08929
1718.96139	35107.08929
1722.20246	35016.08929
1725.44139	34990.375
1728.67818	34867.66071
1731.91284	34765.375
1735.14537	34638.51786
1738.37576	34538.08929
1741.60403	34423.23214
1744.83017	34280.375
1748.05418	34309.66071
1751.27607	34270.80357
1754.49584	34251.23214
1757.71349	34147.94643
1760.92903	34161.23214
1764.14244	34197.08929
1767.35375	34177.08929
1770.56294	34130.08929
1773.77002	34018.66071
1776.97499	33952.94643
1780.17785	33928.66071
1783.37861	33910.80357
1786.57727	33863.66071
1789.77382	33740.08929
1792.96828	33744.66071
1796.16064	33659.08929
1799.3509	33651.51786
1802.53907	33590.51786
1805.72514	33515.08929
1808.90913	33482.23214
1812.09102	33446.08929
1815.27083	33319.66071
1818.44856	33302.375
1821.6242	33296.94643
1824.79776	33337.51786
1827.96924	33281.51786
1831.13864	33224.08929
1834.30597	33160.375
1837.47122	33185.08929
1840.6344	33197.23214
1843.7955	33187.66071
1846.95454	33207.51786
1850.11151	33161.80357
1853.26642	33114.08929
1856.41926	33041.94643
1859.57004	33103.08929
1862.71876	33042.51786
1865.86542	33036.94643
1869.01003	33030.94643
1872.15258	32931.66071
1875.29308	32970.375
1878.43152	32896.66071
1881.56792	32835.51786
1884.70227	32823.66071
1887.83457	32774.08929
1890.96482	32731.375
1894.09304	32693.51786
1897.21921	32668.08929
1900.34335	32649.08929
1903.46544	32556.51786
1906.58551	32563.66071
1909.70353	32476.66071
1912.81953	32371.375
1915.93349	32390.23214
1919.04543	32339.51786
1922.15534	32315.80357
1925.26322	32256.80357
1928.36908	32184.51786
1931.47292	32150.80357
1934.57473	32104.94643
1937.67453	31993.80357
1940.77232	31942.51786
1943.86808	31822.51786
1946.96184	31773.51786
1950.05358	31692.375
1953.14331	31604.66071
1956.23103	31584.51786
1959.31675	31491.80357
1962.40046	31387.80357
1965.48217	31321.80357
1968.56188	31213.375
1971.63959	31127.51786
1974.7153	31042.94643
1977.78901	30974.66071
1980.86073	30925.66071
1983.93046	30748.23214
1986.99819	30655.23214
1990.06394	30646.66071
1993.1277	30570.23214
1996.18947	30395.23214
1999.24925	30369.80357
2002.30706	30243.94643
2005.36288	30141.375
2008.41672	30076.23214
2011.46859	29952.80357
2014.51848	29893.51786
2017.56639	29870.51786
2020.61233	29781.08929
2023.6563	29690.375
2026.6983	29608.51786
2029.73833	29521.80357
2032.7764	29467.80357
2035.8125	29416.51786
2038.84664	29358.80357
2041.87881	29403.66071
2044.90903	29272.80357
2047.93729	29202.375
2050.96359	29191.51786
2053.98794	29193.66071
2057.01034	29145.08929
2060.03078	29145.94643
2063.04927	29059.66071
2066.06582	29102.23214
2069.08042	29072.23214
2072.09307	29041.08929
2075.10378	29063.375
2078.11255	29015.375
2081.11938	29012.23214
2084.12426	28969.23214
2087.12722	29025.94643
2090.12824	28975.94643
2093.12732	29056.80357
2096.12447	29024.94643
2099.11969	28963.375
2102.11299	29024.66071
2105.10435	28988.375
2108.09379	29007.08929
2111.08131	29031.66071
2114.0669	29120.66071
2117.05057	29128.375
2120.03233	29137.66071
2123.01216	29183.375
2125.99008	29223.08929
2128.96609	29265.94643
2131.94018	29315.375
2134.91236	29315.51786
2137.88263	29305.375
2140.851	29268.66071
2143.81746	29355.375
2146.78201	29321.23214
2149.74466	29321.66071
2152.7054	29364.51786
2155.66425	29308.375
2158.6212	29288.375
2161.57625	29281.375
2164.52941	29321.94643
2167.48067	29280.66071
2170.43004	29255.375
2173.37752	29225.23214
2176.32311	29271.23214
2179.26681	29275.375
2182.20863	29291.08929
2185.14856	29269.66071
2188.08661	29248.94643
2191.02278	29302.08929
2193.95707	29215.08929
2196.88948	29231.51786
2199.82001	29205.66071
2202.74867	29199.94643
2205.67545	29156.375
2208.60037	29114.51786
2211.52341	29045.375
2214.44458	29015.08929
2217.36388	28910.80357
2220.28132	28948.08929
2223.1969	28839.80357
2226.11061	28827.23214
2229.02246	28777.51786
2231.93245	28647.51786
2234.84058	28600.375
2237.74686	28581.23214
2240.65128	28676.23214
2243.55385	28630.80357
2246.45456	28604.23214
2249.35343	28481.51786
2252.25044	28459.66071
2255.14561	28419.51786
2258.03893	28366.375
2260.93041	28358.375
2263.82004	28275.66071
2266.70783	28235.23214
2269.59378	28127.23214
2272.4779	28073.94643
2275.36017	28032.94643
2278.24061	28034.51786
2281.11922	27939.375
2283.996	27919.08929
2286.87094	27894.94643
2289.74405	27794.23214
2292.61534	27757.51786
2295.4848	27797.23214
2298.35243	27758.94643
2301.21824	27807.23214
2304.08223	27747.375
2306.94439	27690.375
2309.80474	27624.80357
2312.66327	27689.80357
2315.51999	27616.94643
2318.37489	27618.94643
2321.22797	27592.23214
2324.07925	27505.80357
2326.92871	27419.51786
2329.77637	27397.51786
2332.62222	27345.51786
2335.46626	27337.375
2338.3085	27287.375
2341.14893	27286.375
2343.98756	27286.08929
2346.8244	27246.66071
2349.65943	27188.23214
2352.49267	27148.66071
2355.32411	27146.51786
2358.15376	27151.375
2360.98161	27151.08929
2363.80768	27122.23214
2366.63195	27086.66071
2369.45444	27045.94643
2372.27514	27001.375
2375.09405	26914.94643
2377.91118	26968.08929
2380.72652	26918.375
2383.54009	26875.375
2386.35187	26791.80357
2389.16188	26752.375
2391.97011	26682.66071
2394.77657	26633.51786
2397.58125	26594.23214
2400.38416	26544.66071
2403.18529	26557.51786
2405.98466	26531.66071
2408.78226	26498.375
2411.57809	26386.23214
2414.37216	26396.375
2417.16446	26390.80357
2419.955	26385.23214
2422.74378	26265.94643
2425.5308	26234.23214
2428.31606	26288.375
2431.09956	26312.80357
2433.88131	26174.80357
2436.6613	26228.23214
2439.43954	26193.80357
2442.21603	26193.08929
2444.99077	26177.66071
2447.76377	26131.51786
2450.53501	26101.08929
2453.30451	26099.375
2456.07226	26082.51786
2458.83827	26069.66071
2461.60254	25989.51786
2464.36507	25986.23214
2467.12586	25935.94643
2469.88492	25916.80357
2472.64224	25925.94643
2475.39782	25904.51786
2478.15167	25875.51786
2480.90379	25867.23214
2483.65417	25931.66071
2486.40283	25867.375
2489.14976	25906.80357
2491.89497	25908.23214
2494.63845	25903.375
2497.3802	25871.375
2500.12024	25818.08929
2502.85855	25773.66071
2505.59514	25750.80357
2508.33002	25661.80357
2511.06318	25650.66071
2513.79462	25637.375
2516.52435	25608.375
2519.25237	25626.66071
2521.97867	25562.08929
2524.70327	25523.08929
2527.42616	25523.23214
2530.14734	25448.23214
2532.86681	25442.66071
2535.58458	25424.08929
2538.30065	25403.08929
2541.01501	25344.51786
2543.72768	25364.08929
2546.43864	25307.51786
2549.14791	25219.51786
2551.85548	25278.375
2554.56136	25154.94643
2557.26554	25114.23214
2559.96803	25092.23214
2562.66883	25023.375
2565.36794	25013.51786
2568.06536	24957.66071
2570.7611	24904.80357
2573.45514	24902.23214
2576.14751	24887.51786
2578.83819	24780.66071
2581.52719	24788.375
2584.21451	24732.51786
2586.90015	24710.94643
2589.58411	24664.66071
2592.2664	24654.51786
2594.94701	24590.80357
2597.62594	24520.80357
2600.30321	24471.08929
2602.9788	24446.51786
2605.65273	24426.08929
2608.32498	24396.08929
2610.99557	24445.94643
2613.66449	24402.66071
2616.33175	24322.23214
2618.99734	24312.80357
2621.66128	24284.94643
2624.32355	24259.375
2626.98416	24213.66071
2629.64311	24174.51786
2632.30041	24125.375
2634.95605	24135.80357
2637.61004	24040.80357
2640.26238	23999.23214
2642.91306	24007.23214
2645.56209	24025.08929
2648.20948	24032.375
2650.85521	23957.94643
2653.4993	24000.80357
2656.14175	23995.80357
2658.78255	23987.375
2661.42171	24009.08929
2664.05923	24050.08929
2666.6951	23991.66071
2669.32934	24023.94643
2671.96194	24007.23214
2674.59291	24036.08929
2677.22224	23999.94643
2679.84993	23950.80357
2682.476	23940.23214
2685.10043	23957.375
2687.72324	23936.94643
2690.34441	23949.51786
2692.96396	23926.94643
2695.58188	23976.51786
2698.19818	23936.94643
2700.81285	23898.375
2703.4259	23932.08929
2706.03733	23907.94643
2708.64714	23951.23214
2711.25533	23983.08929
2713.86191	23941.08929
2716.46687	24001.51786
2719.07021	23960.51786
2721.67194	23977.375
2724.27206	23955.51786
2726.87057	23944.66071
2729.46747	23941.66071
2732.06276	23942.66071
2734.65644	23908.66071
2737.24852	23876.80357
2739.83899	23866.08929
2742.42786	23907.80357
2745.01513	23847.08929
2747.60079	23765.94643
2750.18486	23771.51786
2752.76733	23765.80357
2755.3482	23715.94643
2757.92747	23728.94643
2760.50515	23697.94643
2763.08123	23686.08929
2765.65573	23591.80357
2768.22863	23601.51786
2770.79994	23535.08929
2773.36967	23531.375
2775.9378	23518.80357
2778.50435	23501.94643
2781.06932	23438.94643
2783.6327	23429.08929
2786.1945	23369.375
2788.75471	23378.51786
2791.31335	23271.80357
2793.87041	23283.80357
2796.42589	23195.94643
2798.97979	23186.66071
2801.53212	23117.08929
2804.08288	23125.08929
2806.63206	23036.375
2809.17967	22977.80357
2811.72571	22986.66071
2814.27018	22910.08929
2816.81308	22825.23214
2819.35442	22799.80357
2821.89419	22766.66071
2824.43239	22744.23214
2826.96904	22737.375
2829.50412	22702.08929
2832.03763	22632.375
2834.56959	22626.94643
2837.1	22637.51786
2839.62884	22586.51786
2842.15613	22542.375
2844.68186	22510.375
2847.20604	22531.66071
2849.72867	22551.51786
2852.24974	22498.80357
2854.76927	22474.51786
2857.28724	22458.66071
2859.80367	22390.94643
2862.31855	22358.80357
2864.83189	22285.08929
2867.34368	22268.80357
2869.85393	22278.94643
2872.36264	22242.08929
2874.8698	22196.51786
2877.37543	22127.94643
2879.87952	22162.66071
2882.38207	22210.66071
2884.88308	22135.94643
2887.38256	22183.51786
2889.88051	22122.66071
2892.37692	22162.80357
2894.8718	22138.08929
2897.36515	22158.80357
2899.85698	22170.08929
2902.34727	22200.23214
2904.83604	22196.80357
2907.32328	22189.80357
2909.809	22163.08929
2912.29319	22213.08929
2914.77587	22186.08929
2917.25702	22178.23214
2919.73665	22197.51786
2922.21476	22169.375
2924.69136	22113.23214
2927.16644	22158.375
2929.64	22074.51786
2932.11205	22068.23214
2934.58258	21991.375
2937.05161	22100.80357
2939.51912	22060.66071
2941.98513	22039.23214
2944.44962	22078.80357
2946.91261	21994.66071
2949.37409	22037.375
2951.83407	22041.23214
2954.29254	21997.23214
2956.74951	21999.66071
2959.20498	21964.66071
2961.65895	21932.66071
2964.11142	21932.23214
2966.56239	21891.08929
2969.01186	21864.94643
2971.45984	21830.23214
2973.90632	21814.51786
2976.35131	21747.08929
2978.7948	21766.23214
2981.23681	21682.08929
2983.67732	21654.66071
2986.11635	21590.94643
2988.55388	21554.23214
2990.98993	21540.80357
2993.4245	21502.80357
2995.85758	21470.23214
2998.28917	21471.51786
3000.71928	21411.94643
3003.14791	21307.23214
3005.57506	21322.375
3008.00073	21275.94643
3010.42493	21262.23214
3012.84764	21205.94643
3015.26888	21189.375
3017.68865	21151.80357
3020.10694	21112.66071
3022.52376	21088.08929
3024.9391	21053.08929
3027.35298	20989.51786
3029.76539	20986.08929
3032.17632	20981.94643
3034.5858	20978.08929
3036.9938	20945.08929
3039.40034	20903.66071
3041.80542	20904.66071
3044.20903	20825.51786
3046.61118	20861.94643
3049.01187	20803.08929
3051.4111	20784.375
3053.80888	20731.23214
3056.20519	20728.80357
3058.60005	20666.08929
3060.99345	20647.94643
3063.3854	20542.94643
3065.7759	20513.94643
3068.16494	20470.08929
3070.55254	20407.51786
3072.93868	20356.94643
3075.32338	20316.80357
3077.70662	20308.375
3080.08842	20249.94643
3082.46878	20229.94643
3084.84769	20202.08929
3087.22515	20176.51786
3089.60118	20191.94643
3091.97576	20165.51786
3094.3489	20189.375
3096.72061	20209.94643
3099.09087	20181.23214
3101.4597	20189.94643
3103.82709	20174.94643
3106.19305	20139.23214
3108.55757	20140.94643
3110.92066	20058.08929
3113.28232	20037.51786
3115.64255	19994.375
3118.00134	19945.375
3120.35871	19922.375
3122.71466	19878.23214
3125.06917	19827.66071
3127.42226	19808.375
3129.77393	19823.94643
3132.12417	19784.80357
3134.47299	19726.94643
3136.82039	19719.51786
3139.16636	19706.51786
3141.51092	19717.80357
3143.85406	19726.80357
3146.19579	19721.94643
3148.53609	19688.51786
3150.87499	19726.66071
3153.21246	19724.51786
3155.54853	19717.23214
3157.88318	19703.66071
3160.21642	19799.375
3162.54826	19763.66071
3164.87868	19753.51786
3167.2077	19701.80357
3169.5353	19752.23214
3171.86151	19688.375
3174.18631	19685.375
3176.5097	19681.375
3178.83169	19610.51786
3181.15228	19613.08929
3183.47147	19572.66071
3185.78926	19556.08929
3188.10565	19538.80357
3190.42065	19493.66071
3192.73424	19459.23214
3195.04645	19472.375
3197.35725	19457.80357
3199.66667	19435.51786
3201.97469	19461.51786
3204.28132	19410.51786
3206.58656	19431.23214
3208.8904	19442.66071
3211.19287	19481.23214
3213.49394	19511.375
3215.79363	19464.94643
3218.09193	19491.94643
3220.38884	19466.94643
3222.68438	19498.66071
3224.97853	19437.66071
3227.2713	19432.66071
3229.56269	19415.80357
3231.8527	19381.375
3234.14133	19364.23214
3236.42858	19270.66071
3238.71446	19290.51786
3240.99896	19202.08929
3243.28209	19197.23214
3245.56384	19155.80357
3247.84423	19169.94643
3250.12324	19151.08929
3252.40088	19102.08929
3254.67715	19114.80357
3256.95205	19079.80357
3259.22558	19060.94643
3261.49775	19033.51786
3263.76855	19041.375
3266.03799	19022.08929
3268.30606	19009.51786
3270.57277	18943.23214
3272.83812	18929.80357
3275.10211	18903.23214
3277.36474	18894.80357
3279.62601	18850.51786
3281.88593	18792.08929
3284.14448	18795.375
3286.40168	18835.80357
3288.65753	18768.23214
3290.91202	18736.66071
3293.16516	18699.66071
3295.41695	18664.08929
3297.66738	18585.08929
3299.91647	18473.94643
3302.16421	18385.80357
3304.4106	18286.80357
3306.65564	18157.23214
3308.89933	18067.23214
3311.14169	17931.23214
3313.38269	17793.66071
3315.62236	17659.94643
3317.86068	17512.23214
3320.09766	17361.94643
3322.3333	17247.08929
3324.5676	17192.66071
3326.80056	16928.66071
3329.03219	16801.94643
3331.26248	2.66071
3333.49143	-0.76786
3335.71905	-0.05357
