Data from AgNPs_FTO_APTES_UA_20uM_CRN_500uM_R6G_10uM_NaF_0.1M_Addition_RamanShift__28__19-04-44-994.txt Node

Date: Thu Feb 17 19:04:44 GMT 2022
User: TCL
Spectrometer: QEP01345
Trigger mode: 4
Integration Time (sec): 1.000000E1
Scans to average: 7
Electric dark correction enabled: true
Nonlinearity correction enabled: false
Boxcar width: 0
XAxis mode: Raman Shifts
Number of Pixels in Spectrum: 1044
>>>>>Begin Spectral Data<<<<<
46.04893	0.23214
50.45542	-0.48214
54.85868	-0.19643
59.25871	-2.91071
63.6555	83.66071
68.04907	87.375
72.43941	93.375
76.82654	99.23214
81.21044	102.66071
85.59113	102.375
89.96862	110.80357
94.34289	110.375
98.71396	111.375
103.08183	115.375
107.4465	124.94643
111.80798	123.51786
116.16626	129.23214
120.52136	133.08929
124.87327	137.08929
129.222	142.66071
133.56755	151.51786
137.90993	174.23214
142.24913	181.375
146.58517	211.08929
150.91804	241.94643
155.24774	294.94643
159.57429	356.08929
163.89768	477.51786
168.21792	633.94643
172.53501	871.80357
176.84895	1221.80357
181.15975	1723.80357
185.46741	2431.66071
189.77193	3378.94643
194.07331	4548.66071
198.37157	5920.08929
202.6667	7360.08929
206.9587	8838.08929
211.24758	10373.51786
215.53334	11961.375
219.81599	13759.375
224.09553	15739.51786
228.37195	17972.51786
232.64527	20440.94643
236.91549	22824.94643
241.18261	24972.375
245.44663	26699.23214
249.70755	28156.51786
253.96539	29376.80357
258.22014	30402.08929
262.4718	31150.08929
266.72039	31409.94643
270.96589	31286.66071
275.20832	30714.80357
279.44768	29843.23214
283.68397	29005.23214
287.91719	28469.94643
292.14735	28469.51786
296.37445	29254.375
300.59849	30759.23214
304.81948	32753.23214
309.03742	34445.80357
313.25231	34764.94643
317.46415	33215.23214
321.67296	30381.51786
325.87872	27799.51786
330.08145	26615.80357
334.28114	26581.375
338.47781	27147.23214
342.67145	28088.66071
346.86207	29525.08929
351.04966	31660.94643
355.23424	34210.08929
359.4158	36116.23214
363.59435	36890.80357
367.76989	36977.08929
371.94243	36650.66071
376.11196	36227.66071
380.27849	35831.51786
384.44203	35263.375
388.60257	34574.51786
392.76012	34040.375
396.91468	34246.375
401.06626	34993.94643
405.21485	35571.08929
409.36047	34804.51786
413.50311	32666.08929
417.64277	30526.51786
421.77947	29145.51786
425.9132	28516.23214
430.04396	28381.66071
434.17176	28531.23214
438.2966	29046.80357
442.41849	29899.375
446.53742	30907.08929
450.6534	31854.08929
454.76644	32411.23214
458.87653	32365.51786
462.98368	31965.80357
467.08789	31336.23214
471.18916	30445.08929
475.2875	29623.51786
479.38291	28849.23214
483.4754	28202.08929
487.56496	27774.94643
491.6516	27481.375
495.73531	27340.66071
499.81612	27445.94643
503.89401	27798.08929
507.96899	28293.08929
512.04106	28933.51786
516.11023	29620.08929
520.1765	30195.94643
524.23987	30367.08929
528.30034	29992.66071
532.35792	29483.23214
536.41261	28937.51786
540.46441	28269.08929
544.51333	27814.94643
548.55936	27829.08929
552.60252	28336.80357
556.64279	29062.375
560.6802	29572.94643
564.71473	30281.23214
568.7464	31878.08929
572.7752	32546.23214
576.80114	30968.51786
580.82422	29155.375
584.84444	28401.94643
588.86181	28497.66071
592.87633	29078.08929
596.888	29752.80357
600.89682	30843.375
604.9028	34903.375
608.90594	46528.80357
612.90624	62426.66071
616.90371	60941.80357
620.89834	41406.51786
624.89015	31499.375
628.87913	29578.80357
632.86528	29967.375
636.84862	30618.94643
640.82913	29985.94643
644.80683	28204.94643
648.78172	26934.66071
652.75379	26966.08929
656.72306	28247.23214
660.68952	29853.08929
664.65319	29513.94643
668.61405	27745.80357
672.57211	26914.80357
676.52738	26939.94643
680.47986	26962.94643
684.42955	26641.51786
688.37646	26435.08929
692.32058	26425.80357
696.26192	26657.23214
700.20048	27131.66071
704.13626	27282.51786
708.06928	27118.80357
711.99952	26734.08929
715.927	26663.375
719.85171	26824.66071
723.77365	27024.94643
727.69284	26904.375
731.60928	26657.08929
735.52295	26596.66071
739.43388	26719.08929
743.34206	26815.08929
747.24749	26932.08929
751.15017	26935.51786
755.05012	27409.375
758.94733	28953.375
762.8418	32846.23214
766.73354	39294.66071
770.62254	45594.51786
774.50882	48971.66071
778.39237	47515.08929
782.27321	40831.51786
786.15132	33669.08929
790.02671	29413.51786
793.89938	27549.375
797.76935	26808.08929
801.6366	26482.51786
805.50115	26304.80357
809.36299	26257.23214
813.22213	26153.375
817.07857	26053.375
820.93231	26072.66071
824.78336	26124.23214
828.63172	26304.94643
832.47738	26344.375
836.32036	26251.08929
840.16066	26040.375
843.99827	25963.375
847.8332	25942.80357
851.66546	25876.51786
855.49504	25860.51786
859.32195	25893.80357
863.1462	25816.51786
866.96777	25778.375
870.78668	25716.51786
874.60293	25772.23214
878.41652	25849.23214
882.22745	26080.51786
886.03573	26190.66071
889.84136	26158.66071
893.64433	26015.51786
897.44466	26044.80357
901.24235	25977.80357
905.0374	25784.94643
908.8298	25583.51786
912.61957	25375.375
916.40671	25367.80357
920.19121	25521.80357
923.97308	25814.51786
927.75233	26323.66071
931.52895	26913.66071
935.30295	26761.94643
939.07433	25902.66071
942.84309	25087.08929
946.60924	24644.94643
950.37278	24379.23214
954.13371	24179.51786
957.89203	24083.375
961.64774	24009.375
965.40086	23966.66071
969.15137	23812.80357
972.89929	23789.375
976.64461	23748.23214
980.38733	23792.94643
984.12747	23840.51786
987.86502	24006.375
991.59999	24228.23214
995.33237	24545.08929
999.06217	25213.94643
1002.78939	26043.23214
1006.51404	26716.51786
1010.23611	27132.375
1013.95561	27448.94643
1017.67255	27429.51786
1021.38692	27121.23214
1025.09872	26764.51786
1028.80796	26713.80357
1032.51465	27144.375
1036.21877	27591.23214
1039.92035	27734.51786
1043.61937	27629.375
1047.31584	27312.94643
1051.00976	26798.80357
1054.70114	26343.94643
1058.38998	26158.08929
1062.07627	26113.23214
1065.76003	26108.51786
1069.44126	26092.94643
1073.11995	26316.51786
1076.79611	26778.66071
1080.46974	27516.08929
1084.14085	28624.23214
1087.80943	29490.80357
1091.47549	29656.23214
1095.13903	29029.94643
1098.80005	27985.66071
1102.45857	27162.51786
1106.11456	27068.94643
1109.76805	27476.23214
1113.41903	28454.51786
1117.06751	29938.66071
1120.71348	31897.80357
1124.35696	33928.51786
1127.99793	35257.80357
1131.63641	34436.08929
1135.2724	32147.66071
1138.90589	30180.375
1142.5369	28968.08929
1146.16542	28200.66071
1149.79145	27657.94643
1153.415	27540.375
1157.03607	27698.80357
1160.65467	28193.08929
1164.27079	29205.66071
1167.88443	30804.80357
1171.49561	33398.66071
1175.10432	37455.66071
1178.71056	43217.23214
1182.31434	48281.23214
1185.91565	49657.375
1189.51451	47672.80357
1193.11091	44001.23214
1196.70485	40416.51786
1200.29634	37979.94643
1203.88538	36176.80357
1207.47197	33905.94643
1211.05612	31864.94643
1214.63782	30644.80357
1218.21708	30170.94643
1221.79391	30131.375
1225.36829	30111.23214
1228.94024	29864.80357
1232.50976	29565.51786
1236.07685	29384.94643
1239.6415	29548.94643
1243.20374	29763.375
1246.76355	30205.51786
1250.32093	30657.51786
1253.8759	31420.51786
1257.42845	32435.23214
1260.97859	33592.23214
1264.52631	34749.23214
1268.07163	35812.23214
1271.61453	36749.51786
1275.15503	37375.94643
1278.69312	37581.23214
1282.22882	38048.66071
1285.76211	39042.51786
1289.29301	40355.94643
1292.82151	41794.66071
1296.34761	43465.08929
1299.87133	46302.51786
1303.39266	51195.375
1306.9116	58701.66071
1310.42815	66383.51786
1313.94233	68966.94643
1317.45412	64700.94643
1320.96354	57578.51786
1324.47058	51050.375
1327.97525	46128.80357
1331.47754	43458.94643
1334.97747	42713.66071
1338.47502	43646.51786
1341.97022	45912.94643
1345.46305	49150.94643
1348.95352	53132.94643
1352.44163	58202.94643
1355.92738	65927.375
1359.41078	77652.375
1362.89183	87011.66071
1366.37053	81746.66071
1369.84688	66436.08929
1373.32088	53564.80357
1376.79254	45937.23214
1380.26186	41665.66071
1383.72883	38973.80357
1387.19347	37058.08929
1390.65578	35448.51786
1394.11575	34258.66071
1397.57339	33856.80357
1401.0287	33957.94643
1404.48168	34361.08929
1407.93234	34907.375
1411.38068	35506.80357
1414.82669	36015.23214
1418.27039	35880.66071
1421.71177	35415.23214
1425.15083	34784.375
1428.58758	34547.51786
1432.02203	34953.23214
1435.45416	35315.94643
1438.88399	35276.51786
1442.31151	35190.23214
1445.73673	35275.51786
1449.15965	35505.94643
1452.58027	35350.23214
1455.9986	34903.94643
1459.41463	34674.66071
1462.82837	35010.94643
1466.23982	35890.66071
1469.64898	36832.66071
1473.05586	37388.23214
1476.46045	37756.08929
1479.86276	38269.51786
1483.26279	39163.375
1486.66054	40421.51786
1490.05602	42008.80357
1493.44922	44292.80357
1496.84016	47713.66071
1500.22882	53300.23214
1503.61521	61817.94643
1506.99934	72046.23214
1510.38121	80327.51786
1513.76081	81503.08929
1517.13816	74184.23214
1520.51324	62487.66071
1523.88607	52048.80357
1527.25665	45471.51786
1530.62498	41806.66071
1533.99105	39772.80357
1537.35488	38597.66071
1540.71647	38064.23214
1544.07581	38083.23214
1547.4329	38331.80357
1550.78776	38564.94643
1554.14038	38757.23214
1557.49077	39121.80357
1560.83892	39845.80357
1564.18484	41193.51786
1567.52853	42849.94643
1570.86999	43961.375
1574.20922	44447.375
1577.54624	43830.23214
1580.88103	41132.08929
1584.2136	37898.23214
1587.54395	36137.23214
1590.87208	36602.08929
1594.19801	38832.66071
1597.52172	41935.08929
1600.84321	43485.80357
1604.16251	42295.66071
1607.47959	39657.375
1610.79447	36586.94643
1614.10715	33664.08929
1617.41763	31466.23214
1620.7259	30065.51786
1624.03199	29468.66071
1627.33587	29613.08929
1630.63757	30479.80357
1633.93707	32110.66071
1637.23439	34772.66071
1640.52951	38878.94643
1643.82246	44974.66071
1647.11321	52128.94643
1650.40179	56699.80357
1653.68819	54155.08929
1656.97241	45900.375
1660.25446	37556.94643
1663.53433	31837.94643
1666.81203	28590.08929
1670.08756	26749.51786
1673.36092	25618.80357
1676.63211	24883.08929
1679.90115	24330.51786
1683.16801	23993.23214
1686.43272	23627.80357
1689.69527	23443.51786
1692.95567	23264.94643
1696.2139	23226.66071
1699.46999	23146.51786
1702.72392	23079.66071
1705.97571	23068.51786
1709.22535	23013.80357
1712.47284	23033.51786
1715.71819	23038.80357
1718.96139	22973.66071
1722.20246	22829.23214
1725.44139	22667.23214
1728.67818	22524.51786
1731.91284	22342.23214
1735.14537	22305.66071
1738.37576	22171.80357
1741.60403	22077.08929
1744.83017	21979.23214
1748.05418	21954.80357
1751.27607	21944.66071
1754.49584	21811.375
1757.71349	21757.23214
1760.92903	21701.80357
1764.14244	21662.51786
1767.35375	21655.08929
1770.56294	21525.08929
1773.77002	21454.94643
1776.97499	21380.94643
1780.17785	21332.08929
1783.37861	21287.375
1786.57727	21239.94643
1789.77382	21195.94643
1792.96828	21167.08929
1796.16064	21077.375
1799.3509	21060.66071
1802.53907	21057.80357
1805.72514	20981.08929
1808.90913	20918.94643
1812.09102	20872.66071
1815.27083	20804.23214
1818.44856	20771.375
1821.6242	20742.80357
1824.79776	20702.80357
1827.96924	20683.375
1831.13864	20632.51786
1834.30597	20591.66071
1837.47122	20583.66071
1840.6344	20551.23214
1843.7955	20530.66071
1846.95454	20514.08929
1850.11151	20480.80357
1853.26642	20445.80357
1856.41926	20471.51786
1859.57004	20500.08929
1862.71876	20480.23214
1865.86542	20464.375
1869.01003	20461.51786
1872.15258	20478.23214
1875.29308	20513.23214
1878.43152	20462.94643
1881.56792	20478.375
1884.70227	20416.66071
1887.83457	20461.08929
1890.96482	20374.08929
1894.09304	20344.51786
1897.21921	20361.80357
1900.34335	20332.80357
1903.46544	20338.94643
1906.58551	20328.94643
1909.70353	20288.51786
1912.81953	20216.23214
1915.93349	20268.66071
1919.04543	20196.80357
1922.15534	20218.80357
1925.26322	20108.08929
1928.36908	20107.51786
1931.47292	20094.51786
1934.57473	20009.66071
1937.67453	19983.23214
1940.77232	19865.80357
1943.86808	19798.94643
1946.96184	19771.94643
1950.05358	19702.375
1953.14331	19687.08929
1956.23103	19637.375
1959.31675	19590.08929
1962.40046	19537.94643
1965.48217	19513.66071
1968.56188	19462.375
1971.63959	19403.51786
1974.7153	19386.80357
1977.78901	19295.94643
1980.86073	19276.80357
1983.93046	19191.80357
1986.99819	19133.51786
1990.06394	18995.80357
1993.1277	18965.80357
1996.18947	18849.08929
1999.24925	18794.66071
2002.30706	18723.375
2005.36288	18669.08929
2008.41672	18641.80357
2011.46859	18578.23214
2014.51848	18549.94643
2017.56639	18463.08929
2020.61233	18395.66071
2023.6563	18364.66071
2026.6983	18328.66071
2029.73833	18286.94643
2032.7764	18256.94643
2035.8125	18221.94643
2038.84664	18164.375
2041.87881	18182.94643
2044.90903	18114.51786
2047.93729	18115.375
2050.96359	18123.23214
2053.98794	18068.80357
2057.01034	18018.66071
2060.03078	18014.80357
2063.04927	17973.23214
2066.06582	18026.94643
2069.08042	17929.80357
2072.09307	17900.80357
2075.10378	17884.23214
2078.11255	17895.23214
2081.11938	17876.51786
2084.12426	17879.375
2087.12722	17859.80357
2090.12824	17861.94643
2093.12732	17891.94643
2096.12447	17900.66071
2099.11969	17859.80357
2102.11299	17836.23214
2105.10435	17862.23214
2108.09379	17863.375
2111.08131	17925.80357
2114.0669	17925.08929
2117.05057	17969.51786
2120.03233	17932.51786
2123.01216	17969.94643
2125.99008	18027.51786
2128.96609	18080.94643
2131.94018	18022.51786
2134.91236	18041.94643
2137.88263	18057.66071
2140.851	18030.23214
2143.81746	18053.66071
2146.78201	18013.80357
2149.74466	17987.80357
2152.7054	17986.23214
2155.66425	17985.51786
2158.6212	17948.23214
2161.57625	17935.94643
2164.52941	17940.23214
2167.48067	17918.80357
2170.43004	17929.08929
2173.37752	17943.51786
2176.32311	17972.08929
2179.26681	17956.94643
2182.20863	17933.51786
2185.14856	17966.66071
2188.08661	17967.23214
2191.02278	17931.94643
2193.95707	17894.08929
2196.88948	17889.66071
2199.82001	17873.51786
2202.74867	17862.23214
2205.67545	17855.08929
2208.60037	17860.23214
2211.52341	17850.08929
2214.44458	17801.375
2217.36388	17778.94643
2220.28132	17765.66071
2223.1969	17733.94643
2226.11061	17703.51786
2229.02246	17634.94643
2231.93245	17559.94643
2234.84058	17539.51786
2237.74686	17541.80357
2240.65128	17530.375
2243.55385	17533.80357
2246.45456	17507.94643
2249.35343	17496.23214
2252.25044	17488.80357
2255.14561	17488.23214
2258.03893	17561.375
2260.93041	17512.66071
2263.82004	17452.51786
2266.70783	17445.94643
2269.59378	17385.66071
2272.4779	17316.94643
2275.36017	17255.375
2278.24061	17244.375
2281.11922	17201.66071
2283.996	17192.23214
2286.87094	17158.51786
2289.74405	17156.80357
2292.61534	17098.08929
2295.4848	17074.66071
2298.35243	17070.94643
2301.21824	17069.94643
2304.08223	17059.80357
2306.94439	17014.23214
2309.80474	17013.08929
2312.66327	17031.51786
2315.51999	17059.08929
2318.37489	17024.23214
2321.22797	16995.375
2324.07925	17016.51786
2326.92871	16938.23214
2329.77637	16932.66071
2332.62222	16952.51786
2335.46626	16931.80357
2338.3085	16936.08929
2341.14893	16952.80357
2343.98756	16950.66071
2346.8244	16987.80357
2349.65943	16965.51786
2352.49267	16947.66071
2355.32411	16998.80357
2358.15376	16972.08929
2360.98161	16985.08929
2363.80768	17064.375
2366.63195	17016.375
2369.45444	16981.08929
2372.27514	16986.08929
2375.09405	16896.375
2377.91118	16875.66071
2380.72652	16812.94643
2383.54009	16789.80357
2386.35187	16701.375
2389.16188	16629.23214
2391.97011	16617.94643
2394.77657	16598.08929
2397.58125	16546.51786
2400.38416	16559.66071
2403.18529	16503.08929
2405.98466	16484.94643
2408.78226	16375.51786
2411.57809	16373.08929
2414.37216	16357.66071
2417.16446	16321.375
2419.955	16305.51786
2422.74378	16314.80357
2425.5308	16289.375
2428.31606	16309.66071
2431.09956	16299.80357
2433.88131	16260.375
2436.6613	16262.375
2439.43954	16295.08929
2442.21603	16334.94643
2444.99077	16284.08929
2447.76377	16280.80357
2450.53501	16298.23214
2453.30451	16303.23214
2456.07226	16257.08929
2458.83827	16242.80357
2461.60254	16221.08929
2464.36507	16226.23214
2467.12586	16213.51786
2469.88492	16179.375
2472.64224	16209.375
2475.39782	16242.80357
2478.15167	16250.66071
2480.90379	16321.94643
2483.65417	16344.23214
2486.40283	16355.375
2489.14976	16405.08929
2491.89497	16392.66071
2494.63845	16460.08929
2497.3802	16390.66071
2500.12024	16395.80357
2502.85855	16311.08929
2505.59514	16256.66071
2508.33002	16236.51786
2511.06318	16163.23214
2513.79462	16097.66071
2516.52435	16071.80357
2519.25237	16036.51786
2521.97867	15950.08929
2524.70327	15955.80357
2527.42616	15923.66071
2530.14734	15908.80357
2532.86681	15914.66071
2535.58458	15904.08929
2538.30065	15900.375
2541.01501	15883.94643
2543.72768	15880.80357
2546.43864	15891.08929
2549.14791	15873.08929
2551.85548	15880.23214
2554.56136	15844.375
2557.26554	15831.66071
2559.96803	15811.08929
2562.66883	15801.375
2565.36794	15727.80357
2568.06536	15732.375
2570.7611	15694.23214
2573.45514	15653.375
2576.14751	15662.94643
2578.83819	15611.23214
2581.52719	15628.80357
2584.21451	15605.375
2586.90015	15603.375
2589.58411	15573.94643
2592.2664	15562.08929
2594.94701	15548.66071
2597.62594	15558.80357
2600.30321	15491.375
2602.9788	15511.375
2605.65273	15482.66071
2608.32498	15528.23214
2610.99557	15542.51786
2613.66449	15485.08929
2616.33175	15490.375
2618.99734	15517.66071
2621.66128	15516.23214
2624.32355	15429.51786
2626.98416	15449.51786
2629.64311	15458.94643
2632.30041	15431.66071
2634.95605	15381.94643
2637.61004	15351.08929
2640.26238	15340.08929
2642.91306	15318.51786
2645.56209	15292.80357
2648.20948	15318.80357
2650.85521	15278.08929
2653.4993	15274.80357
2656.14175	15297.375
2658.78255	15320.08929
2661.42171	15338.80357
2664.05923	15381.375
2666.6951	15402.08929
2669.32934	15385.51786
2671.96194	15399.66071
2674.59291	15403.375
2677.22224	15396.94643
2679.84993	15431.23214
2682.476	15385.23214
2685.10043	15379.66071
2687.72324	15330.23214
2690.34441	15344.51786
2692.96396	15331.51786
2695.58188	15356.94643
2698.19818	15338.08929
2700.81285	15321.66071
2703.4259	15356.94643
2706.03733	15352.51786
2708.64714	15336.08929
2711.25533	15321.08929
2713.86191	15378.08929
2716.46687	15386.08929
2719.07021	15376.80357
2721.67194	15382.94643
2724.27206	15374.80357
2726.87057	15434.08929
2729.46747	15378.51786
2732.06276	15378.375
2734.65644	15374.08929
2737.24852	15375.94643
2739.83899	15298.66071
2742.42786	15346.375
2745.01513	15274.80357
2747.60079	15264.375
2750.18486	15227.23214
2752.76733	15255.51786
2755.3482	15211.23214
2757.92747	15254.375
2760.50515	15232.51786
2763.08123	15172.51786
2765.65573	15178.08929
2768.22863	15149.80357
2770.79994	15142.94643
2773.36967	15169.80357
2775.9378	15161.23214
2778.50435	15128.08929
2781.06932	15131.80357
2783.6327	15146.23214
2786.1945	15132.80357
2788.75471	15114.51786
2791.31335	15071.80357
2793.87041	15092.08929
2796.42589	15099.94643
2798.97979	15094.08929
2801.53212	15040.94643
2804.08288	15039.80357
2806.63206	15017.94643
2809.17967	15054.66071
2811.72571	15002.08929
2814.27018	15032.375
2816.81308	15041.66071
2819.35442	15026.375
2821.89419	15017.375
2824.43239	15018.51786
2826.96904	15004.375
2829.50412	15025.51786
2832.03763	15031.51786
2834.56959	15031.23214
2837.1	14978.94643
2839.62884	15004.66071
2842.15613	14966.51786
2844.68186	15002.66071
2847.20604	14976.375
2849.72867	14959.80357
2852.24974	14965.80357
2854.76927	14999.94643
2857.28724	14971.23214
2859.80367	14974.94643
2862.31855	14938.23214
2864.83189	14955.80357
2867.34368	14991.23214
2869.85393	14979.66071
2872.36264	15010.66071
2874.8698	14984.80357
2877.37543	14997.51786
2879.87952	14940.23214
2882.38207	15004.08929
2884.88308	14937.80357
2887.38256	14923.94643
2889.88051	14996.66071
2892.37692	14956.375
2894.8718	14954.94643
2897.36515	14932.80357
2899.85698	14941.66071
2902.34727	14996.66071
2904.83604	14951.08929
2907.32328	14972.51786
2909.809	14970.80357
2912.29319	15029.80357
2914.77587	14999.66071
2917.25702	14978.08929
2919.73665	14933.23214
2922.21476	14939.94643
2924.69136	14950.23214
2927.16644	14887.80357
2929.64	14853.94643
2932.11205	14825.80357
2934.58258	14782.23214
2937.05161	14797.375
2939.51912	14768.375
2941.98513	14790.94643
2944.44962	14753.51786
2946.91261	14704.66071
2949.37409	14754.23214
2951.83407	14696.66071
2954.29254	14677.51786
2956.74951	14644.51786
2959.20498	14645.66071
2961.65895	14609.23214
2964.11142	14584.80357
2966.56239	14580.66071
2969.01186	14546.94643
2971.45984	14456.23214
2973.90632	14465.51786
2976.35131	14423.08929
2978.7948	14410.375
2981.23681	14389.94643
2983.67732	14350.51786
2986.11635	14309.94643
2988.55388	14306.23214
2990.98993	14240.80357
2993.4245	14262.66071
2995.85758	14248.51786
2998.28917	14252.375
3000.71928	14211.94643
3003.14791	14178.08929
3005.57506	14160.51786
3008.00073	14168.94643
3010.42493	14140.66071
3012.84764	14105.23214
3015.26888	14091.66071
3017.68865	14074.80357
3020.10694	14032.375
3022.52376	14045.51786
3024.9391	14000.23214
3027.35298	13939.23214
3029.76539	13943.08929
3032.17632	13909.08929
3034.5858	13910.66071
3036.9938	13881.51786
3039.40034	13818.94643
3041.80542	13822.66071
3044.20903	13776.08929
3046.61118	13780.66071
3049.01187	13728.375
3051.4111	13732.51786
3053.80888	13712.08929
3056.20519	13646.375
3058.60005	13649.375
3060.99345	13609.80357
3063.3854	13546.23214
3065.7759	13502.94643
3068.16494	13456.66071
3070.55254	13452.08929
3072.93868	13417.66071
3075.32338	13345.375
3077.70662	13341.80357
3080.08842	13291.51786
3082.46878	13275.375
3084.84769	13275.08929
3087.22515	13286.66071
3089.60118	13284.375
3091.97576	13256.94643
3094.3489	13249.51786
3096.72061	13250.80357
3099.09087	13257.51786
3101.4597	13204.08929
3103.82709	13225.66071
3106.19305	13245.08929
3108.55757	13205.08929
3110.92066	13169.80357
3113.28232	13162.375
3115.64255	13114.51786
3118.00134	13131.08929
3120.35871	13083.23214
3122.71466	13080.94643
3125.06917	13059.80357
3127.42226	13040.94643
3129.77393	13026.375
3132.12417	13003.94643
3134.47299	13032.80357
3136.82039	12990.51786
3139.16636	12998.51786
3141.51092	13014.08929
3143.85406	13010.66071
3146.19579	13004.94643
3148.53609	13040.51786
3150.87499	13011.08929
3153.21246	13030.51786
3155.54853	13056.375
3157.88318	13072.80357
3160.21642	13107.66071
3162.54826	13095.23214
3164.87868	13068.375
3167.2077	13050.94643
3169.5353	13064.23214
3171.86151	13069.66071
3174.18631	13069.66071
3176.5097	13047.80357
3178.83169	13022.375
3181.15228	12996.51786
3183.47147	12998.08929
3185.78926	12953.80357
3188.10565	12968.23214
3190.42065	12984.66071
3192.73424	12977.23214
3195.04645	12998.23214
3197.35725	12989.66071
3199.66667	12992.375
3201.97469	13001.375
3204.28132	12984.23214
3206.58656	13031.375
3208.8904	13067.51786
3211.19287	13078.80357
3213.49394	13103.51786
3215.79363	13106.375
3218.09193	13108.94643
3220.38884	13124.375
3222.68438	13150.80357
3224.97853	13116.66071
3227.2713	13130.66071
3229.56269	13080.80357
3231.8527	13097.80357
3234.14133	13067.51786
3236.42858	13042.51786
3238.71446	13034.94643
3240.99896	12996.51786
3243.28209	12969.66071
3245.56384	12964.80357
3247.84423	12944.66071
3250.12324	12970.80357
3252.40088	12943.80357
3254.67715	12939.51786
3256.95205	12926.66071
3259.22558	12953.51786
3261.49775	12928.80357
3263.76855	12892.08929
3266.03799	12911.66071
3268.30606	12880.23214
3270.57277	12880.80357
3272.83812	12851.375
3275.10211	12814.80357
3277.36474	12785.66071
3279.62601	12805.375
3281.88593	12763.375
3284.14448	12799.23214
3286.40168	12789.375
3288.65753	12760.80357
3290.91202	12781.23214
3293.16516	12733.08929
3295.41695	12740.375
3297.66738	12660.94643
3299.91647	12598.375
3302.16421	12523.66071
3304.4106	12465.94643
3306.65564	12375.375
3308.89933	12301.66071
3311.14169	12180.51786
3313.38269	12085.23214
3315.62236	12016.94643
3317.86068	11918.80357
3320.09766	11841.08929
3322.3333	11754.94643
3324.5676	11688.94643
3326.80056	11518.80357
3329.03219	11443.23214
3331.26248	3.23214
3333.49143	-0.33929
3335.71905	-1.33929
