Data from AgNPs_FTO_APTES_UA_20uM_CRN_100uM_R6G_10uM_NaF_0.1M_Addition_RamanShift__10__17-30-14-875.txt Node

Date: Thu Feb 17 17:30:14 GMT 2022
User: TCL
Spectrometer: QEP01345
Trigger mode: 4
Integration Time (sec): 1.000000E1
Scans to average: 7
Electric dark correction enabled: true
Nonlinearity correction enabled: false
Boxcar width: 0
XAxis mode: Raman Shifts
Number of Pixels in Spectrum: 1044
>>>>>Begin Spectral Data<<<<<
46.04893	-0.14286
50.45542	-1
54.85868	0.14286
59.25871	-2.28571
63.6555	89.14286
68.04907	91.14286
72.43941	88.28571
76.82654	96.28571
81.21044	100.28571
85.59113	106.28571
89.96862	109.57143
94.34289	110.71429
98.71396	117.57143
103.08183	121.85714
107.4465	126
111.80798	124
116.16626	124.42857
120.52136	134.71429
124.87327	139.14286
129.222	141.57143
133.56755	149.14286
137.90993	179.42857
142.24913	217.85714
146.58517	204.57143
150.91804	230.14286
155.24774	264.85714
159.57429	327.57143
163.89768	419.85714
168.21792	548.42857
172.53501	756.57143
176.84895	1050.71429
181.15975	1497.57143
185.46741	2115.42857
189.77193	2929.71429
194.07331	3959.42857
198.37157	5157.57143
202.6667	6426.57143
206.9587	7649.28571
211.24758	8898.71429
215.53334	10080.14286
219.81599	11302
224.09553	12659
228.37195	14150.71429
232.64527	15796.28571
236.91549	17511.28571
241.18261	19313
245.44663	21060.28571
249.70755	22798.42857
253.96539	24291.71429
258.22014	25552.57143
262.4718	26539.14286
266.72039	27296.28571
270.96589	27666
275.20832	27681
279.44768	27493.57143
283.68397	27150.42857
287.91719	26772.28571
292.14735	26481.57143
296.37445	26241.85714
300.59849	26180.71429
304.81948	26217.57143
309.03742	26196.42857
313.25231	26116.85714
317.46415	25855.42857
321.67296	25611
325.87872	25389.57143
330.08145	25391.57143
334.28114	25499.28571
338.47781	25743.57143
342.67145	26104
346.86207	26515.42857
351.04966	26954.14286
355.23424	27448.28571
359.4158	27891.14286
363.59435	28333.14286
367.76989	28677.85714
371.94243	28986.57143
376.11196	29188.57143
380.27849	29392.14286
384.44203	29537.14286
388.60257	29797.42857
392.76012	29921.71429
396.91468	30093.42857
401.06626	30412.85714
405.21485	30692.71429
409.36047	30690.42857
413.50311	30477.57143
417.64277	30273.57143
421.77947	30170.14286
425.9132	30205.57143
430.04396	30315.14286
434.17176	30437.42857
438.2966	30701.71429
442.41849	30970
446.53742	31309.14286
450.6534	31628
454.76644	31952.42857
458.87653	32165.57143
462.98368	32259.28571
467.08789	32339.57143
471.18916	32292.85714
475.2875	32163.71429
479.38291	31977
483.4754	31912.57143
487.56496	31889
491.6516	31895.85714
495.73531	31903.85714
499.81612	31951
503.89401	32111
507.96899	32252.42857
512.04106	32348.85714
516.11023	32471.28571
520.1765	32556.14286
524.23987	32564
528.30034	32530.57143
532.35792	32483.57143
536.41261	32494.71429
540.46441	32381.42857
544.51333	32353.42857
548.55936	32380.57143
552.60252	32543.71429
556.64279	32810.85714
560.6802	32935.85714
564.71473	33038.57143
568.7464	33026.28571
572.7752	33099.85714
576.80114	33027.28571
580.82422	32961.14286
584.84444	33025.85714
588.86181	33105.71429
592.87633	33187
596.888	33358.85714
600.89682	33730.57143
604.9028	34603.71429
608.90594	36603.85714
612.90624	38993.71429
616.90371	38445.42857
620.89834	35336.71429
624.89015	33740.85714
628.87913	33545.57143
632.86528	33637.42857
636.84862	33870.28571
640.82913	33841.42857
644.80683	33678.57143
648.78172	33448.42857
652.75379	33546
656.72306	33778
660.68952	34050
664.65319	34165.71429
668.61405	34040
672.57211	34079.28571
676.52738	34239.57143
680.47986	34315.71429
684.42955	34266.85714
688.37646	34220.14286
692.32058	34217.57143
696.26192	34374.14286
700.20048	34544.71429
704.13626	34687.28571
708.06928	34574.85714
711.99952	34466.14286
715.927	34346.71429
719.85171	34397.57143
723.77365	34455.14286
727.69284	34459.42857
731.60928	34391
735.52295	34276.42857
739.43388	34303.42857
743.34206	34376.28571
747.24749	34397
751.15017	34442.42857
755.05012	34451.71429
758.94733	34664.57143
762.8418	35242.42857
766.73354	36227.57143
770.62254	37403.42857
774.50882	38165.42857
778.39237	37939.42857
782.27321	36946.14286
786.15132	35828.14286
790.02671	35076.57143
793.89938	34652.57143
797.76935	34514.28571
801.6366	34416.28571
805.50115	34384.14286
809.36299	34304.85714
813.22213	34254.71429
817.07857	34351.57143
820.93231	34299.14286
824.78336	34416.71429
828.63172	34426
832.47738	34450.28571
836.32036	34404.57143
840.16066	34409
843.99827	34419.57143
847.8332	34443.85714
851.66546	34520.14286
855.49504	34593
859.32195	34630.85714
863.1462	34697.14286
866.96777	34705.28571
870.78668	34772.57143
874.60293	34840.42857
878.41652	34909.28571
882.22745	34935
886.03573	34977.42857
889.84136	34965.71429
893.64433	34915.28571
897.44466	34835.57143
901.24235	34795.85714
905.0374	34732.85714
908.8298	34666.71429
912.61957	34616.14286
916.40671	34631.85714
920.19121	34642.28571
923.97308	34685.28571
927.75233	34707.28571
931.52895	34734
935.30295	34657
939.07433	34557.85714
942.84309	34435
946.60924	34337.57143
950.37278	34269.42857
954.13371	34206.71429
957.89203	34130.57143
961.64774	34142.42857
965.40086	34064.28571
969.15137	34038.85714
972.89929	33965.71429
976.64461	34037.42857
980.38733	34061.71429
984.12747	34032.28571
987.86502	34115.71429
991.59999	34321
995.33237	34353.28571
999.06217	34475.28571
1002.78939	34609.71429
1006.51404	34805.28571
1010.23611	35002.14286
1013.95561	35069
1017.67255	35131.14286
1021.38692	35093.71429
1025.09872	35014.71429
1028.80796	34931.42857
1032.51465	34849.28571
1036.21877	34982.28571
1039.92035	35071.42857
1043.61937	35081.42857
1047.31584	35045.85714
1051.00976	35096.57143
1054.70114	35118.57143
1058.38998	35197
1062.07627	35216
1065.76003	35347.71429
1069.44126	35469.85714
1073.11995	35660.85714
1076.79611	35889.28571
1080.46974	36117.71429
1084.14085	36147.57143
1087.80943	36238.85714
1091.47549	36252.57143
1095.13903	36228.57143
1098.80005	36115.28571
1102.45857	36043.71429
1106.11456	35947
1109.76805	35915.57143
1113.41903	35840.14286
1117.06751	35858.57143
1120.71348	35948.57143
1124.35696	36118.28571
1127.99793	36272.57143
1131.63641	36328.71429
1135.2724	36148.42857
1138.90589	35877.14286
1142.5369	35691
1146.16542	35509.71429
1149.79145	35417.71429
1153.415	35288.28571
1157.03607	35112.57143
1160.65467	35234.85714
1164.27079	35497.85714
1167.88443	35953.42857
1171.49561	36492
1175.10432	37276
1178.71056	38304.14286
1182.31434	39396.71429
1185.91565	39961.14286
1189.51451	40186.71429
1193.11091	39828.14286
1196.70485	39342
1200.29634	38803.57143
1203.88538	38253
1207.47197	37704.14286
1211.05612	37096.85714
1214.63782	36610.57143
1218.21708	36420.57143
1221.79391	36180.28571
1225.36829	36094.28571
1228.94024	36021
1232.50976	36027.71429
1236.07685	36067.71429
1239.6415	36055.42857
1243.20374	36137.57143
1246.76355	36269.14286
1250.32093	36391.28571
1253.8759	36551.85714
1257.42845	36819.85714
1260.97859	37085.71429
1264.52631	37375.71429
1268.07163	37696.57143
1271.61453	37914.85714
1275.15503	38122.28571
1278.69312	38194.57143
1282.22882	38230.85714
1285.76211	38253.57143
1289.29301	38423.14286
1292.82151	38737.71429
1296.34761	39028.57143
1299.87133	39448.85714
1303.39266	40154.42857
1306.9116	41143.71429
1310.42815	42196.85714
1313.94233	42840.85714
1317.45412	42680.71429
1320.96354	42098.57143
1324.47058	41326.28571
1327.97525	40610.57143
1331.47754	39940.57143
1334.97747	39645.14286
1338.47502	39669.85714
1341.97022	40073.71429
1345.46305	40710.42857
1348.95352	41587.85714
1352.44163	42581.14286
1355.92738	43438.14286
1359.41078	44541
1362.89183	45627.28571
1366.37053	45023.42857
1369.84688	42731.71429
1373.32088	40339.71429
1376.79254	38598.14286
1380.26186	37622.57143
1383.72883	37049.71429
1387.19347	36539.28571
1390.65578	36068.42857
1394.11575	35636.85714
1397.57339	35322.71429
1401.0287	35145.42857
1404.48168	34978.28571
1407.93234	35002.14286
1411.38068	35015.57143
1414.82669	35131
1418.27039	35133.42857
1421.71177	35100
1425.15083	34939.28571
1428.58758	34805.57143
1432.02203	34776.42857
1435.45416	34787
1438.88399	34777.14286
1442.31151	34804.42857
1445.73673	34799.14286
1449.15965	34779.57143
1452.58027	34785.85714
1455.9986	34723.57143
1459.41463	34741.57143
1462.82837	34904.42857
1466.23982	35201
1469.64898	35441.85714
1473.05586	35723.57143
1476.46045	35870
1479.86276	36059.14286
1483.26279	36254.85714
1486.66054	36455.57143
1490.05602	36736
1493.44922	37122
1496.84016	37824.57143
1500.22882	38838
1503.61521	40156.57143
1506.99934	41574
1510.38121	42549.71429
1513.76081	42696
1517.13816	41612.14286
1520.51324	40061.57143
1523.88607	38573.57143
1527.25665	37553.42857
1530.62498	36946.14286
1533.99105	36614.42857
1537.35488	36446.42857
1540.71647	36383
1544.07581	36255.28571
1547.4329	36317.14286
1550.78776	36240
1554.14038	36224.71429
1557.49077	36276.28571
1560.83892	36314.28571
1564.18484	36526.85714
1567.52853	36735.71429
1570.86999	36926.57143
1574.20922	37113.57143
1577.54624	37080.85714
1580.88103	36764.42857
1584.2136	36248.71429
1587.54395	35885.57143
1590.87208	35873.85714
1594.19801	36289.14286
1597.52172	36862
1600.84321	37197
1604.16251	37167.71429
1607.47959	36830.14286
1610.79447	36343.42857
1614.10715	35636.85714
1617.41763	34867.57143
1620.7259	34311.14286
1624.03199	33924.42857
1627.33587	33742.85714
1630.63757	33816.85714
1633.93707	34076
1637.23439	34555.42857
1640.52951	35387.57143
1643.82246	36531.42857
1647.11321	37827.42857
1650.40179	38569.42857
1653.68819	38131.57143
1656.97241	36651.85714
1660.25446	35011.14286
1663.53433	33855.71429
1666.81203	33092.71429
1670.08756	32669.71429
1673.36092	32327.28571
1676.63211	32081.85714
1679.90115	31962.85714
1683.16801	31817.85714
1686.43272	31694.28571
1689.69527	31580.85714
1692.95567	31530.85714
1696.2139	31427.85714
1699.46999	31484.14286
1702.72392	31417.57143
1705.97571	31362.14286
1709.22535	31395.71429
1712.47284	31415.85714
1715.71819	31384
1718.96139	31278.28571
1722.20246	31277.57143
1725.44139	31214.28571
1728.67818	31162.57143
1731.91284	31113.57143
1735.14537	30990.42857
1738.37576	30919.71429
1741.60403	30867.42857
1744.83017	30779.71429
1748.05418	30731.57143
1751.27607	30748
1754.49584	30687.42857
1757.71349	30746
1760.92903	30737.85714
1764.14244	30679.71429
1767.35375	30684.14286
1770.56294	30590.57143
1773.77002	30580
1776.97499	30525.57143
1780.17785	30484.28571
1783.37861	30460.57143
1786.57727	30375.71429
1789.77382	30286.85714
1792.96828	30263.42857
1796.16064	30190.42857
1799.3509	30174.85714
1802.53907	30121
1805.72514	30065.57143
1808.90913	29995
1812.09102	29995.28571
1815.27083	29933.28571
1818.44856	29867.71429
1821.6242	29862.14286
1824.79776	29801.14286
1827.96924	29756.28571
1831.13864	29699.85714
1834.30597	29701.57143
1837.47122	29704.14286
1840.6344	29687.71429
1843.7955	29663.14286
1846.95454	29605.85714
1850.11151	29627.57143
1853.26642	29557.71429
1856.41926	29464.57143
1859.57004	29450.28571
1862.71876	29461.85714
1865.86542	29439.71429
1869.01003	29449.57143
1872.15258	29396.85714
1875.29308	29372.57143
1878.43152	29305.85714
1881.56792	29260.57143
1884.70227	29294.57143
1887.83457	29223.42857
1890.96482	29198.85714
1894.09304	29149.14286
1897.21921	29083
1900.34335	29078.28571
1903.46544	29033.71429
1906.58551	28943.71429
1909.70353	28956.14286
1912.81953	28909.57143
1915.93349	28828.57143
1919.04543	28791.28571
1922.15534	28779.28571
1925.26322	28736.71429
1928.36908	28709.57143
1931.47292	28655.14286
1934.57473	28576.14286
1937.67453	28504.28571
1940.77232	28457.57143
1943.86808	28395.28571
1946.96184	28299.85714
1950.05358	28226.71429
1953.14331	28114.28571
1956.23103	28091.14286
1959.31675	28046.28571
1962.40046	27939.71429
1965.48217	27835.71429
1968.56188	27831.57143
1971.63959	27757.57143
1974.7153	27620.14286
1977.78901	27537.42857
1980.86073	27501.42857
1983.93046	27423
1986.99819	27301.42857
1990.06394	27223.28571
1993.1277	27148.28571
1996.18947	27045.71429
1999.24925	26929.28571
2002.30706	26939.14286
2005.36288	26822.28571
2008.41672	26745.42857
2011.46859	26693.14286
2014.51848	26610.28571
2017.56639	26514.14286
2020.61233	26431
2023.6563	26384.85714
2026.6983	26333.57143
2029.73833	26291.57143
2032.7764	26183.42857
2035.8125	26171.57143
2038.84664	26072.14286
2041.87881	25990.14286
2044.90903	25963
2047.93729	25887.71429
2050.96359	25932.71429
2053.98794	25870.14286
2057.01034	25841.57143
2060.03078	25778.14286
2063.04927	25728.28571
2066.06582	25765.85714
2069.08042	25727.42857
2072.09307	25712.14286
2075.10378	25740.85714
2078.11255	25674.28571
2081.11938	25727.71429
2084.12426	25700.42857
2087.12722	25739.57143
2090.12824	25680.85714
2093.12732	25658.85714
2096.12447	25637.85714
2099.11969	25672.42857
2102.11299	25673.71429
2105.10435	25638
2108.09379	25691.42857
2111.08131	25696.28571
2114.0669	25734.14286
2117.05057	25757
2120.03233	25747.42857
2123.01216	25765.71429
2125.99008	25777.14286
2128.96609	25829.57143
2131.94018	25851
2134.91236	25866.14286
2137.88263	25887.28571
2140.851	25874.28571
2143.81746	25933.85714
2146.78201	25945
2149.74466	25926
2152.7054	25956.42857
2155.66425	25929
2158.6212	25883.71429
2161.57625	25819.85714
2164.52941	25810
2167.48067	25840.42857
2170.43004	25853
2173.37752	25839.42857
2176.32311	25820.85714
2179.26681	25779.28571
2182.20863	25820
2185.14856	25858.71429
2188.08661	25825.28571
2191.02278	25746.85714
2193.95707	25772.85714
2196.88948	25727.42857
2199.82001	25726.28571
2202.74867	25728.85714
2205.67545	25709.28571
2208.60037	25631.57143
2211.52341	25576.28571
2214.44458	25558.28571
2217.36388	25525
2220.28132	25450.28571
2223.1969	25322.14286
2226.11061	25301.57143
2229.02246	25237.85714
2231.93245	25199.85714
2234.84058	25155.28571
2237.74686	25044.14286
2240.65128	25087.42857
2243.55385	25100.28571
2246.45456	25044.42857
2249.35343	25075.71429
2252.25044	25003.14286
2255.14561	24925.57143
2258.03893	24925.14286
2260.93041	24872.28571
2263.82004	24823.42857
2266.70783	24748.71429
2269.59378	24701
2272.4779	24669
2275.36017	24629.14286
2278.24061	24550.42857
2281.11922	24494.42857
2283.996	24485.28571
2286.87094	24429.14286
2289.74405	24370.28571
2292.61534	24376.85714
2295.4848	24320.28571
2298.35243	24336.14286
2301.21824	24297.85714
2304.08223	24255.42857
2306.94439	24227.71429
2309.80474	24243.28571
2312.66327	24189.85714
2315.51999	24178.28571
2318.37489	24184.85714
2321.22797	24123.85714
2324.07925	24054.57143
2326.92871	24020.28571
2329.77637	24007.71429
2332.62222	23915.57143
2335.46626	23925.57143
2338.3085	23861.28571
2341.14893	23813.42857
2343.98756	23757.14286
2346.8244	23743.28571
2349.65943	23679.57143
2352.49267	23670.14286
2355.32411	23694.57143
2358.15376	23663.14286
2360.98161	23629.28571
2363.80768	23600.28571
2366.63195	23570
2369.45444	23506.28571
2372.27514	23521.42857
2375.09405	23475
2377.91118	23451.71429
2380.72652	23409.85714
2383.54009	23350.28571
2386.35187	23328.14286
2389.16188	23277.42857
2391.97011	23186.28571
2394.77657	23185.57143
2397.58125	23197
2400.38416	23154.71429
2403.18529	23122.85714
2405.98466	23114.28571
2408.78226	22981
2411.57809	22963.42857
2414.37216	22951.42857
2417.16446	22938.28571
2419.955	22901.28571
2422.74378	22853
2425.5308	22816.71429
2428.31606	22758.71429
2431.09956	22765
2433.88131	22761.57143
2436.6613	22719.42857
2439.43954	22696.14286
2442.21603	22694.14286
2444.99077	22668.14286
2447.76377	22674.85714
2450.53501	22635.42857
2453.30451	22588.14286
2456.07226	22548.85714
2458.83827	22502.57143
2461.60254	22493.71429
2464.36507	22430.42857
2467.12586	22399
2469.88492	22340.28571
2472.64224	22338.28571
2475.39782	22320.28571
2478.15167	22327.42857
2480.90379	22318.28571
2483.65417	22358.85714
2486.40283	22336.42857
2489.14976	22357.85714
2491.89497	22282.28571
2494.63845	22326.28571
2497.3802	22228.71429
2500.12024	22240.28571
2502.85855	22205.71429
2505.59514	22183.28571
2508.33002	22140
2511.06318	22088.28571
2513.79462	22040.42857
2516.52435	21970.14286
2519.25237	21989.85714
2521.97867	21972.14286
2524.70327	21940.28571
2527.42616	21886.28571
2530.14734	21859.57143
2532.86681	21792.28571
2535.58458	21778.28571
2538.30065	21772.28571
2541.01501	21711.71429
2543.72768	21641.85714
2546.43864	21641.85714
2549.14791	21631
2551.85548	21585.57143
2554.56136	21539
2557.26554	21475.14286
2559.96803	21454.42857
2562.66883	21429.14286
2565.36794	21347.42857
2568.06536	21321.14286
2570.7611	21272.57143
2573.45514	21224.28571
2576.14751	21207.42857
2578.83819	21156.42857
2581.52719	21156.71429
2584.21451	21071.85714
2586.90015	21034.42857
2589.58411	20974
2592.2664	20952.42857
2594.94701	20909
2597.62594	20833.85714
2600.30321	20816
2602.9788	20784.71429
2605.65273	20735.42857
2608.32498	20729.42857
2610.99557	20726.42857
2613.66449	20653.42857
2616.33175	20587.71429
2618.99734	20601.85714
2621.66128	20578.71429
2624.32355	20531.71429
2626.98416	20508.57143
2629.64311	20467.14286
2632.30041	20419.42857
2634.95605	20375.42857
2637.61004	20341.57143
2640.26238	20295.71429
2642.91306	20355.71429
2645.56209	20361.85714
2648.20948	20303.28571
2650.85521	20268.71429
2653.4993	20281
2656.14175	20252
2658.78255	20207.28571
2661.42171	20204.14286
2664.05923	20197.14286
2666.6951	20206.14286
2669.32934	20177.71429
2671.96194	20195.71429
2674.59291	20187.85714
2677.22224	20193
2679.84993	20157.71429
2682.476	20147.71429
2685.10043	20167
2687.72324	20116.85714
2690.34441	20106
2692.96396	20106.14286
2695.58188	20129.71429
2698.19818	20091.14286
2700.81285	20104.14286
2703.4259	20008.28571
2706.03733	20056.28571
2708.64714	20040
2711.25533	20048.71429
2713.86191	20083.28571
2716.46687	20095.57143
2719.07021	20101.42857
2721.67194	20083.28571
2724.27206	20036.28571
2726.87057	20101.85714
2729.46747	20072.28571
2732.06276	20078
2734.65644	19969.42857
2737.24852	19967.14286
2739.83899	19979.14286
2742.42786	19917.85714
2745.01513	19876.42857
2747.60079	19820.57143
2750.18486	19817
2752.76733	19825.28571
2755.3482	19748.71429
2757.92747	19805.71429
2760.50515	19765.28571
2763.08123	19751.28571
2765.65573	19698.14286
2768.22863	19646.71429
2770.79994	19633.85714
2773.36967	19589.28571
2775.9378	19569.85714
2778.50435	19521.57143
2781.06932	19472.85714
2783.6327	19488.57143
2786.1945	19430.85714
2788.75471	19397.71429
2791.31335	19329.85714
2793.87041	19315.42857
2796.42589	19260.85714
2798.97979	19220.85714
2801.53212	19192.42857
2804.08288	19166.14286
2806.63206	19137.14286
2809.17967	19119.28571
2811.72571	19010.57143
2814.27018	18991.14286
2816.81308	18931
2819.35442	18910.85714
2821.89419	18806.85714
2824.43239	18786.57143
2826.96904	18729.71429
2829.50412	18773.57143
2832.03763	18717.57143
2834.56959	18715.42857
2837.1	18664.57143
2839.62884	18693.71429
2842.15613	18620.42857
2844.68186	18588.28571
2847.20604	18544.85714
2849.72867	18591.14286
2852.24974	18547.14286
2854.76927	18538.71429
2857.28724	18498.57143
2859.80367	18501.14286
2862.31855	18480.71429
2864.83189	18420.42857
2867.34368	18415.14286
2869.85393	18381.14286
2872.36264	18308.71429
2874.8698	18380.71429
2877.37543	18318.85714
2879.87952	18294
2882.38207	18251.14286
2884.88308	18254.14286
2887.38256	18254.42857
2889.88051	18233.85714
2892.37692	18265.28571
2894.8718	18221.57143
2897.36515	18269.28571
2899.85698	18254
2902.34727	18281.28571
2904.83604	18249.28571
2907.32328	18299
2909.809	18280.14286
2912.29319	18262.28571
2914.77587	18240.57143
2917.25702	18252.57143
2919.73665	18217.85714
2922.21476	18272.57143
2924.69136	18243.85714
2927.16644	18250.28571
2929.64	18197
2932.11205	18191.28571
2934.58258	18100.14286
2937.05161	18140.71429
2939.51912	18141.14286
2941.98513	18135.28571
2944.44962	18141.14286
2946.91261	18099
2949.37409	18112.42857
2951.83407	18127.85714
2954.29254	18105
2956.74951	18072.57143
2959.20498	18107
2961.65895	18032
2964.11142	18012
2966.56239	17997.28571
2969.01186	18021.71429
2971.45984	17935.42857
2973.90632	17952
2976.35131	17919.85714
2978.7948	17905.14286
2981.23681	17810.42857
2983.67732	17818.28571
2986.11635	17816.14286
2988.55388	17741
2990.98993	17744
2993.4245	17699.28571
2995.85758	17671
2998.28917	17626.42857
3000.71928	17608.71429
3003.14791	17544.71429
3005.57506	17559.71429
3008.00073	17552
3010.42493	17478
3012.84764	17463
3015.26888	17456.42857
3017.68865	17446.28571
3020.10694	17389.71429
3022.52376	17341.28571
3024.9391	17354.42857
3027.35298	17298.42857
3029.76539	17296
3032.17632	17289.42857
3034.5858	17266.85714
3036.9938	17206.14286
3039.40034	17243.71429
3041.80542	17166.85714
3044.20903	17113.71429
3046.61118	17187
3049.01187	17102.28571
3051.4111	17114.57143
3053.80888	17011
3056.20519	17007.57143
3058.60005	16949.85714
3060.99345	16938.85714
3063.3854	16920.57143
3065.7759	16860.71429
3068.16494	16851.28571
3070.55254	16786.71429
3072.93868	16784.14286
3075.32338	16732.85714
3077.70662	16725.85714
3080.08842	16709.85714
3082.46878	16673.14286
3084.84769	16626.28571
3087.22515	16597.85714
3089.60118	16651.85714
3091.97576	16650.57143
3094.3489	16653.71429
3096.72061	16646
3099.09087	16620.14286
3101.4597	16594
3103.82709	16632.14286
3106.19305	16612.71429
3108.55757	16621.14286
3110.92066	16568.71429
3113.28232	16551.85714
3115.64255	16497
3118.00134	16479.28571
3120.35871	16433.14286
3122.71466	16418.57143
3125.06917	16391.14286
3127.42226	16327.71429
3129.77393	16340.42857
3132.12417	16353.14286
3134.47299	16354.57143
3136.82039	16277.14286
3139.16636	16296.28571
3141.51092	16269.57143
3143.85406	16283.85714
3146.19579	16269.14286
3148.53609	16313.28571
3150.87499	16312.71429
3153.21246	16311.85714
3155.54853	16356.85714
3157.88318	16335.85714
3160.21642	16335.57143
3162.54826	16335.14286
3164.87868	16375.57143
3167.2077	16312
3169.5353	16363.71429
3171.86151	16290.28571
3174.18631	16283
3176.5097	16272.71429
3178.83169	16252.14286
3181.15228	16264.57143
3183.47147	16176.14286
3185.78926	16239
3188.10565	16173
3190.42065	16159.42857
3192.73424	16257.42857
3195.04645	16169.28571
3197.35725	16152.28571
3199.66667	16111.42857
3201.97469	16113.42857
3204.28132	16083.28571
3206.58656	16117.14286
3208.8904	16163.57143
3211.19287	16145.85714
3213.49394	16162.28571
3215.79363	16112.14286
3218.09193	16187.42857
3220.38884	16159.28571
3222.68438	16209
3224.97853	16134
3227.2713	16143.71429
3229.56269	16112.42857
3231.8527	16099.85714
3234.14133	16016.28571
3236.42858	15994.71429
3238.71446	15987.85714
3240.99896	15985
3243.28209	15937.42857
3245.56384	15878.85714
3247.84423	15922.14286
3250.12324	15876.28571
3252.40088	15877
3254.67715	15878.28571
3256.95205	15861.71429
3259.22558	15890.71429
3261.49775	15868.85714
3263.76855	15821.71429
3266.03799	15799.71429
3268.30606	15797.42857
3270.57277	15769.42857
3272.83812	15726.28571
3275.10211	15679.71429
3277.36474	15657.85714
3279.62601	15683
3281.88593	15606.14286
3284.14448	15629
3286.40168	15612.28571
3288.65753	15611.71429
3290.91202	15555.42857
3293.16516	15500.14286
3295.41695	15508.57143
3297.66738	15422.42857
3299.91647	15319.85714
3302.16421	15250.14286
3304.4106	15188.85714
3306.65564	15075.71429
3308.89933	14965.14286
3311.14169	14878.42857
3313.38269	14775.57143
3315.62236	14716
3317.86068	14551.14286
3320.09766	14458.71429
3322.3333	14401.57143
3324.5676	14327.14286
3326.80056	14126.14286
3329.03219	14024.71429
3331.26248	2.14286
3333.49143	-1.42857
3335.71905	0.57143
