Data from AgNPs_FTO_APTES_UA_20uM_CRN_1000uM_R6G_10uM_NaF_0.1M_Addition_RamanShift__8__19-21-05-014.txt Node

Date: Thu Feb 17 19:21:05 GMT 2022
User: TCL
Spectrometer: QEP01345
Trigger mode: 4
Integration Time (sec): 1.000000E1
Scans to average: 7
Electric dark correction enabled: true
Nonlinearity correction enabled: false
Boxcar width: 0
XAxis mode: Raman Shifts
Number of Pixels in Spectrum: 1044
>>>>>Begin Spectral Data<<<<<
46.04893	-1.57143
50.45542	-0.28571
54.85868	0.42857
59.25871	-1.85714
63.6555	79.14286
68.04907	75.85714
72.43941	80.14286
76.82654	82.57143
81.21044	90
85.59113	89.28571
89.96862	98
94.34289	94.28571
98.71396	96.28571
103.08183	102.42857
107.4465	104.57143
111.80798	106.14286
116.16626	110.28571
120.52136	113
124.87327	117.14286
129.222	122.28571
133.56755	127.57143
137.90993	143
142.24913	154.28571
146.58517	168.28571
150.91804	191.71429
155.24774	230.28571
159.57429	279.42857
163.89768	363
168.21792	488.14286
172.53501	656
176.84895	925.57143
181.15975	1300.14286
185.46741	1833
189.77193	2551.71429
194.07331	3452.42857
198.37157	4499.28571
202.6667	5554.28571
206.9587	6644.57143
211.24758	7705.71429
215.53334	8766.57143
219.81599	9839.14286
224.09553	11091.28571
228.37195	12409.42857
232.64527	13930.57143
236.91549	15473.42857
241.18261	17022.85714
245.44663	18480.28571
249.70755	19741.85714
253.96539	20836.14286
258.22014	21699
262.4718	22423.71429
266.72039	22915.71429
270.96589	23118.42857
275.20832	23136.57143
279.44768	22864.71429
283.68397	22551.28571
287.91719	22255.71429
292.14735	22106.28571
296.37445	22091.85714
300.59849	22254.28571
304.81948	22458.57143
309.03742	22658.85714
313.25231	22722.57143
317.46415	22506.28571
321.67296	22088.42857
325.87872	21712
330.08145	21481.71429
334.28114	21442
338.47781	21619.85714
342.67145	21932.85714
346.86207	22322.71429
351.04966	22769.85714
355.23424	23243
359.4158	23664.28571
363.59435	23959.57143
367.76989	24103.85714
371.94243	24258.85714
376.11196	24287.42857
380.27849	24384.42857
384.44203	24490.71429
388.60257	24593.28571
392.76012	24745.42857
396.91468	25017.85714
401.06626	25292.71429
405.21485	25456.57143
409.36047	25358.42857
413.50311	24966
417.64277	24597.85714
421.77947	24496.42857
425.9132	24463
430.04396	24601
434.17176	24733.28571
438.2966	24918.42857
442.41849	25326
446.53742	25825
450.6534	26380.42857
454.76644	26731.42857
458.87653	26826.42857
462.98368	26722.85714
467.08789	26566.71429
471.18916	26270.42857
475.2875	25899
479.38291	25539.57143
483.4754	25293.42857
487.56496	25042.14286
491.6516	24958
495.73531	24927.57143
499.81612	24933.14286
503.89401	25076.71429
507.96899	25137.28571
512.04106	25227.57143
516.11023	25303
520.1765	25368.14286
524.23987	25403.85714
528.30034	25415.71429
532.35792	25351.85714
536.41261	25231.28571
540.46441	24943
544.51333	24867.28571
548.55936	25010
552.60252	25338.57143
556.64279	25702.42857
560.6802	25934
564.71473	26001.28571
568.7464	26099.28571
572.7752	26361.14286
576.80114	26558.14286
580.82422	26708.85714
584.84444	27078.71429
588.86181	27748
592.87633	28532.71429
596.888	28973.57143
600.89682	28773.57143
604.9028	29157.14286
608.90594	31383.42857
612.90624	34449.57143
616.90371	33424
620.89834	28528.57143
624.89015	26055.28571
628.87913	25660.71429
632.86528	25820.71429
636.84862	26079.42857
640.82913	25957
644.80683	25515.42857
648.78172	25132.28571
652.75379	25098.57143
656.72306	25406.28571
660.68952	25807.57143
664.65319	25664.42857
668.61405	25213.71429
672.57211	25117.85714
676.52738	25304.42857
680.47986	25357.28571
684.42955	25241.28571
688.37646	25134.42857
692.32058	25062.28571
696.26192	25169.42857
700.20048	25428.42857
704.13626	25589.14286
708.06928	25578
711.99952	25448.42857
715.927	25433.42857
719.85171	25457.28571
723.77365	25457
727.69284	25352.57143
731.60928	25161.28571
735.52295	25182.28571
739.43388	25169.28571
743.34206	25200.85714
747.24749	25221
751.15017	25322.14286
755.05012	25517.28571
758.94733	26007
762.8418	27105
766.73354	29007.85714
770.62254	30915
774.50882	31620.28571
778.39237	30632.85714
782.27321	28806.42857
786.15132	27055.57143
790.02671	25934.42857
793.89938	25358.71429
797.76935	25074.28571
801.6366	24954
805.50115	24902.57143
809.36299	24764.14286
813.22213	24712.71429
817.07857	24659
820.93231	24599.42857
824.78336	24558.85714
828.63172	24612.28571
832.47738	24520.85714
836.32036	24539.57143
840.16066	24500
843.99827	24520.42857
847.8332	24527.28571
851.66546	24545.57143
855.49504	24595.57143
859.32195	24618.57143
863.1462	24584.42857
866.96777	24652.85714
870.78668	24687.28571
874.60293	24670.42857
878.41652	24683.14286
882.22745	24777.85714
886.03573	24873.57143
889.84136	24866.57143
893.64433	24768.42857
897.44466	24800.57143
901.24235	24682.57143
905.0374	24573.28571
908.8298	24526.42857
912.61957	24407.28571
916.40671	24489.14286
920.19121	24575.14286
923.97308	24742.14286
927.75233	24788.14286
931.52895	24771.28571
935.30295	24593.42857
939.07433	24334.71429
942.84309	24126.28571
946.60924	23901.14286
950.37278	23837.57143
954.13371	23834.71429
957.89203	23767.28571
961.64774	23784.85714
965.40086	23771
969.15137	23744
972.89929	23682.71429
976.64461	23662
980.38733	23682
984.12747	23695.71429
987.86502	23787.71429
991.59999	23865
995.33237	24023.28571
999.06217	24229.14286
1002.78939	24526
1006.51404	24830.85714
1010.23611	25092
1013.95561	25350.71429
1017.67255	25447.57143
1021.38692	25337.28571
1025.09872	25117.71429
1028.80796	24835.42857
1032.51465	24654.71429
1036.21877	24701.71429
1039.92035	24760.14286
1043.61937	24839.85714
1047.31584	24844.42857
1051.00976	24906.57143
1054.70114	24944.42857
1058.38998	24960.42857
1062.07627	25024.42857
1065.76003	25173.14286
1069.44126	25336.85714
1073.11995	25599.42857
1076.79611	25815.42857
1080.46974	26023.14286
1084.14085	26242
1087.80943	26390.71429
1091.47549	26529.85714
1095.13903	26453
1098.80005	26205.85714
1102.45857	25863.28571
1106.11456	25686.28571
1109.76805	25615.85714
1113.41903	25720.28571
1117.06751	25913.28571
1120.71348	26301.57143
1124.35696	26630.14286
1127.99793	27036.42857
1131.63641	27152.14286
1135.2724	26861.71429
1138.90589	26517.71429
1142.5369	26301.71429
1146.16542	26222.71429
1149.79145	26133.57143
1153.415	26106.71429
1157.03607	26180
1160.65467	26483.57143
1164.27079	27086.14286
1167.88443	27915.71429
1171.49561	29023.14286
1175.10432	30620.28571
1178.71056	32692
1182.31434	34572.28571
1185.91565	35548.57143
1189.51451	35539.14286
1193.11091	34825
1196.70485	33813.14286
1200.29634	32734.57143
1203.88538	31632
1207.47197	30604.28571
1211.05612	29697.57143
1214.63782	28969
1218.21708	28572.71429
1221.79391	28383.28571
1225.36829	28402.14286
1228.94024	28482.71429
1232.50976	28292.42857
1236.07685	28112
1239.6415	27992.42857
1243.20374	27866.14286
1246.76355	27948.85714
1250.32093	28057
1253.8759	28347.42857
1257.42845	28782.71429
1260.97859	29344.71429
1264.52631	29868.14286
1268.07163	30418.71429
1271.61453	30918.57143
1275.15503	31303.14286
1278.69312	31708
1282.22882	32038
1285.76211	32598.57143
1289.29301	33257.57143
1292.82151	34175.14286
1296.34761	35186.71429
1299.87133	36429.14286
1303.39266	38034.14286
1306.9116	39977
1310.42815	42022.57143
1313.94233	43182.42857
1317.45412	42732.85714
1320.96354	41357.28571
1324.47058	39823.28571
1327.97525	38367.71429
1331.47754	37373.42857
1334.97747	36876.14286
1338.47502	36922.57143
1341.97022	37315.28571
1345.46305	38108
1348.95352	39303.71429
1352.44163	40733.14286
1355.92738	42362.42857
1359.41078	44589.71429
1362.89183	46559.57143
1366.37053	45939.71429
1369.84688	42038.57143
1373.32088	37426.57143
1376.79254	34295.14286
1380.26186	32811
1383.72883	32179.57143
1387.19347	31657.14286
1390.65578	31114.57143
1394.11575	30626.57143
1397.57339	30404.42857
1401.0287	30332.71429
1404.48168	30296.28571
1407.93234	30300.28571
1411.38068	30194.14286
1414.82669	29944.57143
1418.27039	29673.71429
1421.71177	29357.71429
1425.15083	28894.42857
1428.58758	28579.85714
1432.02203	28641
1435.45416	28905.14286
1438.88399	29234.71429
1442.31151	29398.14286
1445.73673	29479.85714
1449.15965	29490.14286
1452.58027	29505.57143
1455.9986	29398
1459.41463	29480.85714
1462.82837	29788.57143
1466.23982	30212.28571
1469.64898	30711.42857
1473.05586	31124.14286
1476.46045	31372.42857
1479.86276	31589.85714
1483.26279	31680.85714
1486.66054	31936.28571
1490.05602	32364.14286
1493.44922	33117
1496.84016	34181.85714
1500.22882	35770.85714
1503.61521	37870.85714
1506.99934	40023.14286
1510.38121	41430.28571
1513.76081	41312.42857
1517.13816	39618.42857
1520.51324	37120.57143
1523.88607	35009
1527.25665	33785.42857
1530.62498	33192
1533.99105	32842.28571
1537.35488	32566.28571
1540.71647	32179
1544.07581	31755.28571
1547.4329	31278
1550.78776	30840.57143
1554.14038	30513.14286
1557.49077	30381.57143
1560.83892	30413.14286
1564.18484	30679
1567.52853	31056.14286
1570.86999	31446
1574.20922	31785
1577.54624	31825.85714
1580.88103	31316.57143
1584.2136	30542.57143
1587.54395	30187.57143
1590.87208	30558.85714
1594.19801	31594.57143
1597.52172	32931.42857
1600.84321	33649.14286
1604.16251	33186.14286
1607.47959	32018.85714
1610.79447	30681.14286
1614.10715	29172
1617.41763	27824.42857
1620.7259	26791.71429
1624.03199	26120.57143
1627.33587	25982.42857
1630.63757	26151.71429
1633.93707	27049.71429
1637.23439	28461.14286
1640.52951	30754.57143
1643.82246	33665.14286
1647.11321	36461.71429
1650.40179	37572.57143
1653.68819	35958.14286
1656.97241	32569.42857
1660.25446	29054.42857
1663.53433	26545.71429
1666.81203	25010.71429
1670.08756	24059.28571
1673.36092	23496.57143
1676.63211	23078.14286
1679.90115	22764.28571
1683.16801	22464.71429
1686.43272	22267.71429
1689.69527	22104.28571
1692.95567	22001.14286
1696.2139	21879.42857
1699.46999	21795
1702.72392	21723.28571
1705.97571	21729
1709.22535	21695.42857
1712.47284	21679.42857
1715.71819	21630
1718.96139	21588.14286
1722.20246	21488.85714
1725.44139	21446.71429
1728.67818	21393.42857
1731.91284	21291.71429
1735.14537	21202.42857
1738.37576	21111.85714
1741.60403	21010.85714
1744.83017	20969.57143
1748.05418	20908.28571
1751.27607	20915.85714
1754.49584	20866.71429
1757.71349	20825.85714
1760.92903	20808.28571
1764.14244	20829.57143
1767.35375	20807.28571
1770.56294	20713.57143
1773.77002	20676.42857
1776.97499	20620.28571
1780.17785	20569
1783.37861	20555.42857
1786.57727	20502.57143
1789.77382	20472.14286
1792.96828	20409.71429
1796.16064	20341.42857
1799.3509	20306.14286
1802.53907	20257.14286
1805.72514	20241.85714
1808.90913	20199.28571
1812.09102	20159
1815.27083	20102.14286
1818.44856	20075.42857
1821.6242	20060.28571
1824.79776	20040.14286
1827.96924	19960
1831.13864	19987.71429
1834.30597	19947.71429
1837.47122	19928
1840.6344	19916.14286
1843.7955	19947.57143
1846.95454	19865.42857
1850.11151	19848.85714
1853.26642	19832.28571
1856.41926	19815.28571
1859.57004	19755.71429
1862.71876	19769.85714
1865.86542	19738.57143
1869.01003	19744
1872.15258	19686.85714
1875.29308	19745.14286
1878.43152	19698.42857
1881.56792	19623.57143
1884.70227	19638.57143
1887.83457	19598.57143
1890.96482	19579
1894.09304	19563.85714
1897.21921	19548.42857
1900.34335	19531.28571
1903.46544	19502.14286
1906.58551	19460.71429
1909.70353	19376
1912.81953	19353.85714
1915.93349	19348.14286
1919.04543	19316.14286
1922.15534	19299.57143
1925.26322	19219.14286
1928.36908	19205.42857
1931.47292	19203.71429
1934.57473	19193.42857
1937.67453	19116.85714
1940.77232	19074.42857
1943.86808	18991.28571
1946.96184	18922.14286
1950.05358	18861.42857
1953.14331	18889.57143
1956.23103	18819
1959.31675	18779.71429
1962.40046	18770.71429
1965.48217	18661.85714
1968.56188	18604.14286
1971.63959	18534.14286
1974.7153	18489
1977.78901	18465.28571
1980.86073	18387.85714
1983.93046	18339.71429
1986.99819	18254.85714
1990.06394	18212.14286
1993.1277	18214.42857
1996.18947	18088.28571
1999.24925	18033.85714
2002.30706	17972.71429
2005.36288	17899.28571
2008.41672	17846.28571
2011.46859	17801.85714
2014.51848	17745.14286
2017.56639	17685.14286
2020.61233	17607.85714
2023.6563	17596.14286
2026.6983	17513.28571
2029.73833	17517.14286
2032.7764	17484.71429
2035.8125	17404.71429
2038.84664	17367.71429
2041.87881	17345.28571
2044.90903	17305.85714
2047.93729	17287.57143
2050.96359	17291.28571
2053.98794	17258.57143
2057.01034	17280.28571
2060.03078	17215.85714
2063.04927	17210.14286
2066.06582	17181.28571
2069.08042	17182.28571
2072.09307	17162.42857
2075.10378	17150.57143
2078.11255	17109.71429
2081.11938	17167.14286
2084.12426	17138.71429
2087.12722	17123.14286
2090.12824	17140.42857
2093.12732	17130.28571
2096.12447	17169
2099.11969	17114
2102.11299	17096
2105.10435	17098.14286
2108.09379	17141.14286
2111.08131	17137.42857
2114.0669	17111.57143
2117.05057	17167.57143
2120.03233	17192.28571
2123.01216	17183.14286
2125.99008	17196.71429
2128.96609	17223.14286
2131.94018	17224.14286
2134.91236	17278.42857
2137.88263	17222.42857
2140.851	17255.42857
2143.81746	17284.14286
2146.78201	17207.57143
2149.74466	17271.14286
2152.7054	17286.57143
2155.66425	17286.42857
2158.6212	17261.85714
2161.57625	17195.71429
2164.52941	17253.42857
2167.48067	17166.57143
2170.43004	17179.57143
2173.37752	17203.57143
2176.32311	17199.42857
2179.26681	17189.14286
2182.20863	17182.71429
2185.14856	17160.14286
2188.08661	17183.57143
2191.02278	17169.71429
2193.95707	17183
2196.88948	17122.85714
2199.82001	17081.28571
2202.74867	17121.42857
2205.67545	17077.28571
2208.60037	17078.14286
2211.52341	17010.71429
2214.44458	16997
2217.36388	16978.85714
2220.28132	16944.57143
2223.1969	16847.71429
2226.11061	16870.85714
2229.02246	16809.85714
2231.93245	16781.42857
2234.84058	16739.85714
2237.74686	16742.85714
2240.65128	16728
2243.55385	16721.71429
2246.45456	16674.28571
2249.35343	16658.14286
2252.25044	16630.28571
2255.14561	16661.57143
2258.03893	16649.42857
2260.93041	16576.28571
2263.82004	16536.71429
2266.70783	16517.28571
2269.59378	16436.42857
2272.4779	16399.71429
2275.36017	16370.14286
2278.24061	16352
2281.11922	16325.57143
2283.996	16299
2286.87094	16280
2289.74405	16246
2292.61534	16231.28571
2295.4848	16184.28571
2298.35243	16199.71429
2301.21824	16176.14286
2304.08223	16167.14286
2306.94439	16136.28571
2309.80474	16110.85714
2312.66327	16108.57143
2315.51999	16108.42857
2318.37489	16051.14286
2321.22797	16017.28571
2324.07925	16013.28571
2326.92871	15984
2329.77637	15971.85714
2332.62222	15915.14286
2335.46626	15916.71429
2338.3085	15899.14286
2341.14893	15890.71429
2343.98756	15875.28571
2346.8244	15845.42857
2349.65943	15837.28571
2352.49267	15822
2355.32411	15823.42857
2358.15376	15828
2360.98161	15813.85714
2363.80768	15827.57143
2366.63195	15799
2369.45444	15731.42857
2372.27514	15752.28571
2375.09405	15697.42857
2377.91118	15706.57143
2380.72652	15676.71429
2383.54009	15628
2386.35187	15595
2389.16188	15561.57143
2391.97011	15518.14286
2394.77657	15489.14286
2397.58125	15478.28571
2400.38416	15466.57143
2403.18529	15430.28571
2405.98466	15408.42857
2408.78226	15369.85714
2411.57809	15361.14286
2414.37216	15353.71429
2417.16446	15321.71429
2419.955	15345.85714
2422.74378	15265.57143
2425.5308	15264.85714
2428.31606	15266.28571
2431.09956	15272.71429
2433.88131	15208.71429
2436.6613	15232.28571
2439.43954	15214.28571
2442.21603	15224
2444.99077	15208.28571
2447.76377	15176.71429
2450.53501	15159.71429
2453.30451	15154
2456.07226	15129.42857
2458.83827	15134
2461.60254	15083.71429
2464.36507	15058.71429
2467.12586	15041
2469.88492	15058.57143
2472.64224	15048.57143
2475.39782	15043.71429
2478.15167	15025.57143
2480.90379	15054.85714
2483.65417	15049.42857
2486.40283	15065
2489.14976	15055.28571
2491.89497	15016.71429
2494.63845	15042.28571
2497.3802	15012.42857
2500.12024	15025.85714
2502.85855	14949.28571
2505.59514	14912.85714
2508.33002	14897.14286
2511.06318	14893.42857
2513.79462	14870.85714
2516.52435	14852.85714
2519.25237	14807.28571
2521.97867	14785
2524.70327	14811
2527.42616	14774.57143
2530.14734	14737.14286
2532.86681	14705.57143
2535.58458	14731
2538.30065	14696.28571
2541.01501	14693.28571
2543.72768	14669
2546.43864	14623.42857
2549.14791	14652.71429
2551.85548	14610
2554.56136	14571.42857
2557.26554	14571
2559.96803	14538.57143
2562.66883	14495.71429
2565.36794	14478.71429
2568.06536	14410.71429
2570.7611	14423.42857
2573.45514	14403.57143
2576.14751	14355.57143
2578.83819	14316.14286
2581.52719	14366.85714
2584.21451	14279.28571
2586.90015	14297.85714
2589.58411	14261.71429
2592.2664	14259
2594.94701	14199.85714
2597.62594	14192.57143
2600.30321	14132
2602.9788	14143.85714
2605.65273	14071
2608.32498	14105.85714
2610.99557	14107.42857
2613.66449	14090
2616.33175	14074.85714
2618.99734	14059.71429
2621.66128	14007.42857
2624.32355	14005.71429
2626.98416	13974.14286
2629.64311	13965
2632.30041	13932.42857
2634.95605	13921.14286
2637.61004	13903.14286
2640.26238	13861.42857
2642.91306	13868.71429
2645.56209	13855.42857
2648.20948	13857.14286
2650.85521	13860
2653.4993	13863.42857
2656.14175	13838.14286
2658.78255	13871
2661.42171	13856.28571
2664.05923	13849.71429
2666.6951	13855.28571
2669.32934	13873.42857
2671.96194	13864.85714
2674.59291	13862.57143
2677.22224	13828
2679.84993	13854.28571
2682.476	13824.71429
2685.10043	13826.57143
2687.72324	13810.57143
2690.34441	13814.14286
2692.96396	13794.85714
2695.58188	13789.14286
2698.19818	13781.14286
2700.81285	13835.71429
2703.4259	13778.71429
2706.03733	13781.71429
2708.64714	13799.42857
2711.25533	13793.42857
2713.86191	13815.71429
2716.46687	13840.85714
2719.07021	13796.71429
2721.67194	13845.71429
2724.27206	13845.85714
2726.87057	13809.57143
2729.46747	13781.28571
2732.06276	13787.85714
2734.65644	13768.85714
2737.24852	13766
2739.83899	13736.14286
2742.42786	13765.14286
2745.01513	13716.85714
2747.60079	13699
2750.18486	13654.85714
2752.76733	13653.71429
2755.3482	13674.28571
2757.92747	13663.57143
2760.50515	13642.85714
2763.08123	13629.71429
2765.65573	13568.85714
2768.22863	13577.28571
2770.79994	13571.57143
2773.36967	13554.28571
2775.9378	13581.85714
2778.50435	13532.42857
2781.06932	13501
2783.6327	13478
2786.1945	13459.57143
2788.75471	13435.71429
2791.31335	13422.14286
2793.87041	13404.42857
2796.42589	13361.42857
2798.97979	13377.14286
2801.53212	13343.28571
2804.08288	13324.42857
2806.63206	13266.71429
2809.17967	13241.85714
2811.72571	13203.42857
2814.27018	13230
2816.81308	13160.14286
2819.35442	13148.71429
2821.89419	13117.71429
2824.43239	13139.28571
2826.96904	13118.42857
2829.50412	13090.28571
2832.03763	13065.57143
2834.56959	13087.71429
2837.1	13040.71429
2839.62884	13036.71429
2842.15613	13036.57143
2844.68186	13030
2847.20604	13044.57143
2849.72867	13026.71429
2852.24974	12981.42857
2854.76927	13002.42857
2857.28724	12953
2859.80367	12940.71429
2862.31855	12908.28571
2864.83189	12888.85714
2867.34368	12898.42857
2869.85393	12857.71429
2872.36264	12885.28571
2874.8698	12875.85714
2877.37543	12876.71429
2879.87952	12809.57143
2882.38207	12839.42857
2884.88308	12823.14286
2887.38256	12813.14286
2889.88051	12819.42857
2892.37692	12862.71429
2894.8718	12826
2897.36515	12851.71429
2899.85698	12844.28571
2902.34727	12888.71429
2904.83604	12841.71429
2907.32328	12872.85714
2909.809	12875.14286
2912.29319	12914.42857
2914.77587	12897.71429
2917.25702	12888.85714
2919.73665	12909.14286
2922.21476	12912.42857
2924.69136	12871.57143
2927.16644	12899
2929.64	12858.14286
2932.11205	12849.28571
2934.58258	12781.14286
2937.05161	12824.85714
2939.51912	12813.14286
2941.98513	12819
2944.44962	12799.85714
2946.91261	12720.14286
2949.37409	12757.57143
2951.83407	12727.71429
2954.29254	12747.14286
2956.74951	12698.85714
2959.20498	12680.42857
2961.65895	12647.57143
2964.11142	12696.42857
2966.56239	12662.71429
2969.01186	12644.28571
2971.45984	12602.85714
2973.90632	12588.85714
2976.35131	12564.28571
2978.7948	12576.42857
2981.23681	12522.28571
2983.67732	12486.71429
2986.11635	12479
2988.55388	12457
2990.98993	12425.85714
2993.4245	12401.85714
2995.85758	12376
2998.28917	12366.71429
3000.71928	12341
3003.14791	12340.28571
3005.57506	12294.85714
3008.00073	12289
3010.42493	12266.42857
3012.84764	12219.85714
3015.26888	12234.85714
3017.68865	12196
3020.10694	12174.14286
3022.52376	12157.85714
3024.9391	12128.85714
3027.35298	12112.14286
3029.76539	12105.85714
3032.17632	12099.28571
3034.5858	12035.42857
3036.9938	12058.57143
3039.40034	12054.57143
3041.80542	12042.57143
3044.20903	12047.42857
3046.61118	12009.57143
3049.01187	11980.85714
3051.4111	11952
3053.80888	11955.28571
3056.20519	11951.57143
3058.60005	11895.42857
3060.99345	11875.28571
3063.3854	11853.71429
3065.7759	11801.71429
3068.16494	11828.28571
3070.55254	11749.85714
3072.93868	11736.85714
3075.32338	11729.14286
3077.70662	11730.14286
3080.08842	11704.57143
3082.46878	11628.42857
3084.84769	11664.28571
3087.22515	11637.85714
3089.60118	11629.42857
3091.97576	11652
3094.3489	11659.85714
3096.72061	11664.28571
3099.09087	11645
3101.4597	11657.14286
3103.82709	11641.71429
3106.19305	11637.71429
3108.55757	11646.57143
3110.92066	11591
3113.28232	11600
3115.64255	11532.28571
3118.00134	11520
3120.35871	11506.71429
3122.71466	11514
3125.06917	11472.57143
3127.42226	11470
3129.77393	11469.71429
3132.12417	11474.42857
3134.47299	11457.85714
3136.82039	11443
3139.16636	11443.57143
3141.51092	11463.28571
3143.85406	11443.28571
3146.19579	11435.71429
3148.53609	11445.85714
3150.87499	11451.57143
3153.21246	11451.14286
3155.54853	11461
3157.88318	11468.28571
3160.21642	11482.57143
3162.54826	11490
3164.87868	11496.85714
3167.2077	11488.71429
3169.5353	11482.85714
3171.86151	11495.42857
3174.18631	11487.14286
3176.5097	11467.57143
3178.83169	11455.14286
3181.15228	11420.28571
3183.47147	11398.71429
3185.78926	11398.42857
3188.10565	11371.85714
3190.42065	11345.71429
3192.73424	11390.71429
3195.04645	11341
3197.35725	11314.71429
3199.66667	11352
3201.97469	11337.57143
3204.28132	11338.28571
3206.58656	11381.28571
3208.8904	11401
3211.19287	11410.14286
3213.49394	11397.42857
3215.79363	11415.71429
3218.09193	11361.57143
3220.38884	11387.57143
3222.68438	11393
3224.97853	11416.57143
3227.2713	11378.42857
3229.56269	11379.42857
3231.8527	11343.42857
3234.14133	11338.57143
3236.42858	11301.42857
3238.71446	11276.57143
3240.99896	11269.57143
3243.28209	11233.71429
3245.56384	11241.57143
3247.84423	11238.71429
3250.12324	11214.14286
3252.40088	11212.28571
3254.67715	11204.42857
3256.95205	11170.14286
3259.22558	11177.85714
3261.49775	11161.42857
3263.76855	11164
3266.03799	11159.42857
3268.30606	11108
3270.57277	11105.42857
3272.83812	11057.85714
3275.10211	11051.28571
3277.36474	11051.28571
3279.62601	10996.57143
3281.88593	10986.57143
3284.14448	11004.85714
3286.40168	10995.85714
3288.65753	10989.14286
3290.91202	10987.57143
3293.16516	10955.14286
3295.41695	10935.14286
3297.66738	10909.28571
3299.91647	10841.28571
3302.16421	10777
3304.4106	10728.14286
3306.65564	10663.14286
3308.89933	10578
3311.14169	10522.85714
3313.38269	10415.57143
3315.62236	10393
3317.86068	10286.14286
3320.09766	10212
3322.3333	10120.28571
3324.5676	10084.71429
3326.80056	9954.71429
3329.03219	9930.57143
3331.26248	2.14286
3333.49143	0.42857
3335.71905	0.57143
