Data from AgNPs_FTO_APTES_UA_10uM_CRN_50uM_R6G_10uM_NaF_0.1M_Addition_RamanShift__0__16-35-24-856.txt Node

Date: Thu Feb 17 16:35:24 GMT 2022
User: TCL
Spectrometer: QEP01345
Trigger mode: 4
Integration Time (sec): 1.000000E1
Scans to average: 7
Electric dark correction enabled: true
Nonlinearity correction enabled: false
Boxcar width: 0
XAxis mode: Raman Shifts
Number of Pixels in Spectrum: 1044
>>>>>Begin Spectral Data<<<<<
46.04893	-0.23214
50.45542	-1.80357
54.85868	-0.23214
59.25871	-3.08929
63.6555	86.33929
68.04907	89.91071
72.43941	94.91071
76.82654	101.19643
81.21044	105.48214
85.59113	101.625
89.96862	113.625
94.34289	107.625
98.71396	115.76786
103.08183	117.76786
107.4465	125.91071
111.80798	122.625
116.16626	127.91071
120.52136	129.76786
124.87327	144.33929
129.222	148.48214
133.56755	150.76786
137.90993	166.48214
142.24913	183.48214
146.58517	204.33929
150.91804	240.33929
155.24774	283.625
159.57429	346.19643
163.89768	454.33929
168.21792	605.91071
172.53501	824.05357
176.84895	1161.05357
181.15975	1653.19643
185.46741	2331.19643
189.77193	3259.48214
194.07331	4369.33929
198.37157	5665.33929
202.6667	7034.76786
206.9587	8405.33929
211.24758	9776.19643
215.53334	11167.76786
219.81599	12652.19643
224.09553	14294.19643
228.37195	16106.33929
232.64527	18065.48214
236.91549	20021.48214
241.18261	21911.19643
245.44663	23503.76786
249.70755	24827.33929
253.96539	26024.05357
258.22014	27027.76786
262.4718	27926.91071
266.72039	28544.33929
270.96589	28814.48214
275.20832	28733.19643
279.44768	28318.91071
283.68397	27850.76786
287.91719	27450.33929
292.14735	27296.76786
296.37445	27578.91071
300.59849	28242.33929
304.81948	29109.48214
309.03742	29810.91071
313.25231	30018.76786
317.46415	29357.33929
321.67296	28055.33929
325.87872	26910.76786
330.08145	26326.91071
334.28114	26377.19643
338.47781	26707.19643
342.67145	27260.48214
346.86207	28083.76786
351.04966	29137.91071
355.23424	30312.48214
359.4158	31142.19643
363.59435	31558.05357
367.76989	31712.19643
371.94243	31598.625
376.11196	31442.33929
380.27849	31314.625
384.44203	31200.76786
388.60257	31154.48214
392.76012	31217.76786
396.91468	31592.91071
401.06626	32103.76786
405.21485	32533.625
409.36047	32139.19643
413.50311	31159.05357
417.64277	30145.33929
421.77947	29541.91071
425.9132	29281.05357
430.04396	29237.48214
434.17176	29245.48214
438.2966	29442.33929
442.41849	29856.05357
446.53742	30466.91071
450.6534	31023.625
454.76644	31386.19643
458.87653	31482.33929
462.98368	31418.48214
467.08789	31115.05357
471.18916	30826.19643
475.2875	30310.05357
479.38291	29860.625
483.4754	29549.05357
487.56496	29345.19643
491.6516	29217.625
495.73531	29305.48214
499.81612	29393.33929
503.89401	29626.33929
507.96899	29795.48214
512.04106	29941.33929
516.11023	30155.33929
520.1765	30408.05357
524.23987	30487.33929
528.30034	30375.19643
532.35792	30216.33929
536.41261	29925.19643
540.46441	29538.48214
544.51333	29295.48214
548.55936	29419.48214
552.60252	29747.76786
556.64279	30201.19643
560.6802	30510.76786
564.71473	30674.33929
568.7464	31091.91071
572.7752	31328.19643
576.80114	30823.76786
580.82422	30451.05357
584.84444	30688.05357
588.86181	31032.91071
592.87633	31194.05357
596.888	31354.625
600.89682	31964.91071
604.9028	34288.19643
608.90594	40662.91071
612.90624	48684.91071
616.90371	46874.05357
620.89834	36344.91071
624.89015	31391.48214
628.87913	30503.76786
632.86528	30820.05357
636.84862	31219.76786
640.82913	30927.48214
644.80683	30018.19643
648.78172	29267.48214
652.75379	29312.19643
656.72306	30008.19643
660.68952	30965.33929
664.65319	30826.33929
668.61405	29933.19643
672.57211	29682.33929
676.52738	29768.05357
680.47986	29643.91071
684.42955	29348.19643
688.37646	29209.19643
692.32058	29355.19643
696.26192	29609.48214
700.20048	29932.76786
704.13626	30102.76786
708.06928	29984.625
711.99952	29688.91071
715.927	29643.19643
719.85171	29840.33929
723.77365	29919.33929
727.69284	29732.33929
731.60928	29469.19643
735.52295	29402.33929
739.43388	29419.05357
743.34206	29483.76786
747.24749	29519.48214
751.15017	29561.05357
755.05012	29762.05357
758.94733	30546.76786
762.8418	32723.76786
766.73354	36323.91071
770.62254	39825.05357
774.50882	41247.625
778.39237	39857.33929
782.27321	36527.19643
786.15132	33176.05357
790.02671	30955.76786
793.89938	29934.625
797.76935	29550.19643
801.6366	29371.48214
805.50115	29222.19643
809.36299	29146.625
813.22213	29007.91071
817.07857	28960.19643
820.93231	28962.05357
824.78336	29025.05357
828.63172	29090.05357
832.47738	29068.625
836.32036	29075.625
840.16066	29039.19643
843.99827	28996.91071
847.8332	28971.76786
851.66546	28953.48214
855.49504	28938.91071
859.32195	28961.19643
863.1462	29002.05357
866.96777	28980.91071
870.78668	28954.05357
874.60293	29075.91071
878.41652	29125.625
882.22745	29302.48214
886.03573	29393.625
889.84136	29390.91071
893.64433	29200.05357
897.44466	29095.76786
901.24235	29037.48214
905.0374	28948.625
908.8298	28776.19643
912.61957	28703.33929
916.40671	28792.05357
920.19121	28863.33929
923.97308	29081.91071
927.75233	29415.48214
931.52895	29679.48214
935.30295	29555.33929
939.07433	29054.625
942.84309	28529.05357
946.60924	28338.19643
950.37278	28182.91071
954.13371	28097.48214
957.89203	28092.76786
961.64774	28045.19643
965.40086	27990.48214
969.15137	27969.05357
972.89929	27994.76786
976.64461	28012.05357
980.38733	28031.33929
984.12747	28100.19643
987.86502	28310.625
991.59999	28485.91071
995.33237	28737.19643
999.06217	29019.91071
1002.78939	29428.05357
1006.51404	29887.91071
1010.23611	30260.05357
1013.95561	30414.33929
1017.67255	30339.33929
1021.38692	30194.48214
1025.09872	29996.625
1028.80796	29932.19643
1032.51465	30189.19643
1036.21877	30470.76786
1039.92035	30608.05357
1043.61937	30625.91071
1047.31584	30491.625
1051.00976	30248.76786
1054.70114	30039.05357
1058.38998	30013.48214
1062.07627	30050.05357
1065.76003	30136.19643
1069.44126	30328.48214
1073.11995	30809.05357
1076.79611	31355.19643
1080.46974	31839.48214
1084.14085	32253.91071
1087.80943	32646.05357
1091.47549	32706.76786
1095.13903	32391.76786
1098.80005	31814.05357
1102.45857	31314.76786
1106.11456	30998.19643
1109.76805	30997.91071
1113.41903	31249.33929
1117.06751	31712.05357
1120.71348	32302.625
1124.35696	33173.625
1127.99793	33969.48214
1131.63641	33902.19643
1135.2724	32946.625
1138.90589	32126.48214
1142.5369	31585.19643
1146.16542	31166.05357
1149.79145	30809.33929
1153.415	30695.48214
1157.03607	30658.05357
1160.65467	31022.48214
1164.27079	31662.91071
1167.88443	32730.05357
1171.49561	34317.19643
1175.10432	36879.48214
1178.71056	40197.33929
1182.31434	43032.625
1185.91565	44014.91071
1189.51451	43499.19643
1193.11091	41973.33929
1196.70485	39993.19643
1200.29634	38427.48214
1203.88538	36984.625
1207.47197	35390.05357
1211.05612	33949.33929
1214.63782	33026.76786
1218.21708	32674.76786
1221.79391	32555.48214
1225.36829	32502.48214
1228.94024	32456.91071
1232.50976	32404.76786
1236.07685	32316.625
1239.6415	32335.625
1243.20374	32414.19643
1246.76355	32626.625
1250.32093	33000.625
1253.8759	33398.76786
1257.42845	34077.05357
1260.97859	34873.625
1264.52631	35765.91071
1268.07163	36658.91071
1271.61453	37402.05357
1275.15503	37967.76786
1278.69312	38317.625
1282.22882	38496.91071
1285.76211	39145.33929
1289.29301	39998.91071
1292.82151	40896.48214
1296.34761	41812.19643
1299.87133	43223.05357
1303.39266	45703.33929
1306.9116	49370.625
1310.42815	53448.76786
1313.94233	55405.76786
1317.45412	53800.625
1320.96354	50604.91071
1324.47058	47421.33929
1327.97525	44586.625
1331.47754	42782.05357
1334.97747	42033.625
1338.47502	41951.33929
1341.97022	42497.625
1345.46305	43922.19643
1348.95352	46346.76786
1352.44163	49533.33929
1355.92738	53330.48214
1359.41078	58602.91071
1362.89183	63753.05357
1366.37053	62033.33929
1369.84688	53940.91071
1373.32088	46072.48214
1376.79254	41283.76786
1380.26186	38967.625
1383.72883	37594.625
1387.19347	36524.48214
1390.65578	35294.19643
1394.11575	34207.625
1397.57339	33543.05357
1401.0287	33229.05357
1404.48168	33022.48214
1407.93234	33014.76786
1411.38068	33226.33929
1414.82669	33608.33929
1418.27039	33708.625
1421.71177	33785.625
1425.15083	33373.625
1428.58758	33168.48214
1432.02203	33304.19643
1435.45416	33698.19643
1438.88399	33873.05357
1442.31151	33885.33929
1445.73673	33832.76786
1449.15965	33933.19643
1452.58027	33889.625
1455.9986	33722.05357
1459.41463	33658.48214
1462.82837	33920.48214
1466.23982	34375.19643
1469.64898	34991.33929
1473.05586	35623.48214
1476.46045	36022.33929
1479.86276	36490.625
1483.26279	37115.19643
1486.66054	37917.33929
1490.05602	39058.05357
1493.44922	40736.05357
1496.84016	43238.19643
1500.22882	47083.91071
1503.61521	52392.33929
1506.99934	58130.05357
1510.38121	62438.91071
1513.76081	62651.76786
1517.13816	58082.33929
1520.51324	51104.625
1523.88607	45080.91071
1527.25665	41369.19643
1530.62498	39320.76786
1533.99105	38059.19643
1537.35488	37287.05357
1540.71647	36732.05357
1544.07581	36398.625
1547.4329	36244.05357
1550.78776	36112.19643
1554.14038	36146.19643
1557.49077	36442.19643
1560.83892	36925.625
1564.18484	37781.19643
1567.52853	38790.625
1570.86999	39713.19643
1574.20922	40261.625
1577.54624	40023.91071
1580.88103	38644.48214
1584.2136	36712.19643
1587.54395	35558.05357
1590.87208	35593.48214
1594.19801	36731.76786
1597.52172	38476.625
1600.84321	39335.625
1604.16251	38736.76786
1607.47959	37534.48214
1610.79447	36069.19643
1614.10715	34337.76786
1617.41763	32808.19643
1620.7259	31756.625
1624.03199	31191.76786
1627.33587	31147.19643
1630.63757	31519.48214
1633.93707	32411.19643
1637.23439	34026.05357
1640.52951	36682.33929
1643.82246	40681.19643
1647.11321	45371.48214
1650.40179	48277.48214
1653.68819	46956.05357
1656.97241	41846.05357
1660.25446	36400.48214
1663.53433	32657.48214
1666.81203	30543.625
1670.08756	29301.05357
1673.36092	28497.91071
1676.63211	28039.05357
1679.90115	27743.19643
1683.16801	27438.19643
1686.43272	27243.91071
1689.69527	27046.19643
1692.95567	26928.48214
1696.2139	26840.91071
1699.46999	26858.76786
1702.72392	26771.76786
1705.97571	26781.19643
1709.22535	26750.76786
1712.47284	26792.05357
1715.71819	26801.19643
1718.96139	26722.625
1722.20246	26700.19643
1725.44139	26652.48214
1728.67818	26529.05357
1731.91284	26403.48214
1735.14537	26280.05357
1738.37576	26153.48214
1741.60403	26076.625
1744.83017	26036.625
1748.05418	26007.76786
1751.27607	25927.76786
1754.49584	25924.33929
1757.71349	25902.33929
1760.92903	25861.48214
1764.14244	25829.33929
1767.35375	25801.33929
1770.56294	25756.76786
1773.77002	25705.33929
1776.97499	25665.33929
1780.17785	25648.19643
1783.37861	25637.76786
1786.57727	25564.48214
1789.77382	25498.19643
1792.96828	25453.05357
1796.16064	25450.76786
1799.3509	25397.05357
1802.53907	25339.05357
1805.72514	25333.76786
1808.90913	25260.76786
1812.09102	25197.625
1815.27083	25175.625
1818.44856	25128.625
1821.6242	25142.33929
1824.79776	25063.76786
1827.96924	24993.05357
1831.13864	24980.91071
1834.30597	24956.76786
1837.47122	24945.33929
1840.6344	24918.48214
1843.7955	24930.625
1846.95454	24927.625
1850.11151	24877.33929
1853.26642	24884.19643
1856.41926	24857.05357
1859.57004	24841.625
1862.71876	24856.33929
1865.86542	24808.625
1869.01003	24826.76786
1872.15258	24794.625
1875.29308	24788.19643
1878.43152	24782.76786
1881.56792	24734.19643
1884.70227	24701.33929
1887.83457	24721.76786
1890.96482	24678.625
1894.09304	24579.33929
1897.21921	24614.91071
1900.34335	24573.91071
1903.46544	24561.76786
1906.58551	24588.33929
1909.70353	24529.48214
1912.81953	24504.76786
1915.93349	24435.91071
1919.04543	24428.625
1922.15534	24431.76786
1925.26322	24396.33929
1928.36908	24355.19643
1931.47292	24280.05357
1934.57473	24241.91071
1937.67453	24168.05357
1940.77232	24158.91071
1943.86808	24073.625
1946.96184	24002.33929
1950.05358	23955.625
1953.14331	23903.05357
1956.23103	23849.91071
1959.31675	23824.48214
1962.40046	23766.76786
1965.48217	23745.48214
1968.56188	23690.91071
1971.63959	23605.91071
1974.7153	23566.76786
1977.78901	23556.33929
1980.86073	23427.625
1983.93046	23367.76786
1986.99819	23263.19643
1990.06394	23223.33929
1993.1277	23136.05357
1996.18947	23068.19643
1999.24925	23011.19643
2002.30706	22946.33929
2005.36288	22882.33929
2008.41672	22811.33929
2011.46859	22766.33929
2014.51848	22680.05357
2017.56639	22676.33929
2020.61233	22582.19643
2023.6563	22525.91071
2026.6983	22470.91071
2029.73833	22469.91071
2032.7764	22392.76786
2035.8125	22326.48214
2038.84664	22313.48214
2041.87881	22260.48214
2044.90903	22237.48214
2047.93729	22195.05357
2050.96359	22144.48214
2053.98794	22159.625
2057.01034	22164.625
2060.03078	22167.33929
2063.04927	22197.76786
2066.06582	22157.625
2069.08042	22079.33929
2072.09307	22092.625
2075.10378	22024.76786
2078.11255	22099.33929
2081.11938	22076.33929
2084.12426	22077.76786
2087.12722	22075.91071
2090.12824	22031.19643
2093.12732	22031.19643
2096.12447	22062.91071
2099.11969	22086.91071
2102.11299	22106.19643
2105.10435	22092.48214
2108.09379	22118.91071
2111.08131	22167.91071
2114.0669	22194.48214
2117.05057	22278.625
2120.03233	22198.33929
2123.01216	22320.76786
2125.99008	22330.19643
2128.96609	22383.91071
2131.94018	22407.19643
2134.91236	22412.625
2137.88263	22387.19643
2140.851	22409.625
2143.81746	22422.76786
2146.78201	22403.05357
2149.74466	22407.91071
2152.7054	22461.76786
2155.66425	22409.05357
2158.6212	22423.05357
2161.57625	22408.48214
2164.52941	22416.19643
2167.48067	22400.91071
2170.43004	22378.19643
2173.37752	22419.91071
2176.32311	22406.76786
2179.26681	22396.33929
2182.20863	22383.76786
2185.14856	22435.33929
2188.08661	22430.33929
2191.02278	22433.625
2193.95707	22418.76786
2196.88948	22390.625
2199.82001	22353.625
2202.74867	22352.625
2205.67545	22320.48214
2208.60037	22304.19643
2211.52341	22273.48214
2214.44458	22302.19643
2217.36388	22214.05357
2220.28132	22241.19643
2223.1969	22185.48214
2226.11061	22152.48214
2229.02246	22111.05357
2231.93245	22054.33929
2234.84058	22001.33929
2237.74686	21979.05357
2240.65128	21972.19643
2243.55385	21996.05357
2246.45456	21953.19643
2249.35343	21986.76786
2252.25044	21923.76786
2255.14561	21947.33929
2258.03893	21948.91071
2260.93041	21940.625
2263.82004	21856.19643
2266.70783	21824.91071
2269.59378	21761.76786
2272.4779	21690.19643
2275.36017	21701.19643
2278.24061	21630.48214
2281.11922	21586.19643
2283.996	21571.05357
2286.87094	21569.33929
2289.74405	21531.625
2292.61534	21490.76786
2295.4848	21511.625
2298.35243	21518.05357
2301.21824	21538.76786
2304.08223	21499.76786
2306.94439	21519.48214
2309.80474	21502.91071
2312.66327	21474.05357
2315.51999	21428.91071
2318.37489	21462.625
2321.22797	21419.19643
2324.07925	21417.91071
2326.92871	21358.48214
2329.77637	21357.19643
2332.62222	21325.625
2335.46626	21297.91071
2338.3085	21242.33929
2341.14893	21251.05357
2343.98756	21298.91071
2346.8244	21225.625
2349.65943	21274.05357
2352.49267	21280.625
2355.32411	21240.33929
2358.15376	21297.48214
2360.98161	21261.05357
2363.80768	21248.19643
2366.63195	21262.48214
2369.45444	21235.91071
2372.27514	21243.33929
2375.09405	21214.625
2377.91118	21159.48214
2380.72652	21130.05357
2383.54009	21073.76786
2386.35187	21017.05357
2389.16188	20931.48214
2391.97011	20936.625
2394.77657	20904.76786
2397.58125	20905.05357
2400.38416	20862.05357
2403.18529	20842.19643
2405.98466	20791.33929
2408.78226	20736.625
2411.57809	20691.33929
2414.37216	20702.19643
2417.16446	20728.19643
2419.955	20673.625
2422.74378	20699.33929
2425.5308	20665.76786
2428.31606	20651.91071
2431.09956	20663.625
2433.88131	20635.76786
2436.6613	20709.05357
2439.43954	20674.19643
2442.21603	20658.48214
2444.99077	20603.48214
2447.76377	20701.48214
2450.53501	20637.625
2453.30451	20620.91071
2456.07226	20579.625
2458.83827	20574.76786
2461.60254	20591.19643
2464.36507	20547.48214
2467.12586	20510.48214
2469.88492	20526.19643
2472.64224	20514.33929
2475.39782	20515.91071
2478.15167	20586.19643
2480.90379	20587.91071
2483.65417	20618.91071
2486.40283	20628.48214
2489.14976	20617.19643
2491.89497	20636.625
2494.63845	20632.48214
2497.3802	20610.33929
2500.12024	20638.05357
2502.85855	20583.91071
2505.59514	20515.625
2508.33002	20458.91071
2511.06318	20376.625
2513.79462	20389.91071
2516.52435	20320.91071
2519.25237	20282.625
2521.97867	20272.625
2524.70327	20277.33929
2527.42616	20251.625
2530.14734	20196.91071
2532.86681	20191.91071
2535.58458	20195.625
2538.30065	20239.19643
2541.01501	20185.76786
2543.72768	20193.48214
2546.43864	20184.91071
2549.14791	20143.625
2551.85548	20157.19643
2554.56136	20134.33929
2557.26554	20107.625
2559.96803	20042.48214
2562.66883	20028.625
2565.36794	19999.19643
2568.06536	19968.33929
2570.7611	19992.48214
2573.45514	19945.76786
2576.14751	19882.48214
2578.83819	19858.19643
2581.52719	19882.33929
2584.21451	19829.48214
2586.90015	19802.625
2589.58411	19804.05357
2592.2664	19772.05357
2594.94701	19752.48214
2597.62594	19719.91071
2600.30321	19682.33929
2602.9788	19651.91071
2605.65273	19599.625
2608.32498	19587.33929
2610.99557	19592.05357
2613.66449	19574.91071
2616.33175	19554.33929
2618.99734	19584.19643
2621.66128	19578.48214
2624.32355	19532.91071
2626.98416	19510.625
2629.64311	19486.33929
2632.30041	19454.76786
2634.95605	19423.91071
2637.61004	19410.33929
2640.26238	19355.76786
2642.91306	19369.33929
2645.56209	19350.33929
2648.20948	19366.625
2650.85521	19339.05357
2653.4993	19353.76786
2656.14175	19338.05357
2658.78255	19361.19643
2661.42171	19335.625
2664.05923	19383.91071
2666.6951	19406.19643
2669.32934	19462.05357
2671.96194	19411.625
2674.59291	19428.48214
2677.22224	19355.625
2679.84993	19376.91071
2682.476	19341.91071
2685.10043	19352.33929
2687.72324	19319.05357
2690.34441	19370.48214
2692.96396	19401.33929
2695.58188	19373.48214
2698.19818	19379.33929
2700.81285	19397.76786
2703.4259	19361.33929
2706.03733	19381.91071
2708.64714	19401.91071
2711.25533	19416.625
2713.86191	19420.19643
2716.46687	19482.76786
2719.07021	19393.48214
2721.67194	19466.625
2724.27206	19475.625
2726.87057	19475.48214
2729.46747	19455.05357
2732.06276	19442.625
2734.65644	19404.19643
2737.24852	19420.19643
2739.83899	19341.19643
2742.42786	19375.33929
2745.01513	19348.625
2747.60079	19327.33929
2750.18486	19296.48214
2752.76733	19296.625
2755.3482	19302.19643
2757.92747	19275.05357
2760.50515	19274.76786
2763.08123	19267.48214
2765.65573	19196.625
2768.22863	19221.76786
2770.79994	19166.625
2773.36967	19151.76786
2775.9378	19124.05357
2778.50435	19099.05357
2781.06932	19063.33929
2783.6327	19059.19643
2786.1945	19063.91071
2788.75471	19056.05357
2791.31335	18944.76786
2793.87041	19001.625
2796.42589	18992.91071
2798.97979	18947.05357
2801.53212	18880.05357
2804.08288	18916.91071
2806.63206	18850.76786
2809.17967	18809.05357
2811.72571	18797.76786
2814.27018	18815.05357
2816.81308	18740.91071
2819.35442	18717.33929
2821.89419	18704.48214
2824.43239	18683.76786
2826.96904	18685.76786
2829.50412	18674.76786
2832.03763	18661.48214
2834.56959	18669.91071
2837.1	18631.05357
2839.62884	18677.76786
2842.15613	18643.76786
2844.68186	18635.76786
2847.20604	18620.76786
2849.72867	18610.05357
2852.24974	18578.05357
2854.76927	18619.625
2857.28724	18565.625
2859.80367	18573.91071
2862.31855	18558.33929
2864.83189	18556.33929
2867.34368	18532.19643
2869.85393	18557.19643
2872.36264	18517.48214
2874.8698	18521.19643
2877.37543	18479.48214
2879.87952	18500.48214
2882.38207	18483.19643
2884.88308	18461.05357
2887.38256	18465.48214
2889.88051	18449.91071
2892.37692	18462.05357
2894.8718	18435.19643
2897.36515	18485.91071
2899.85698	18483.76786
2902.34727	18543.05357
2904.83604	18514.05357
2907.32328	18522.05357
2909.809	18564.625
2912.29319	18602.05357
2914.77587	18569.19643
2917.25702	18564.76786
2919.73665	18574.625
2922.21476	18554.33929
2924.69136	18575.48214
2927.16644	18568.625
2929.64	18451.48214
2932.11205	18451.76786
2934.58258	18426.91071
2937.05161	18475.91071
2939.51912	18469.33929
2941.98513	18430.33929
2944.44962	18400.48214
2946.91261	18361.48214
2949.37409	18350.19643
2951.83407	18392.48214
2954.29254	18359.76786
2956.74951	18349.19643
2959.20498	18394.76786
2961.65895	18371.625
2964.11142	18349.19643
2966.56239	18309.33929
2969.01186	18320.76786
2971.45984	18324.33929
2973.90632	18303.91071
2976.35131	18276.91071
2978.7948	18245.19643
2981.23681	18238.05357
2983.67732	18205.625
2986.11635	18139.48214
2988.55388	18115.76786
2990.98993	18117.625
2993.4245	18068.48214
2995.85758	18049.19643
2998.28917	18021.625
3000.71928	18001.19643
3003.14791	17970.48214
3005.57506	17916.19643
3008.00073	17878.05357
3010.42493	17912.19643
3012.84764	17838.48214
3015.26888	17873.91071
3017.68865	17816.05357
3020.10694	17841.33929
3022.52376	17755.625
3024.9391	17769.625
3027.35298	17712.05357
3029.76539	17746.48214
3032.17632	17721.625
3034.5858	17698.05357
3036.9938	17648.91071
3039.40034	17639.625
3041.80542	17640.33929
3044.20903	17554.91071
3046.61118	17578.91071
3049.01187	17510.91071
3051.4111	17492.48214
3053.80888	17483.05357
3056.20519	17482.33929
3058.60005	17423.05357
3060.99345	17360.76786
3063.3854	17357.76786
3065.7759	17337.33929
3068.16494	17282.76786
3070.55254	17268.76786
3072.93868	17241.625
3075.32338	17213.05357
3077.70662	17187.91071
3080.08842	17138.33929
3082.46878	17116.76786
3084.84769	17101.625
3087.22515	17112.625
3089.60118	17149.48214
3091.97576	17161.19643
3094.3489	17118.19643
3096.72061	17135.625
3099.09087	17132.76786
3101.4597	17115.91071
3103.82709	17111.19643
3106.19305	17105.19643
3108.55757	17123.19643
3110.92066	17089.19643
3113.28232	17104.625
3115.64255	17021.91071
3118.00134	16984.91071
3120.35871	16953.05357
3122.71466	16909.625
3125.06917	16943.91071
3127.42226	16890.19643
3129.77393	16946.48214
3132.12417	16898.19643
3134.47299	16879.05357
3136.82039	16849.91071
3139.16636	16887.05357
3141.51092	16896.19643
3143.85406	16886.91071
3146.19579	16911.05357
3148.53609	16883.76786
3150.87499	16986.33929
3153.21246	16934.76786
3155.54853	16948.05357
3157.88318	16952.33929
3160.21642	16974.625
3162.54826	16985.19643
3164.87868	16958.19643
3167.2077	16940.05357
3169.5353	16999.05357
3171.86151	16968.625
3174.18631	16931.91071
3176.5097	16949.91071
3178.83169	16906.91071
3181.15228	16880.19643
3183.47147	16848.19643
3185.78926	16838.76786
3188.10565	16814.48214
3190.42065	16849.625
3192.73424	16815.91071
3195.04645	16819.05357
3197.35725	16837.19643
3199.66667	16744.48214
3201.97469	16791.91071
3204.28132	16789.76786
3206.58656	16861.48214
3208.8904	16838.33929
3211.19287	16849.76786
3213.49394	16824.625
3215.79363	16864.19643
3218.09193	16878.05357
3220.38884	16877.48214
3222.68438	16931.33929
3224.97853	16889.05357
3227.2713	16844.48214
3229.56269	16866.625
3231.8527	16826.625
3234.14133	16811.91071
3236.42858	16766.48214
3238.71446	16739.625
3240.99896	16690.05357
3243.28209	16682.625
3245.56384	16665.91071
3247.84423	16681.48214
3250.12324	16660.48214
3252.40088	16644.91071
3254.67715	16598.48214
3256.95205	16605.05357
3259.22558	16625.33929
3261.49775	16620.76786
3263.76855	16659.33929
3266.03799	16590.48214
3268.30606	16559.05357
3270.57277	16576.91071
3272.83812	16531.91071
3275.10211	16464.76786
3277.36474	16475.33929
3279.62601	16441.625
3281.88593	16424.33929
3284.14448	16448.76786
3286.40168	16463.91071
3288.65753	16471.48214
3290.91202	16445.48214
3293.16516	16368.91071
3295.41695	16374.76786
3297.66738	16327.19643
3299.91647	16224.19643
3302.16421	16134.625
3304.4106	16079.91071
3306.65564	15960.33929
3308.89933	15903.625
3311.14169	15755.05357
3313.38269	15691.91071
3315.62236	15585.625
3317.86068	15435.33929
3320.09766	15372.33929
3322.3333	15261.19643
3324.5676	15230.19643
3326.80056	14988.76786
3329.03219	14907.625
3331.26248	3.05357
3333.49143	0.05357
3335.71905	1.05357
