Data from AgNPs_FTO_APTES_UA_20uM_CRN_200uM_R6G_10uM_NaF_0.1M_Addition_RamanShift__15__18-09-54-925.txt Node

Date: Thu Feb 17 18:09:54 GMT 2022
User: TCL
Spectrometer: QEP01345
Trigger mode: 4
Integration Time (sec): 1.000000E1
Scans to average: 7
Electric dark correction enabled: true
Nonlinearity correction enabled: false
Boxcar width: 0
XAxis mode: Raman Shifts
Number of Pixels in Spectrum: 1044
>>>>>Begin Spectral Data<<<<<
46.04893	0.83929
50.45542	-0.73214
54.85868	-0.73214
59.25871	-1.58929
63.6555	91.125
68.04907	93.41071
72.43941	101.125
76.82654	104.41071
81.21044	110.83929
85.59113	108.55357
89.96862	112.26786
94.34289	115.26786
98.71396	121.98214
103.08183	123.125
107.4465	129.26786
111.80798	131.125
116.16626	135.69643
120.52136	142.83929
124.87327	146.41071
129.222	151.55357
133.56755	155.125
137.90993	175.125
142.24913	186.26786
146.58517	205.55357
150.91804	243.125
155.24774	288.98214
159.57429	349.69643
163.89768	451.83929
168.21792	599.26786
172.53501	811.125
176.84895	1150.69643
181.15975	1627.98214
185.46741	2299.26786
189.77193	3189.41071
194.07331	4299.55357
198.37157	5598.98214
202.6667	6969.83929
206.9587	8313.26786
211.24758	9685.41071
215.53334	10980.83929
219.81599	12331.69643
224.09553	13783.55357
228.37195	15403.55357
232.64527	17179.55357
236.91549	19119.125
241.18261	21110.69643
245.44663	23011.98214
249.70755	24838.41071
253.96539	26419.98214
258.22014	27837.83929
262.4718	28929.98214
266.72039	29642.83929
270.96589	30068.125
275.20832	30142.41071
279.44768	29973.69643
283.68397	29547.41071
287.91719	29202.55357
292.14735	28868.98214
296.37445	28672.69643
300.59849	28611.125
304.81948	28667.55357
309.03742	28630.55357
313.25231	28460.83929
317.46415	28318.55357
321.67296	27950.41071
325.87872	27694.69643
330.08145	27744.125
334.28114	27849.26786
338.47781	28142.98214
342.67145	28487.69643
346.86207	28848.41071
351.04966	29327.41071
355.23424	29872.55357
359.4158	30432.98214
363.59435	30850.98214
367.76989	31149.98214
371.94243	31491.41071
376.11196	31800.55357
380.27849	31988.41071
384.44203	32213.125
388.60257	32368.41071
392.76012	32587.98214
396.91468	32823.98214
401.06626	33194.26786
405.21485	33443.125
409.36047	33499.26786
413.50311	33268.55357
417.64277	33087.98214
421.77947	32945.26786
425.9132	32958.125
430.04396	33154.26786
434.17176	33268.83929
438.2966	33535.125
442.41849	33872.125
446.53742	34293.55357
450.6534	34693.55357
454.76644	35014.98214
458.87653	35275.41071
462.98368	35366.83929
467.08789	35423.125
471.18916	35286.26786
475.2875	35125.98214
479.38291	34983.55357
483.4754	34889.41071
487.56496	34821.125
491.6516	34816.26786
495.73531	34813.55357
499.81612	34845.98214
503.89401	35028.26786
507.96899	35163.98214
512.04106	35315.69643
516.11023	35373.26786
520.1765	35432.83929
524.23987	35504.83929
528.30034	35472.69643
532.35792	35411.41071
536.41261	35375.98214
540.46441	35232.83929
544.51333	35244.26786
548.55936	35329.26786
552.60252	35518.41071
556.64279	35775.98214
560.6802	35923.69643
564.71473	36026.98214
568.7464	36064.41071
572.7752	36196.41071
576.80114	36184.69643
580.82422	36219.41071
584.84444	36256.125
588.86181	36424.69643
592.87633	36565.69643
596.888	36826.69643
600.89682	37169.69643
604.9028	38121.98214
608.90594	40225.26786
612.90624	42750.55357
616.90371	41976.98214
620.89834	38475.41071
624.89015	36759.98214
628.87913	36507.55357
632.86528	36646.41071
636.84862	36833.41071
640.82913	36864.55357
644.80683	36560.41071
648.78172	36328.125
652.75379	36385.41071
656.72306	36676.69643
660.68952	37050.26786
664.65319	37133.98214
668.61405	36912.98214
672.57211	37012.26786
676.52738	37224.69643
680.47986	37440.41071
684.42955	37309.69643
688.37646	37186.98214
692.32058	37182.55357
696.26192	37321.98214
700.20048	37551.69643
704.13626	37697.55357
708.06928	37646.69643
711.99952	37505.26786
715.927	37367.26786
719.85171	37457.98214
723.77365	37456.83929
727.69284	37396.98214
731.60928	37323.125
735.52295	37282.83929
739.43388	37300.26786
743.34206	37333.41071
747.24749	37355.26786
751.15017	37363.125
755.05012	37490.83929
758.94733	37758.26786
762.8418	38452.69643
766.73354	39544.98214
770.62254	40910.41071
774.50882	41696.26786
778.39237	41354.41071
782.27321	40177.69643
786.15132	38986.41071
790.02671	38122.83929
793.89938	37584.41071
797.76935	37417.55357
801.6366	37320.83929
805.50115	37253.69643
809.36299	37171.26786
813.22213	37153.55357
817.07857	37134.55357
820.93231	37148.55357
824.78336	37233.125
828.63172	37260.125
832.47738	37249.69643
836.32036	37262.69643
840.16066	37287.26786
843.99827	37384.69643
847.8332	37393.69643
851.66546	37435.55357
855.49504	37452.125
859.32195	37493.26786
863.1462	37586.125
866.96777	37614.55357
870.78668	37718.55357
874.60293	37738.98214
878.41652	37761.125
882.22745	37819.98214
886.03573	37874.98214
889.84136	37903.69643
893.64433	37750.55357
897.44466	37701.69643
901.24235	37609.55357
905.0374	37575.69643
908.8298	37484.98214
912.61957	37338.26786
916.40671	37412.26786
920.19121	37448.69643
923.97308	37536.83929
927.75233	37621.69643
931.52895	37610.26786
935.30295	37528.41071
939.07433	37408.55357
942.84309	37228.125
946.60924	37135.98214
950.37278	37039.69643
954.13371	36933.98214
957.89203	36932.55357
961.64774	36915.83929
965.40086	36862.125
969.15137	36796.41071
972.89929	36736.26786
976.64461	36723.26786
980.38733	36804.125
984.12747	36854.55357
987.86502	36947.41071
991.59999	37018.98214
995.33237	37167.125
999.06217	37383.125
1002.78939	37481.26786
1006.51404	37646.55357
1010.23611	37917.55357
1013.95561	38012.69643
1017.67255	38104.55357
1021.38692	38051.83929
1025.09872	37967.26786
1028.80796	37815.41071
1032.51465	37921.125
1036.21877	37969.98214
1039.92035	37979.41071
1043.61937	38077.83929
1047.31584	38058.98214
1051.00976	38027.55357
1054.70114	38061.69643
1058.38998	38094.55357
1062.07627	38114.125
1065.76003	38295.83929
1069.44126	38401.83929
1073.11995	38591.83929
1076.79611	38809.125
1080.46974	38983.55357
1084.14085	39087.83929
1087.80943	39149.125
1091.47549	39192.55357
1095.13903	39162.69643
1098.80005	39040.125
1102.45857	38895.125
1106.11456	38833.83929
1109.76805	38778.55357
1113.41903	38754.26786
1117.06751	38765.26786
1120.71348	38898.83929
1124.35696	39070.125
1127.99793	39231.125
1131.63641	39346.26786
1135.2724	39178.55357
1138.90589	38888.83929
1142.5369	38752.26786
1146.16542	38573.83929
1149.79145	38338.83929
1153.415	38221.41071
1157.03607	38225.26786
1160.65467	38387.125
1164.27079	38667.41071
1167.88443	39207.55357
1171.49561	39934.41071
1175.10432	40911.69643
1178.71056	42198.26786
1182.31434	43481.55357
1185.91565	44163.125
1189.51451	44339.26786
1193.11091	43924.98214
1196.70485	43259.83929
1200.29634	42582.69643
1203.88538	41872.83929
1207.47197	41189.55357
1211.05612	40527.83929
1214.63782	40009.125
1218.21708	39731.55357
1221.79391	39581.83929
1225.36829	39523.69643
1228.94024	39421.83929
1232.50976	39394.98214
1236.07685	39291.83929
1239.6415	39297.83929
1243.20374	39409.55357
1246.76355	39469.125
1250.32093	39604.41071
1253.8759	39789.83929
1257.42845	40124.26786
1260.97859	40486.98214
1264.52631	40818.125
1268.07163	41221.69643
1271.61453	41485.69643
1275.15503	41736.125
1278.69312	41962.41071
1282.22882	42042.83929
1285.76211	42219.83929
1289.29301	42429.41071
1292.82151	42778.26786
1296.34761	43091.98214
1299.87133	43815.98214
1303.39266	44709.69643
1306.9116	45788.69643
1310.42815	47052.26786
1313.94233	47864.98214
1317.45412	47658.41071
1320.96354	46972.55357
1324.47058	46181.26786
1327.97525	45343.69643
1331.47754	44813.69643
1334.97747	44469.69643
1338.47502	44525.55357
1341.97022	44919.125
1345.46305	45492.55357
1348.95352	46433.125
1352.44163	47350.98214
1355.92738	48238.26786
1359.41078	49496.98214
1362.89183	50600.69643
1366.37053	49973.69643
1369.84688	47408.41071
1373.32088	44582.55357
1376.79254	42589.98214
1380.26186	41426.125
1383.72883	40799.69643
1387.19347	40300.125
1390.65578	39815.83929
1394.11575	39276.69643
1397.57339	38925.98214
1401.0287	38834.98214
1404.48168	38738.55357
1407.93234	38832.41071
1411.38068	38793.98214
1414.82669	38874.98214
1418.27039	38791.83929
1421.71177	38658.26786
1425.15083	38455.26786
1428.58758	38231.69643
1432.02203	38205.125
1435.45416	38235.26786
1438.88399	38378.83929
1442.31151	38354.69643
1445.73673	38395.26786
1449.15965	38418.69643
1452.58027	38407.41071
1455.9986	38335.69643
1459.41463	38345.98214
1462.82837	38542.69643
1466.23982	38881.98214
1469.64898	39235.55357
1473.05586	39601.41071
1476.46045	39797.83929
1479.86276	39995.69643
1483.26279	40154.55357
1486.66054	40351.55357
1490.05602	40612.41071
1493.44922	41017.125
1496.84016	41655.125
1500.22882	42608.125
1503.61521	43977.55357
1506.99934	45462.98214
1510.38121	46487.69643
1513.76081	46704.83929
1517.13816	45650.55357
1520.51324	44030.69643
1523.88607	42415.83929
1527.25665	41350.98214
1530.62498	40809.69643
1533.99105	40422.55357
1537.35488	40299.26786
1540.71647	40152.55357
1544.07581	40070.125
1547.4329	39957.41071
1550.78776	39862.98214
1554.14038	39756.98214
1557.49077	39805.69643
1560.83892	39873.55357
1564.18484	40072.55357
1567.52853	40207.41071
1570.86999	40493.26786
1574.20922	40602.41071
1577.54624	40603.26786
1580.88103	40230.125
1584.2136	39715.41071
1587.54395	39418.69643
1590.87208	39513.83929
1594.19801	39975.26786
1597.52172	40869.125
1600.84321	41296.125
1604.16251	41132.55357
1607.47959	40630.26786
1610.79447	39880.83929
1614.10715	38981.69643
1617.41763	38026.69643
1620.7259	37292.55357
1624.03199	36872.98214
1627.33587	36670.98214
1630.63757	36676.125
1633.93707	37115.98214
1637.23439	37741.125
1640.52951	38836.69643
1643.82246	40327.41071
1647.11321	41816.83929
1650.40179	42614.83929
1653.68819	41998.83929
1656.97241	40161.69643
1660.25446	38170.55357
1663.53433	36729.83929
1666.81203	35768.26786
1670.08756	35163.98214
1673.36092	34760.55357
1676.63211	34507.26786
1679.90115	34235.55357
1683.16801	34080.41071
1686.43272	33913.69643
1689.69527	33848.125
1692.95567	33738.69643
1696.2139	33664.55357
1699.46999	33608.55357
1702.72392	33662.83929
1705.97571	33649.83929
1709.22535	33626.83929
1712.47284	33591.98214
1715.71819	33544.41071
1718.96139	33539.83929
1722.20246	33492.41071
1725.44139	33423.26786
1728.67818	33372.83929
1731.91284	33261.83929
1735.14537	33154.83929
1738.37576	33105.26786
1741.60403	33002.83929
1744.83017	32884.69643
1748.05418	32888.83929
1751.27607	32879.26786
1754.49584	32844.83929
1757.71349	32866.125
1760.92903	32845.26786
1764.14244	32791.26786
1767.35375	32779.69643
1770.56294	32682.69643
1773.77002	32600.69643
1776.97499	32577.55357
1780.17785	32510.83929
1783.37861	32479.98214
1786.57727	32447.125
1789.77382	32352.98214
1792.96828	32280.41071
1796.16064	32206.83929
1799.3509	32158.125
1802.53907	32092.41071
1805.72514	32018.26786
1808.90913	32017.98214
1812.09102	31960.98214
1815.27083	31842.26786
1818.44856	31787.41071
1821.6242	31835.26786
1824.79776	31802.41071
1827.96924	31775.41071
1831.13864	31653.55357
1834.30597	31712.98214
1837.47122	31682.41071
1840.6344	31564.55357
1843.7955	31597.83929
1846.95454	31567.98214
1850.11151	31498.55357
1853.26642	31480.41071
1856.41926	31475.55357
1859.57004	31509.69643
1862.71876	31402.83929
1865.86542	31430.125
1869.01003	31362.41071
1872.15258	31310.55357
1875.29308	31303.98214
1878.43152	31294.125
1881.56792	31229.125
1884.70227	31161.69643
1887.83457	31142.83929
1890.96482	31123.55357
1894.09304	31006.69643
1897.21921	30984.83929
1900.34335	30938.41071
1903.46544	30929.125
1906.58551	30915.83929
1909.70353	30830.55357
1912.81953	30776.69643
1915.93349	30729.98214
1919.04543	30658.55357
1922.15534	30650.55357
1925.26322	30582.26786
1928.36908	30555.83929
1931.47292	30573.69643
1934.57473	30495.98214
1937.67453	30401.41071
1940.77232	30304.26786
1943.86808	30204.98214
1946.96184	30130.83929
1950.05358	30042.26786
1953.14331	29947.55357
1956.23103	29920.41071
1959.31675	29809.98214
1962.40046	29751.83929
1965.48217	29659.26786
1968.56188	29591.55357
1971.63959	29483.26786
1974.7153	29383.26786
1977.78901	29317.41071
1980.86073	29211.125
1983.93046	29082.41071
1986.99819	29037.55357
1990.06394	28977.41071
1993.1277	28920.55357
1996.18947	28797.83929
1999.24925	28671.69643
2002.30706	28592.98214
2005.36288	28534.125
2008.41672	28440.26786
2011.46859	28353.69643
2014.51848	28286.41071
2017.56639	28177.98214
2020.61233	28137.83929
2023.6563	27982.125
2026.6983	27910.83929
2029.73833	27813.83929
2032.7764	27835.125
2035.8125	27697.26786
2038.84664	27701.98214
2041.87881	27655.69643
2044.90903	27537.55357
2047.93729	27480.55357
2050.96359	27529.55357
2053.98794	27468.98214
2057.01034	27450.26786
2060.03078	27395.98214
2063.04927	27322.69643
2066.06582	27368.26786
2069.08042	27365.55357
2072.09307	27297.41071
2075.10378	27275.26786
2078.11255	27289.26786
2081.11938	27284.69643
2084.12426	27289.83929
2087.12722	27220.55357
2090.12824	27274.69643
2093.12732	27231.125
2096.12447	27262.55357
2099.11969	27215.55357
2102.11299	27214.69643
2105.10435	27179.125
2108.09379	27240.41071
2111.08131	27253.125
2114.0669	27276.55357
2117.05057	27299.41071
2120.03233	27335.69643
2123.01216	27348.83929
2125.99008	27381.83929
2128.96609	27468.125
2131.94018	27478.98214
2134.91236	27446.55357
2137.88263	27415.83929
2140.851	27439.98214
2143.81746	27460.41071
2146.78201	27461.98214
2149.74466	27472.69643
2152.7054	27486.98214
2155.66425	27458.98214
2158.6212	27406.26786
2161.57625	27405.41071
2164.52941	27415.69643
2167.48067	27396.83929
2170.43004	27365.83929
2173.37752	27297.69643
2176.32311	27345.41071
2179.26681	27372.26786
2182.20863	27371.55357
2185.14856	27334.98214
2188.08661	27296.98214
2191.02278	27320.83929
2193.95707	27336.125
2196.88948	27246.41071
2199.82001	27219.26786
2202.74867	27175.55357
2205.67545	27180.83929
2208.60037	27178.26786
2211.52341	27075.26786
2214.44458	27022.41071
2217.36388	26976.55357
2220.28132	26966.98214
2223.1969	26891.55357
2226.11061	26813.26786
2229.02246	26778.125
2231.93245	26661.125
2234.84058	26601.83929
2237.74686	26616.41071
2240.65128	26582.69643
2243.55385	26606.26786
2246.45456	26584.83929
2249.35343	26475.125
2252.25044	26452.83929
2255.14561	26395.83929
2258.03893	26372.55357
2260.93041	26376.55357
2263.82004	26271.41071
2266.70783	26253.98214
2269.59378	26158.98214
2272.4779	26039.98214
2275.36017	26050.26786
2278.24061	25970.55357
2281.11922	25909.83929
2283.996	25908.125
2286.87094	25898.41071
2289.74405	25852.26786
2292.61534	25801.125
2295.4848	25765.26786
2298.35243	25728.55357
2301.21824	25700.55357
2304.08223	25668.26786
2306.94439	25610.98214
2309.80474	25560.125
2312.66327	25548.125
2315.51999	25537.41071
2318.37489	25542.83929
2321.22797	25479.83929
2324.07925	25416.69643
2326.92871	25347.125
2329.77637	25314.83929
2332.62222	25258.26786
2335.46626	25248.69643
2338.3085	25245.55357
2341.14893	25137.69643
2343.98756	25156.125
2346.8244	25104.41071
2349.65943	25070.55357
2352.49267	25034.69643
2355.32411	25015.98214
2358.15376	25011.55357
2360.98161	25003.83929
2363.80768	24956.69643
2366.63195	24937.69643
2369.45444	24865.55357
2372.27514	24824.41071
2375.09405	24735.55357
2377.91118	24756.83929
2380.72652	24763.26786
2383.54009	24675.55357
2386.35187	24632.83929
2389.16188	24555.41071
2391.97011	24512.55357
2394.77657	24479.26786
2397.58125	24508.98214
2400.38416	24432.69643
2403.18529	24355.69643
2405.98466	24295.26786
2408.78226	24250.41071
2411.57809	24230.55357
2414.37216	24151.41071
2417.16446	24161.98214
2419.955	24085.83929
2422.74378	24134.83929
2425.5308	24057.26786
2428.31606	24066.55357
2431.09956	24049.41071
2433.88131	23991.55357
2436.6613	23957.125
2439.43954	23955.83929
2442.21603	23915.26786
2444.99077	23892.69643
2447.76377	23859.69643
2450.53501	23809.83929
2453.30451	23800.41071
2456.07226	23777.41071
2458.83827	23678.83929
2461.60254	23724.69643
2464.36507	23684.41071
2467.12586	23602.98214
2469.88492	23602.55357
2472.64224	23567.69643
2475.39782	23541.69643
2478.15167	23503.55357
2480.90379	23486.98214
2483.65417	23587.125
2486.40283	23541.26786
2489.14976	23528.26786
2491.89497	23510.98214
2494.63845	23484.26786
2497.3802	23438.26786
2500.12024	23420.125
2502.85855	23410.69643
2505.59514	23289.55357
2508.33002	23282.69643
2511.06318	23220.41071
2513.79462	23209.41071
2516.52435	23193.26786
2519.25237	23119.41071
2521.97867	23098.98214
2524.70327	23082.98214
2527.42616	23050.69643
2530.14734	23023.125
2532.86681	22977.41071
2535.58458	22967.69643
2538.30065	22922.98214
2541.01501	22915.26786
2543.72768	22830.83929
2546.43864	22760.69643
2549.14791	22782.125
2551.85548	22732.98214
2554.56136	22642.125
2557.26554	22655.125
2559.96803	22566.125
2562.66883	22522.69643
2565.36794	22455.41071
2568.06536	22427.26786
2570.7611	22372.98214
2573.45514	22366.55357
2576.14751	22330.83929
2578.83819	22237.83929
2581.52719	22193.41071
2584.21451	22182.69643
2586.90015	22157.98214
2589.58411	22115.98214
2592.2664	22063.41071
2594.94701	22011.26786
2597.62594	21927.41071
2600.30321	21875.69643
2602.9788	21865.26786
2605.65273	21814.26786
2608.32498	21811.41071
2610.99557	21784.98214
2613.66449	21780.125
2616.33175	21704.125
2618.99734	21722.41071
2621.66128	21665.98214
2624.32355	21603.69643
2626.98416	21562.55357
2629.64311	21581.26786
2632.30041	21545.125
2634.95605	21461.55357
2637.61004	21406.69643
2640.26238	21369.83929
2642.91306	21347.83929
2645.56209	21380.41071
2648.20948	21359.83929
2650.85521	21335.55357
2653.4993	21309.125
2656.14175	21269.125
2658.78255	21317.69643
2661.42171	21288.55357
2664.05923	21305.125
2666.6951	21237.83929
2669.32934	21256.125
2671.96194	21266.41071
2674.59291	21242.55357
2677.22224	21232.98214
2679.84993	21221.26786
2682.476	21221.55357
2685.10043	21182.125
2687.72324	21167.55357
2690.34441	21168.69643
2692.96396	21184.41071
2695.58188	21174.41071
2698.19818	21135.41071
2700.81285	21148.83929
2703.4259	21097.83929
2706.03733	21115.98214
2708.64714	21163.41071
2711.25533	21179.125
2713.86191	21137.83929
2716.46687	21177.69643
2719.07021	21127.26786
2721.67194	21086.98214
2724.27206	21082.26786
2726.87057	21095.41071
2729.46747	21063.69643
2732.06276	21050.26786
2734.65644	21058.98214
2737.24852	21046.41071
2739.83899	20981.83929
2742.42786	20996.55357
2745.01513	20912.26786
2747.60079	20865.55357
2750.18486	20815.125
2752.76733	20862.69643
2755.3482	20817.41071
2757.92747	20850.125
2760.50515	20769.55357
2763.08123	20736.41071
2765.65573	20674.69643
2768.22863	20698.41071
2770.79994	20607.83929
2773.36967	20625.55357
2775.9378	20583.69643
2778.50435	20512.26786
2781.06932	20501.69643
2783.6327	20468.26786
2786.1945	20445.98214
2788.75471	20393.26786
2791.31335	20354.41071
2793.87041	20320.26786
2796.42589	20245.125
2798.97979	20248.26786
2801.53212	20186.98214
2804.08288	20122.98214
2806.63206	20128.98214
2809.17967	20044.98214
2811.72571	20007.83929
2814.27018	19982.69643
2816.81308	19905.98214
2819.35442	19840.55357
2821.89419	19787.41071
2824.43239	19806.98214
2826.96904	19763.69643
2829.50412	19759.125
2832.03763	19681.98214
2834.56959	19729.26786
2837.1	19640.83929
2839.62884	19657.98214
2842.15613	19604.26786
2844.68186	19567.83929
2847.20604	19590.98214
2849.72867	19562.69643
2852.24974	19499.69643
2854.76927	19495.83929
2857.28724	19471.83929
2859.80367	19432.55357
2862.31855	19409.83929
2864.83189	19361.55357
2867.34368	19296.83929
2869.85393	19317.26786
2872.36264	19312.26786
2874.8698	19245.98214
2877.37543	19233.83929
2879.87952	19251.55357
2882.38207	19207.26786
2884.88308	19176.26786
2887.38256	19175.69643
2889.88051	19188.55357
2892.37692	19155.125
2894.8718	19152.83929
2897.36515	19196.41071
2899.85698	19149.69643
2902.34727	19207.55357
2904.83604	19171.125
2907.32328	19190.98214
2909.809	19204.83929
2912.29319	19192.98214
2914.77587	19189.55357
2917.25702	19200.83929
2919.73665	19157.41071
2922.21476	19146.55357
2924.69136	19153.83929
2927.16644	19156.26786
2929.64	19117.98214
2932.11205	19101.83929
2934.58258	19036.83929
2937.05161	19054.41071
2939.51912	19100.41071
2941.98513	19055.83929
2944.44962	19073.41071
2946.91261	18987.125
2949.37409	19029.83929
2951.83407	19034.98214
2954.29254	19019.125
2956.74951	18977.55357
2959.20498	18907.69643
2961.65895	18910.55357
2964.11142	18946.26786
2966.56239	18896.69643
2969.01186	18923.26786
2971.45984	18845.83929
2973.90632	18843.98214
2976.35131	18765.41071
2978.7948	18759.69643
2981.23681	18732.55357
2983.67732	18662.55357
2986.11635	18644.26786
2988.55388	18628.26786
2990.98993	18557.41071
2993.4245	18531.69643
2995.85758	18521.69643
2998.28917	18484.26786
3000.71928	18463.26786
3003.14791	18425.41071
3005.57506	18413.26786
3008.00073	18329.125
3010.42493	18334.98214
3012.84764	18273.41071
3015.26888	18284.69643
3017.68865	18233.55357
3020.10694	18210.26786
3022.52376	18174.98214
3024.9391	18158.26786
3027.35298	18139.69643
3029.76539	18120.26786
3032.17632	18084.55357
3034.5858	18076.41071
3036.9938	18055.26786
3039.40034	18041.55357
3041.80542	18014.83929
3044.20903	17981.69643
3046.61118	17973.83929
3049.01187	17930.83929
3051.4111	17920.41071
3053.80888	17861.26786
3056.20519	17817.41071
3058.60005	17754.98214
3060.99345	17785.55357
3063.3854	17759.69643
3065.7759	17670.41071
3068.16494	17612.55357
3070.55254	17587.41071
3072.93868	17548.55357
3075.32338	17503.41071
3077.70662	17518.83929
3080.08842	17447.83929
3082.46878	17401.55357
3084.84769	17372.41071
3087.22515	17390.69643
3089.60118	17387.69643
3091.97576	17397.69643
3094.3489	17401.26786
3096.72061	17387.41071
3099.09087	17380.98214
3101.4597	17340.55357
3103.82709	17377.41071
3106.19305	17348.26786
3108.55757	17349.26786
3110.92066	17313.41071
3113.28232	17267.98214
3115.64255	17244.69643
3118.00134	17210.55357
3120.35871	17169.41071
3122.71466	17141.55357
3125.06917	17114.125
3127.42226	17082.69643
3129.77393	17078.83929
3132.12417	17047.26786
3134.47299	17054.41071
3136.82039	17042.41071
3139.16636	17002.98214
3141.51092	16974.26786
3143.85406	17006.125
3146.19579	16999.125
3148.53609	17010.55357
3150.87499	17029.125
3153.21246	17013.26786
3155.54853	17039.26786
3157.88318	17043.83929
3160.21642	17073.26786
3162.54826	17054.69643
3164.87868	17076.98214
3167.2077	16994.41071
3169.5353	17053.41071
3171.86151	17019.83929
3174.18631	16990.41071
3176.5097	17011.26786
3178.83169	16950.83929
3181.15228	16944.41071
3183.47147	16904.55357
3185.78926	16855.69643
3188.10565	16861.125
3190.42065	16826.83929
3192.73424	16866.55357
3195.04645	16827.26786
3197.35725	16814.83929
3199.66667	16794.125
3201.97469	16865.55357
3204.28132	16758.55357
3206.58656	16789.98214
3208.8904	16792.41071
3211.19287	16844.55357
3213.49394	16831.41071
3215.79363	16839.98214
3218.09193	16835.83929
3220.38884	16860.41071
3222.68438	16865.26786
3224.97853	16868.83929
3227.2713	16804.55357
3229.56269	16768.98214
3231.8527	16765.83929
3234.14133	16730.83929
3236.42858	16667.98214
3238.71446	16651.98214
3240.99896	16610.98214
3243.28209	16600.55357
3245.56384	16572.26786
3247.84423	16575.98214
3250.12324	16574.26786
3252.40088	16520.55357
3254.67715	16528.125
3256.95205	16533.83929
3259.22558	16510.55357
3261.49775	16474.55357
3263.76855	16486.69643
3266.03799	16439.98214
3268.30606	16434.26786
3270.57277	16406.83929
3272.83812	16356.125
3275.10211	16328.98214
3277.36474	16296.125
3279.62601	16310.125
3281.88593	16253.69643
3284.14448	16255.41071
3286.40168	16265.55357
3288.65753	16211.83929
3290.91202	16207.26786
3293.16516	16141.55357
3295.41695	16125.26786
3297.66738	16032.55357
3299.91647	15971.69643
3302.16421	15869.98214
3304.4106	15831.98214
3306.65564	15699.55357
3308.89933	15600.98214
3311.14169	15475.26786
3313.38269	15379.69643
3315.62236	15274.69643
3317.86068	15154.41071
3320.09766	15033.98214
3322.3333	14945.83929
3324.5676	14837.69643
3326.80056	14637.55357
3329.03219	14578.125
3331.26248	1.98214
3333.49143	-0.73214
3335.71905	-1.16071
