Data from AgNPs_FTO_APTES_UA_20uM_CRN_100uM_R6G_10uM_NaF_0.1M_Addition_RamanShift__8__17-27-54-873.txt Node

Date: Thu Feb 17 17:27:54 GMT 2022
User: TCL
Spectrometer: QEP01345
Trigger mode: 4
Integration Time (sec): 1.000000E1
Scans to average: 7
Electric dark correction enabled: true
Nonlinearity correction enabled: false
Boxcar width: 0
XAxis mode: Raman Shifts
Number of Pixels in Spectrum: 1044
>>>>>Begin Spectral Data<<<<<
46.04893	0.58929
50.45542	-1.26786
54.85868	0.44643
59.25871	-1.41071
63.6555	68.875
68.04907	74.44643
72.43941	75.875
76.82654	81.16071
81.21044	83.30357
85.59113	87.73214
89.96862	89.875
94.34289	85.58929
98.71396	96.30357
103.08183	96.01786
107.4465	100.58929
111.80798	94.73214
116.16626	98.875
120.52136	105.30357
124.87327	111.73214
129.222	109.16071
133.56755	117.875
137.90993	128.01786
142.24913	134.58929
146.58517	145.58929
150.91804	165.875
155.24774	190.875
159.57429	225.01786
163.89768	282.30357
168.21792	371.73214
172.53501	501.58929
176.84895	700.30357
181.15975	992.875
185.46741	1392.30357
189.77193	1937.58929
194.07331	2591.16071
198.37157	3387.30357
202.6667	4202.30357
206.9587	5008.16071
211.24758	5800.58929
215.53334	6581.44643
219.81599	7413.16071
224.09553	8274.16071
228.37195	9245.875
232.64527	10318.44643
236.91549	11453.58929
241.18261	12636.58929
245.44663	13835.73214
249.70755	14930.44643
253.96539	15972.73214
258.22014	16734.44643
262.4718	17363.01786
266.72039	17798.30357
270.96589	18022.01786
275.20832	18064.16071
279.44768	17905.16071
283.68397	17656.16071
287.91719	17413.01786
292.14735	17175.58929
296.37445	16992.16071
300.59849	16927.73214
304.81948	16917.01786
309.03742	16893.58929
313.25231	16812.01786
317.46415	16714.73214
321.67296	16601.875
325.87872	16506.30357
330.08145	16521.44643
334.28114	16592.16071
338.47781	16730.30357
342.67145	16955.01786
346.86207	17212.44643
351.04966	17477.73214
355.23424	17790.16071
359.4158	18030.875
363.59435	18268.44643
367.76989	18495.73214
371.94243	18692.875
376.11196	18839.58929
380.27849	18957.01786
384.44203	19112.58929
388.60257	19209.44643
392.76012	19401.875
396.91468	19537.44643
401.06626	19752.58929
405.21485	19935.16071
409.36047	19964.44643
413.50311	19866.58929
417.64277	19796.875
421.77947	19758.01786
425.9132	19833.44643
430.04396	19906.73214
434.17176	20081.01786
438.2966	20240.01786
442.41849	20357.30357
446.53742	20596.875
450.6534	20799.58929
454.76644	20966.01786
458.87653	21102.875
462.98368	21214.16071
467.08789	21257.16071
471.18916	21252.16071
475.2875	21154.73214
479.38291	21097.01786
483.4754	21050.58929
487.56496	20984.01786
491.6516	21054.875
495.73531	21032.44643
499.81612	21030.16071
503.89401	21119.58929
507.96899	21253.73214
512.04106	21313.58929
516.11023	21399.73214
520.1765	21452.44643
524.23987	21456.30357
528.30034	21458.44643
532.35792	21477.44643
536.41261	21406.01786
540.46441	21370.875
544.51333	21370.44643
548.55936	21446.16071
552.60252	21579.58929
556.64279	21721.30357
560.6802	21780.73214
564.71473	21859.73214
568.7464	21859.44643
572.7752	21870.73214
576.80114	21875.58929
580.82422	21941.73214
584.84444	22029.30357
588.86181	22144.16071
592.87633	22143.58929
596.888	22272.875
600.89682	22487.875
604.9028	23003.73214
608.90594	24055.875
612.90624	25409.01786
616.90371	25036.875
620.89834	23266.01786
624.89015	22379.16071
628.87913	22278.16071
632.86528	22376.16071
636.84862	22489.73214
640.82913	22569.16071
644.80683	22397.44643
648.78172	22288.58929
652.75379	22321.58929
656.72306	22475.01786
660.68952	22693.44643
664.65319	22730.01786
668.61405	22651.01786
672.57211	22710.58929
676.52738	22828.01786
680.47986	22886.73214
684.42955	22914.01786
688.37646	22901.58929
692.32058	22969.73214
696.26192	23053.30357
700.20048	23114.875
704.13626	23213.44643
708.06928	23191.875
711.99952	23095.16071
715.927	23041.44643
719.85171	23031.73214
723.77365	23029.44643
727.69284	23067.16071
731.60928	22986.30357
735.52295	22942.58929
739.43388	22969.30357
743.34206	22974.73214
747.24749	23084.30357
751.15017	23065.44643
755.05012	23113.73214
758.94733	23267.16071
762.8418	23571.58929
766.73354	24222.01786
770.62254	24902.73214
774.50882	25325.875
778.39237	25153.16071
782.27321	24554.44643
786.15132	23930.875
790.02671	23501.44643
793.89938	23281.01786
797.76935	23149.58929
801.6366	23097.44643
805.50115	23066.44643
809.36299	23015.58929
813.22213	23036.30357
817.07857	23067.58929
820.93231	23102.01786
824.78336	23131.44643
828.63172	23132.01786
832.47738	23176.58929
836.32036	23154.44643
840.16066	23169.30357
843.99827	23217.58929
847.8332	23237.73214
851.66546	23236.58929
855.49504	23296.73214
859.32195	23295.44643
863.1462	23344.73214
866.96777	23411.73214
870.78668	23446.16071
874.60293	23486.73214
878.41652	23508.01786
882.22745	23535.44643
886.03573	23566.58929
889.84136	23570.73214
893.64433	23570.44643
897.44466	23537.875
901.24235	23543.58929
905.0374	23536.58929
908.8298	23471.73214
912.61957	23420.44643
916.40671	23439.30357
920.19121	23482.58929
923.97308	23470.30357
927.75233	23508.44643
931.52895	23482.30357
935.30295	23455.58929
939.07433	23404.30357
942.84309	23287.875
946.60924	23248.16071
950.37278	23226.875
954.13371	23190.01786
957.89203	23087.58929
961.64774	23102.875
965.40086	23105.58929
969.15137	23071.16071
972.89929	23073.44643
976.64461	23099.01786
980.38733	23064.875
984.12747	23076.16071
987.86502	23110.875
991.59999	23193.16071
995.33237	23204.875
999.06217	23270.30357
1002.78939	23413.30357
1006.51404	23524.73214
1010.23611	23692.30357
1013.95561	23820.58929
1017.67255	23783.73214
1021.38692	23784.30357
1025.09872	23787.73214
1028.80796	23694.58929
1032.51465	23639.16071
1036.21877	23619.30357
1039.92035	23631.16071
1043.61937	23687.44643
1047.31584	23740.01786
1051.00976	23801.44643
1054.70114	23880.01786
1058.38998	23852.58929
1062.07627	23970.73214
1065.76003	24045.73214
1069.44126	24134.01786
1073.11995	24249.73214
1076.79611	24444.16071
1080.46974	24560.44643
1084.14085	24601.73214
1087.80943	24591.16071
1091.47549	24648.01786
1095.13903	24619.875
1098.80005	24619.73214
1102.45857	24521.73214
1106.11456	24443.30357
1109.76805	24336.875
1113.41903	24342.58929
1117.06751	24286.16071
1120.71348	24391.16071
1124.35696	24503.73214
1127.99793	24608.30357
1131.63641	24636.875
1135.2724	24569.30357
1138.90589	24487.875
1142.5369	24340.30357
1146.16542	24250.16071
1149.79145	24259.875
1153.415	24192.58929
1157.03607	24110.01786
1160.65467	24187.30357
1164.27079	24327.16071
1167.88443	24604.01786
1171.49561	24884.01786
1175.10432	25406.875
1178.71056	26046.875
1182.31434	26628.44643
1185.91565	27031.44643
1189.51451	27240.58929
1193.11091	27143.01786
1196.70485	26940.30357
1200.29634	26663.30357
1203.88538	26361.44643
1207.47197	25901.73214
1211.05612	25569.875
1214.63782	25296.01786
1218.21708	25104.58929
1221.79391	24937.73214
1225.36829	24805.73214
1228.94024	24876.44643
1232.50976	24872.01786
1236.07685	24880.30357
1239.6415	24919.58929
1243.20374	24994.58929
1246.76355	25041.58929
1250.32093	25143.58929
1253.8759	25270.73214
1257.42845	25400.58929
1260.97859	25595.16071
1264.52631	25823.16071
1268.07163	25987.44643
1271.61453	26079.73214
1275.15503	26175.30357
1278.69312	26222.44643
1282.22882	26300.58929
1285.76211	26318.01786
1289.29301	26487.875
1292.82151	26579.73214
1296.34761	26770.58929
1299.87133	27029.01786
1303.39266	27398.44643
1306.9116	27934.01786
1310.42815	28485.73214
1313.94233	28827.73214
1317.45412	28789.16071
1320.96354	28480.875
1324.47058	28139.30357
1327.97525	27720.44643
1331.47754	27500.875
1334.97747	27401.44643
1338.47502	27470.58929
1341.97022	27821.875
1345.46305	28268.73214
1348.95352	28813.16071
1352.44163	29332.16071
1355.92738	29740.58929
1359.41078	30302.16071
1362.89183	30779.875
1366.37053	30458.01786
1369.84688	29177.01786
1373.32088	27742.875
1376.79254	26699.73214
1380.26186	26053.44643
1383.72883	25687.30357
1387.19347	25351.01786
1390.65578	25057.16071
1394.11575	24788.875
1397.57339	24586.73214
1401.0287	24462.875
1404.48168	24390.875
1407.93234	24368.44643
1411.38068	24408.58929
1414.82669	24410.44643
1418.27039	24371.01786
1421.71177	24284.16071
1425.15083	24176.73214
1428.58758	24072.16071
1432.02203	24037.01786
1435.45416	24031.58929
1438.88399	24048.16071
1442.31151	24035.58929
1445.73673	24056.01786
1449.15965	24106.01786
1452.58027	24145.58929
1455.9986	24117.73214
1459.41463	24165.01786
1462.82837	24267.875
1466.23982	24502.73214
1469.64898	24733.16071
1473.05586	24903.58929
1476.46045	25068.16071
1479.86276	25205.875
1483.26279	25308.01786
1486.66054	25393.73214
1490.05602	25582.44643
1493.44922	25869.58929
1496.84016	26306.30357
1500.22882	26962.58929
1503.61521	27752.875
1506.99934	28628.58929
1510.38121	29054.44643
1513.76081	28962.16071
1517.13816	28323.875
1520.51324	27420.875
1523.88607	26630.01786
1527.25665	26085.30357
1530.62498	25804.01786
1533.99105	25684.875
1537.35488	25542.73214
1540.71647	25500.58929
1544.07581	25509.73214
1547.4329	25467.875
1550.78776	25403.16071
1554.14038	25343.875
1557.49077	25295.73214
1560.83892	25331.58929
1564.18484	25376.875
1567.52853	25562.01786
1570.86999	25653.30357
1574.20922	25726.01786
1577.54624	25750.01786
1580.88103	25544.44643
1584.2136	25231.875
1587.54395	25009.01786
1590.87208	25018.58929
1594.19801	25235.16071
1597.52172	25662.875
1600.84321	25928.44643
1604.16251	25831.16071
1607.47959	25673.875
1610.79447	25388.875
1614.10715	24884.01786
1617.41763	24458.875
1620.7259	24031.875
1624.03199	23717.73214
1627.33587	23589.875
1630.63757	23599.30357
1633.93707	23764.875
1637.23439	24047.30357
1640.52951	24596.875
1643.82246	25282.58929
1647.11321	26028.44643
1650.40179	26475.73214
1653.68819	26167.16071
1656.97241	25357.73214
1660.25446	24353.16071
1663.53433	23656.16071
1666.81203	23098.44643
1670.08756	22741.44643
1673.36092	22495.58929
1676.63211	22396.01786
1679.90115	22277.01786
1683.16801	22167.73214
1686.43272	22098.875
1689.69527	22065.875
1692.95567	22001.58929
1696.2139	21948.58929
1699.46999	21959.73214
1702.72392	21914.01786
1705.97571	21861.16071
1709.22535	21900.58929
1712.47284	21892.30357
1715.71819	21886.875
1718.96139	21855.01786
1722.20246	21804.01786
1725.44139	21758.73214
1728.67818	21738.30357
1731.91284	21684.73214
1735.14537	21628.30357
1738.37576	21580.73214
1741.60403	21501.875
1744.83017	21482.01786
1748.05418	21471.01786
1751.27607	21429.73214
1754.49584	21405.875
1757.71349	21441.44643
1760.92903	21402.44643
1764.14244	21396.44643
1767.35375	21407.875
1770.56294	21334.30357
1773.77002	21305.44643
1776.97499	21309.875
1780.17785	21273.73214
1783.37861	21248.73214
1786.57727	21206.01786
1789.77382	21137.16071
1792.96828	21137.58929
1796.16064	21090.58929
1799.3509	20984.73214
1802.53907	21001.30357
1805.72514	20994.30357
1808.90913	20928.30357
1812.09102	20925.44643
1815.27083	20848.44643
1818.44856	20851.01786
1821.6242	20892.73214
1824.79776	20780.01786
1827.96924	20777.01786
1831.13864	20727.875
1834.30597	20731.30357
1837.47122	20722.01786
1840.6344	20715.16071
1843.7955	20652.875
1846.95454	20674.01786
1850.11151	20672.73214
1853.26642	20658.44643
1856.41926	20588.30357
1859.57004	20581.73214
1862.71876	20538.16071
1865.86542	20563.875
1869.01003	20609.16071
1872.15258	20604.01786
1875.29308	20503.875
1878.43152	20448.73214
1881.56792	20444.30357
1884.70227	20445.44643
1887.83457	20429.30357
1890.96482	20423.16071
1894.09304	20343.16071
1897.21921	20364.73214
1900.34335	20270.44643
1903.46544	20307.73214
1906.58551	20271.73214
1909.70353	20268.44643
1912.81953	20231.16071
1915.93349	20164.16071
1919.04543	20159.01786
1922.15534	20137.01786
1925.26322	20096.875
1928.36908	20070.875
1931.47292	20053.16071
1934.57473	20002.30357
1937.67453	19931.44643
1940.77232	19932.58929
1943.86808	19858.16071
1946.96184	19791.58929
1950.05358	19761.875
1953.14331	19747.73214
1956.23103	19745.58929
1959.31675	19617.875
1962.40046	19610.73214
1965.48217	19471.73214
1968.56188	19464.16071
1971.63959	19388.16071
1974.7153	19373.01786
1977.78901	19298.73214
1980.86073	19250.01786
1983.93046	19166.875
1986.99819	19100.58929
1990.06394	19079.73214
1993.1277	19023.58929
1996.18947	18962.16071
1999.24925	18899.875
2002.30706	18831.16071
2005.36288	18780.16071
2008.41672	18723.58929
2011.46859	18696.16071
2014.51848	18635.16071
2017.56639	18622.01786
2020.61233	18577.30357
2023.6563	18498.875
2026.6983	18414.01786
2029.73833	18409.01786
2032.7764	18346.16071
2035.8125	18323.01786
2038.84664	18263.73214
2041.87881	18254.30357
2044.90903	18167.44643
2047.93729	18152.58929
2050.96359	18155.16071
2053.98794	18131.30357
2057.01034	18094.73214
2060.03078	18081.58929
2063.04927	18084.30357
2066.06582	18044.44643
2069.08042	18029.58929
2072.09307	18027.58929
2075.10378	18040.01786
2078.11255	18022.73214
2081.11938	18022.58929
2084.12426	18038.44643
2087.12722	18052.44643
2090.12824	18030.58929
2093.12732	18012.44643
2096.12447	18001.58929
2099.11969	17981.73214
2102.11299	18048.44643
2105.10435	18014.30357
2108.09379	18023.875
2111.08131	18039.875
2114.0669	18078.875
2117.05057	18076.30357
2120.03233	18065.875
2123.01216	18059.58929
2125.99008	18112.58929
2128.96609	18145.73214
2131.94018	18166.44643
2134.91236	18138.73214
2137.88263	18190.73214
2140.851	18217.44643
2143.81746	18191.16071
2146.78201	18190.73214
2149.74466	18215.875
2152.7054	18205.58929
2155.66425	18215.44643
2158.6212	18207.01786
2161.57625	18141.16071
2164.52941	18176.01786
2167.48067	18177.58929
2170.43004	18178.30357
2173.37752	18166.01786
2176.32311	18181.30357
2179.26681	18138.875
2182.20863	18135.01786
2185.14856	18142.30357
2188.08661	18128.16071
2191.02278	18168.30357
2193.95707	18136.01786
2196.88948	18061.44643
2199.82001	18110.44643
2202.74867	18071.01786
2205.67545	18068.30357
2208.60037	18034.01786
2211.52341	18003.16071
2214.44458	17962.44643
2217.36388	17921.875
2220.28132	17905.01786
2223.1969	17860.44643
2226.11061	17795.73214
2229.02246	17766.875
2231.93245	17760.01786
2234.84058	17683.01786
2237.74686	17631.16071
2240.65128	17660.875
2243.55385	17631.73214
2246.45456	17657.30357
2249.35343	17649.58929
2252.25044	17608.16071
2255.14561	17589.30357
2258.03893	17524.44643
2260.93041	17540.875
2263.82004	17519.30357
2266.70783	17404.875
2269.59378	17359.73214
2272.4779	17365.73214
2275.36017	17337.01786
2278.24061	17274.58929
2281.11922	17269.875
2283.996	17234.30357
2286.87094	17231.875
2289.74405	17184.30357
2292.61534	17174.30357
2295.4848	17149.44643
2298.35243	17131.73214
2301.21824	17105.44643
2304.08223	17093.44643
2306.94439	17098.30357
2309.80474	17029.01786
2312.66327	17056.875
2315.51999	17038.73214
2318.37489	17046.16071
2321.22797	16979.875
2324.07925	16940.44643
2326.92871	16930.30357
2329.77637	16887.73214
2332.62222	16864.44643
2335.46626	16851.73214
2338.3085	16828.73214
2341.14893	16769.875
2343.98756	16737.01786
2346.8244	16694.44643
2349.65943	16687.44643
2352.49267	16664.01786
2355.32411	16648.875
2358.15376	16686.01786
2360.98161	16647.875
2363.80768	16619.58929
2366.63195	16651.16071
2369.45444	16587.875
2372.27514	16592.30357
2375.09405	16550.875
2377.91118	16501.73214
2380.72652	16517.875
2383.54009	16480.58929
2386.35187	16448.875
2389.16188	16381.16071
2391.97011	16363.16071
2394.77657	16389.875
2397.58125	16292.875
2400.38416	16332.30357
2403.18529	16349.30357
2405.98466	16284.875
2408.78226	16232.73214
2411.57809	16195.73214
2414.37216	16184.58929
2417.16446	16155.875
2419.955	16135.58929
2422.74378	16184.73214
2425.5308	16130.44643
2428.31606	16089.875
2431.09956	16073.01786
2433.88131	16038.73214
2436.6613	16082.16071
2439.43954	16022.01786
2442.21603	16010.30357
2444.99077	15992.16071
2447.76377	16007.73214
2450.53501	15969.16071
2453.30451	15961.30357
2456.07226	15931.16071
2458.83827	15913.58929
2461.60254	15882.73214
2464.36507	15860.875
2467.12586	15847.58929
2469.88492	15781.875
2472.64224	15786.58929
2475.39782	15813.30357
2478.15167	15792.30357
2480.90379	15764.01786
2483.65417	15810.01786
2486.40283	15786.58929
2489.14976	15762.16071
2491.89497	15742.44643
2494.63845	15752.73214
2497.3802	15732.875
2500.12024	15729.16071
2502.85855	15696.44643
2505.59514	15689.73214
2508.33002	15638.44643
2511.06318	15592.58929
2513.79462	15591.58929
2516.52435	15579.58929
2519.25237	15548.58929
2521.97867	15524.01786
2524.70327	15517.30357
2527.42616	15522.58929
2530.14734	15464.875
2532.86681	15411.44643
2535.58458	15421.01786
2538.30065	15394.01786
2541.01501	15388.30357
2543.72768	15350.16071
2546.43864	15323.16071
2549.14791	15308.16071
2551.85548	15289.875
2554.56136	15238.44643
2557.26554	15208.58929
2559.96803	15217.16071
2562.66883	15145.30357
2565.36794	15133.875
2568.06536	15088.01786
2570.7611	15052.875
2573.45514	15051.73214
2576.14751	15019.30357
2578.83819	14960.58929
2581.52719	14958.16071
2584.21451	14935.30357
2586.90015	14895.73214
2589.58411	14823.30357
2592.2664	14824.44643
2594.94701	14825.16071
2597.62594	14805.44643
2600.30321	14733.01786
2602.9788	14708.16071
2605.65273	14684.44643
2608.32498	14701.73214
2610.99557	14675.44643
2613.66449	14632.16071
2616.33175	14634.73214
2618.99734	14605.875
2621.66128	14610.30357
2624.32355	14536.875
2626.98416	14523.01786
2629.64311	14461.16071
2632.30041	14480.44643
2634.95605	14443.875
2637.61004	14422.875
2640.26238	14387.44643
2642.91306	14388.44643
2645.56209	14415.16071
2648.20948	14410.73214
2650.85521	14358.30357
2653.4993	14376.875
2656.14175	14336.58929
2658.78255	14350.875
2661.42171	14290.58929
2664.05923	14337.01786
2666.6951	14353.01786
2669.32934	14331.73214
2671.96194	14319.44643
2674.59291	14335.30357
2677.22224	14282.58929
2679.84993	14328.30357
2682.476	14306.01786
2685.10043	14306.16071
2687.72324	14272.01786
2690.34441	14254.30357
2692.96396	14260.16071
2695.58188	14294.01786
2698.19818	14216.58929
2700.81285	14216.30357
2703.4259	14247.875
2706.03733	14210.875
2708.64714	14205.73214
2711.25533	14257.01786
2713.86191	14260.44643
2716.46687	14262.58929
2719.07021	14267.30357
2721.67194	14241.44643
2724.27206	14267.58929
2726.87057	14259.30357
2729.46747	14261.30357
2732.06276	14227.01786
2734.65644	14227.30357
2737.24852	14193.30357
2739.83899	14166.73214
2742.42786	14165.44643
2745.01513	14115.01786
2747.60079	14127.01786
2750.18486	14095.01786
2752.76733	14070.44643
2755.3482	14057.30357
2757.92747	14025.875
2760.50515	14042.73214
2763.08123	14024.58929
2765.65573	13989.73214
2768.22863	13983.875
2770.79994	13932.73214
2773.36967	13905.73214
2775.9378	13900.58929
2778.50435	13875.73214
2781.06932	13873.73214
2783.6327	13853.58929
2786.1945	13777.44643
2788.75471	13781.16071
2791.31335	13770.30357
2793.87041	13742.73214
2796.42589	13681.01786
2798.97979	13688.58929
2801.53212	13639.875
2804.08288	13602.30357
2806.63206	13601.875
2809.17967	13578.01786
2811.72571	13544.875
2814.27018	13527.44643
2816.81308	13466.875
2819.35442	13410.01786
2821.89419	13351.16071
2824.43239	13345.30357
2826.96904	13364.73214
2829.50412	13364.30357
2832.03763	13307.30357
2834.56959	13298.01786
2837.1	13302.44643
2839.62884	13269.44643
2842.15613	13245.16071
2844.68186	13248.73214
2847.20604	13195.01786
2849.72867	13247.73214
2852.24974	13176.73214
2854.76927	13176.58929
2857.28724	13166.73214
2859.80367	13171.73214
2862.31855	13133.73214
2864.83189	13102.44643
2867.34368	13096.58929
2869.85393	13065.44643
2872.36264	13057.875
2874.8698	13059.73214
2877.37543	13028.01786
2879.87952	13014.58929
2882.38207	12999.16071
2884.88308	12989.30357
2887.38256	12996.16071
2889.88051	12996.73214
2892.37692	12989.16071
2894.8718	12995.44643
2897.36515	12986.875
2899.85698	12997.875
2902.34727	13037.875
2904.83604	13000.44643
2907.32328	13000.16071
2909.809	12965.58929
2912.29319	13016.44643
2914.77587	13005.16071
2917.25702	12979.16071
2919.73665	12991.16071
2922.21476	12978.58929
2924.69136	12972.73214
2927.16644	12988.73214
2929.64	12957.01786
2932.11205	12942.01786
2934.58258	12899.01786
2937.05161	12925.58929
2939.51912	12940.01786
2941.98513	12924.44643
2944.44962	12946.01786
2946.91261	12890.44643
2949.37409	12875.16071
2951.83407	12909.30357
2954.29254	12901.30357
2956.74951	12857.01786
2959.20498	12877.58929
2961.65895	12809.875
2964.11142	12797.44643
2966.56239	12787.73214
2969.01186	12808.16071
2971.45984	12767.58929
2973.90632	12813.30357
2976.35131	12752.73214
2978.7948	12705.73214
2981.23681	12714.73214
2983.67732	12696.58929
2986.11635	12665.30357
2988.55388	12666.73214
2990.98993	12645.58929
2993.4245	12605.30357
2995.85758	12593.875
2998.28917	12553.44643
3000.71928	12542.30357
3003.14791	12527.73214
3005.57506	12502.44643
3008.00073	12490.16071
3010.42493	12459.16071
3012.84764	12436.73214
3015.26888	12432.73214
3017.68865	12403.44643
3020.10694	12403.73214
3022.52376	12386.16071
3024.9391	12346.16071
3027.35298	12342.30357
3029.76539	12327.58929
3032.17632	12317.58929
3034.5858	12304.01786
3036.9938	12316.875
3039.40034	12267.58929
3041.80542	12269.30357
3044.20903	12214.73214
3046.61118	12246.875
3049.01187	12218.875
3051.4111	12189.01786
3053.80888	12169.875
3056.20519	12166.875
3058.60005	12088.875
3060.99345	12109.44643
3063.3854	12065.01786
3065.7759	12055.16071
3068.16494	12035.58929
3070.55254	11977.30357
3072.93868	11991.44643
3075.32338	11952.16071
3077.70662	11946.01786
3080.08842	11968.73214
3082.46878	11870.01786
3084.84769	11860.44643
3087.22515	11894.16071
3089.60118	11903.44643
3091.97576	11873.44643
3094.3489	11890.58929
3096.72061	11913.30357
3099.09087	11895.58929
3101.4597	11873.01786
3103.82709	11878.875
3106.19305	11888.01786
3108.55757	11893.01786
3110.92066	11852.01786
3113.28232	11827.44643
3115.64255	11804.01786
3118.00134	11811.73214
3120.35871	11776.58929
3122.71466	11746.58929
3125.06917	11723.30357
3127.42226	11686.875
3129.77393	11698.875
3132.12417	11728.30357
3134.47299	11683.73214
3136.82039	11663.30357
3139.16636	11683.01786
3141.51092	11653.73214
3143.85406	11688.44643
3146.19579	11683.58929
3148.53609	11706.73214
3150.87499	11696.01786
3153.21246	11722.875
3155.54853	11759.01786
3157.88318	11718.875
3160.21642	11738.44643
3162.54826	11782.44643
3164.87868	11746.58929
3167.2077	11738.16071
3169.5353	11748.44643
3171.86151	11740.875
3174.18631	11749.58929
3176.5097	11735.44643
3178.83169	11717.16071
3181.15228	11708.73214
3183.47147	11691.58929
3185.78926	11649.875
3188.10565	11678.73214
3190.42065	11685.44643
3192.73424	11662.01786
3195.04645	11653.16071
3197.35725	11622.875
3199.66667	11616.44643
3201.97469	11632.30357
3204.28132	11585.01786
3206.58656	11628.01786
3208.8904	11648.875
3211.19287	11648.30357
3213.49394	11643.16071
3215.79363	11642.875
3218.09193	11663.30357
3220.38884	11670.30357
3222.68438	11682.16071
3224.97853	11679.44643
3227.2713	11640.44643
3229.56269	11623.30357
3231.8527	11641.01786
3234.14133	11569.01786
3236.42858	11543.01786
3238.71446	11558.16071
3240.99896	11511.44643
3243.28209	11487.44643
3245.56384	11501.30357
3247.84423	11516.01786
3250.12324	11463.58929
3252.40088	11489.44643
3254.67715	11469.30357
3256.95205	11464.30357
3259.22558	11470.73214
3261.49775	11465.58929
3263.76855	11427.01786
3266.03799	11397.73214
3268.30606	11394.875
3270.57277	11401.44643
3272.83812	11357.73214
3275.10211	11315.58929
3277.36474	11325.58929
3279.62601	11302.44643
3281.88593	11269.01786
3284.14448	11292.875
3286.40168	11288.875
3288.65753	11232.01786
3290.91202	11232.16071
3293.16516	11196.58929
3295.41695	11204.01786
3297.66738	11124.58929
3299.91647	11084.16071
3302.16421	11024.73214
3304.4106	10973.16071
3306.65564	10896.01786
3308.89933	10804.01786
3311.14169	10728.44643
3313.38269	10663.875
3315.62236	10606.16071
3317.86068	10514.30357
3320.09766	10442.30357
3322.3333	10382.30357
3324.5676	10356.44643
3326.80056	10166.44643
3329.03219	10108.16071
3331.26248	2.01786
3333.49143	-1.55357
3335.71905	0.01786
