Data from AgNPs_FTO_APTES_UA_20uM_CRN_200uM_R6G_10uM_NaF_0.1M_Addition_RamanShift__20__18-15-44-932.txt Node

Date: Thu Feb 17 18:15:44 GMT 2022
User: TCL
Spectrometer: QEP01345
Trigger mode: 4
Integration Time (sec): 1.000000E1
Scans to average: 7
Electric dark correction enabled: true
Nonlinearity correction enabled: false
Boxcar width: 0
XAxis mode: Raman Shifts
Number of Pixels in Spectrum: 1044
>>>>>Begin Spectral Data<<<<<
46.04893	-0.14286
50.45542	-1.14286
54.85868	-1.14286
59.25871	-2.14286
63.6555	83
68.04907	84.14286
72.43941	86.85714
76.82654	94.42857
81.21044	95.42857
85.59113	97.14286
89.96862	100
94.34289	101.42857
98.71396	111.85714
103.08183	107.42857
107.4465	113.71429
111.80798	115.71429
116.16626	118.71429
120.52136	122.71429
124.87327	128.28571
129.222	131.85714
133.56755	135.85714
137.90993	151
142.24913	158.28571
146.58517	181
150.91804	208.42857
155.24774	248
159.57429	309
163.89768	388.28571
168.21792	513.14286
172.53501	699.57143
176.84895	976.42857
181.15975	1385.85714
185.46741	1950.85714
189.77193	2702.85714
194.07331	3622.85714
198.37157	4728.57143
202.6667	5868.28571
206.9587	7015.57143
211.24758	8145.85714
215.53334	9242.28571
219.81599	10405
224.09553	11693
228.37195	13087.42857
232.64527	14679.57143
236.91549	16365
241.18261	18007.14286
245.44663	19592.42857
249.70755	21023.14286
253.96539	22257.42857
258.22014	23287
262.4718	24153.85714
266.72039	24735.85714
270.96589	24969.57143
275.20832	25051.71429
279.44768	24816.71429
283.68397	24467.28571
287.91719	24141.71429
292.14735	23924
296.37445	23815.42857
300.59849	23890.85714
304.81948	24094.71429
309.03742	24170
313.25231	24013.28571
317.46415	23710.14286
321.67296	23224.71429
325.87872	22780
330.08145	22665
334.28114	22713.71429
338.47781	22950.42857
342.67145	23231.85714
346.86207	23660.28571
351.04966	24187.28571
355.23424	24796.85714
359.4158	25338.57143
363.59435	25752.57143
367.76989	26027.71429
371.94243	26242.71429
376.11196	26418.85714
380.27849	26600.42857
384.44203	26746.28571
388.60257	26776.57143
392.76012	26862.42857
396.91468	27045.85714
401.06626	27351.85714
405.21485	27643.57143
409.36047	27595.42857
413.50311	27307.14286
417.64277	26935.14286
421.77947	26791.14286
425.9132	26752.28571
430.04396	26818.71429
434.17176	27042.28571
438.2966	27282.85714
442.41849	27762.14286
446.53742	28280
450.6534	28858.85714
454.76644	29347.71429
458.87653	29503.14286
462.98368	29483.14286
467.08789	29179.71429
471.18916	28869
475.2875	28497.71429
479.38291	28261.42857
483.4754	28023.28571
487.56496	27866.57143
491.6516	27745.71429
495.73531	27687.14286
499.81612	27679.71429
503.89401	27820.28571
507.96899	27954.42857
512.04106	28087.42857
516.11023	28158.28571
520.1765	28233.57143
524.23987	28251.85714
528.30034	28198.42857
532.35792	28096.57143
536.41261	27988.57143
540.46441	27786.14286
544.51333	27628.14286
548.55936	27735
552.60252	27945.57143
556.64279	28187.42857
560.6802	28400
564.71473	28422.57143
568.7464	28591.85714
572.7752	28847.14286
576.80114	28910.71429
580.82422	28813.85714
584.84444	28991.42857
588.86181	29386.28571
592.87633	29872.71429
596.888	30228.71429
600.89682	30404.14286
604.9028	31298.57143
608.90594	33935.14286
612.90624	37155.28571
616.90371	36116
620.89834	31296
624.89015	29088.57143
628.87913	28765.28571
632.86528	28816
636.84862	28823.28571
640.82913	28659.71429
644.80683	28204.85714
648.78172	27870.28571
652.75379	27880
656.72306	28183.14286
660.68952	28570.71429
664.65319	28566.42857
668.61405	28274.57143
672.57211	28219.42857
676.52738	28392.57143
680.47986	28465.85714
684.42955	28401.14286
688.37646	28272.71429
692.32058	28205.28571
696.26192	28271.57143
700.20048	28471.71429
704.13626	28564
708.06928	28477.14286
711.99952	28296.71429
715.927	28150.42857
719.85171	28220.71429
723.77365	28195.14286
727.69284	28174.85714
731.60928	28078
735.52295	28052.42857
739.43388	28114.28571
743.34206	28161.71429
747.24749	28189.85714
751.15017	28300.57143
755.05012	28413.28571
758.94733	28760.71429
762.8418	29664.57143
766.73354	31248.85714
770.62254	33042
774.50882	33947.85714
778.39237	33345.14286
782.27321	31520
786.15132	29712
790.02671	28609.57143
793.89938	28077.14286
797.76935	27851.85714
801.6366	27843.85714
805.50115	27787.28571
809.36299	27636.57143
813.22213	27569.85714
817.07857	27504
820.93231	27479.42857
824.78336	27428.57143
828.63172	27428.28571
832.47738	27453.28571
836.32036	27528
840.16066	27595
843.99827	27637.57143
847.8332	27656.57143
851.66546	27619.57143
855.49504	27650.28571
859.32195	27741.28571
863.1462	27711.85714
866.96777	27716.57143
870.78668	27670.28571
874.60293	27706.42857
878.41652	27714.57143
882.22745	27755.85714
886.03573	27787.57143
889.84136	27756.14286
893.64433	27653.71429
897.44466	27553.71429
901.24235	27505
905.0374	27350.28571
908.8298	27200.85714
912.61957	27153.85714
916.40671	27313.71429
920.19121	27408.85714
923.97308	27619
927.75233	27691.42857
931.52895	27783.57143
935.30295	27708.71429
939.07433	27443.28571
942.84309	27147.57143
946.60924	27031.28571
950.37278	26954.28571
954.13371	26807
957.89203	26662.71429
961.64774	26610.71429
965.40086	26525.14286
969.15137	26483.14286
972.89929	26435.57143
976.64461	26405
980.38733	26431.14286
984.12747	26504.28571
987.86502	26649.42857
991.59999	26910.14286
995.33237	27205.42857
999.06217	27631.28571
1002.78939	28131.28571
1006.51404	28410.42857
1010.23611	28608.71429
1013.95561	28764.42857
1017.67255	28830.42857
1021.38692	28675.14286
1025.09872	28551.42857
1028.80796	28702.71429
1032.51465	29113.28571
1036.21877	29491.71429
1039.92035	29581.57143
1043.61937	29330.71429
1047.31584	28970.28571
1051.00976	28483.28571
1054.70114	28229.14286
1058.38998	28134.57143
1062.07627	28141.85714
1065.76003	28145.42857
1069.44126	28190.85714
1073.11995	28233
1076.79611	28398.71429
1080.46974	28529.71429
1084.14085	28786.85714
1087.80943	28974.71429
1091.47549	29082.14286
1095.13903	28972.28571
1098.80005	28692
1102.45857	28441.42857
1106.11456	28381.57143
1109.76805	28474.85714
1113.41903	28648.71429
1117.06751	28912.42857
1120.71348	29210.57143
1124.35696	29477
1127.99793	29765
1131.63641	29887.14286
1135.2724	29589.85714
1138.90589	29191.85714
1142.5369	28950.14286
1146.16542	28727.14286
1149.79145	28528.71429
1153.415	28480.42857
1157.03607	28593.14286
1160.65467	28906.14286
1164.27079	29422
1167.88443	30185.14286
1171.49561	31315.42857
1175.10432	32788
1178.71056	34806.71429
1182.31434	36759
1185.91565	37743.28571
1189.51451	37547.14286
1193.11091	36451.85714
1196.70485	35065.42857
1200.29634	33922.85714
1203.88538	33048.71429
1207.47197	32286.57143
1211.05612	31559.57143
1214.63782	31092.71429
1218.21708	30987.42857
1221.79391	31003
1225.36829	31167.71429
1228.94024	31092.71429
1232.50976	30739.28571
1236.07685	30393.28571
1239.6415	30307.85714
1243.20374	30332.71429
1246.76355	30467
1250.32093	30701
1253.8759	31086.14286
1257.42845	31623.85714
1260.97859	32068.42857
1264.52631	32515
1268.07163	33001.42857
1271.61453	33575.57143
1275.15503	34239.71429
1278.69312	34801
1282.22882	35256.14286
1285.76211	35625.71429
1289.29301	36063.57143
1292.82151	36636
1296.34761	37520.71429
1299.87133	38693.71429
1303.39266	40461
1306.9116	42630.28571
1310.42815	45068.14286
1313.94233	46438.71429
1317.45412	46060.28571
1320.96354	44501.71429
1324.47058	42775.42857
1327.97525	41243.14286
1331.47754	40211.57143
1334.97747	39791
1338.47502	39882.57143
1341.97022	40218.42857
1345.46305	40771.42857
1348.95352	41419
1352.44163	42345
1355.92738	44055.57143
1359.41078	46520.71429
1362.89183	48764.42857
1366.37053	47926.57143
1369.84688	43866.28571
1373.32088	39402.28571
1376.79254	36437.85714
1380.26186	34963.42857
1383.72883	34243.14286
1387.19347	33776.28571
1390.65578	33231.42857
1394.11575	32827.57143
1397.57339	32816.14286
1401.0287	33065.28571
1404.48168	33434
1407.93234	33688.71429
1411.38068	33829.42857
1414.82669	33874.85714
1418.27039	33564.14286
1421.71177	33073.57143
1425.15083	32487.14286
1428.58758	32160.42857
1432.02203	32159.85714
1435.45416	32357.57143
1438.88399	32722.85714
1442.31151	32839.85714
1445.73673	33039.57143
1449.15965	33175.71429
1452.58027	33161.85714
1455.9986	33063.71429
1459.41463	33085.28571
1462.82837	33260.28571
1466.23982	33720.71429
1469.64898	34277.57143
1473.05586	34705.42857
1476.46045	35052.85714
1479.86276	35263.14286
1483.26279	35297.57143
1486.66054	35366.57143
1490.05602	35625.57143
1493.44922	35980.57143
1496.84016	36394.71429
1500.22882	37208.85714
1503.61521	38582.14286
1506.99934	40290.85714
1510.38121	41762
1513.76081	42088.14286
1517.13816	40888.42857
1520.51324	38649
1523.88607	36706.57143
1527.25665	35341.85714
1530.62498	34694.28571
1533.99105	34315.57143
1537.35488	34177
1540.71647	34034.71429
1544.07581	33923.71429
1547.4329	33748.71429
1550.78776	33649
1554.14038	33452.42857
1557.49077	33418.85714
1560.83892	33450.14286
1564.18484	33526.42857
1567.52853	33643.28571
1570.86999	33841.71429
1574.20922	34040.85714
1577.54624	34023.71429
1580.88103	33646.71429
1584.2136	33146.57143
1587.54395	33164.71429
1590.87208	33861.85714
1594.19801	35330.28571
1597.52172	37083.28571
1600.84321	38123.85714
1604.16251	37575.57143
1607.47959	36026.14286
1610.79447	34037.85714
1614.10715	32291.57143
1617.41763	30864.28571
1620.7259	29808.42857
1624.03199	29266.14286
1627.33587	29153.42857
1630.63757	29496.71429
1633.93707	30330.14286
1637.23439	31764.71429
1640.52951	33627.42857
1643.82246	35938.28571
1647.11321	37943.28571
1650.40179	38706.14286
1653.68819	37353.28571
1656.97241	34232.57143
1660.25446	31160.57143
1663.53433	29004.71429
1666.81203	27630.85714
1670.08756	26745
1673.36092	26198.71429
1676.63211	25815
1679.90115	25530.71429
1683.16801	25293
1686.43272	25160.14286
1689.69527	24989.85714
1692.95567	24891.57143
1696.2139	24738.71429
1699.46999	24783.14286
1702.72392	24713.71429
1705.97571	24723.57143
1709.22535	24679.85714
1712.47284	24657.57143
1715.71819	24697
1718.96139	24562.71429
1722.20246	24544.42857
1725.44139	24452.42857
1728.67818	24407.28571
1731.91284	24355.85714
1735.14537	24246.71429
1738.37576	24231.57143
1741.60403	24141
1744.83017	24090.28571
1748.05418	24091.28571
1751.27607	24095.85714
1754.49584	24005.85714
1757.71349	24011.42857
1760.92903	24031.57143
1764.14244	23964.71429
1767.35375	23941.57143
1770.56294	23836
1773.77002	23801.14286
1776.97499	23768
1780.17785	23719
1783.37861	23705.71429
1786.57727	23657.57143
1789.77382	23651.42857
1792.96828	23577
1796.16064	23522.57143
1799.3509	23524.57143
1802.53907	23478.14286
1805.72514	23395.42857
1808.90913	23398
1812.09102	23323.28571
1815.27083	23285
1818.44856	23269.85714
1821.6242	23224
1824.79776	23226.71429
1827.96924	23193.14286
1831.13864	23172
1834.30597	23193.71429
1837.47122	23125.71429
1840.6344	23130
1843.7955	23142.71429
1846.95454	23130.57143
1850.11151	23100
1853.26642	23033.57143
1856.41926	23087.85714
1859.57004	23082.14286
1862.71876	23061
1865.86542	23075.71429
1869.01003	23084
1872.15258	23011.57143
1875.29308	23007.85714
1878.43152	23021.71429
1881.56792	22972.71429
1884.70227	23000.85714
1887.83457	22984.57143
1890.96482	22902.14286
1894.09304	22860.85714
1897.21921	22885.85714
1900.34335	22830.57143
1903.46544	22823.42857
1906.58551	22811.14286
1909.70353	22767
1912.81953	22715.71429
1915.93349	22722.57143
1919.04543	22708.85714
1922.15534	22644
1925.26322	22608.28571
1928.36908	22603.71429
1931.47292	22597.42857
1934.57473	22578.42857
1937.67453	22494.85714
1940.77232	22459
1943.86808	22377
1946.96184	22308.42857
1950.05358	22236
1953.14331	22204.42857
1956.23103	22155.42857
1959.31675	22143.71429
1962.40046	22040.42857
1965.48217	21943
1968.56188	21976.14286
1971.63959	21894.57143
1974.7153	21823
1977.78901	21802.85714
1980.86073	21670.57143
1983.93046	21633
1986.99819	21602.42857
1990.06394	21508.14286
1993.1277	21430.57143
1996.18947	21364.71429
1999.24925	21295.71429
2002.30706	21245.85714
2005.36288	21165.85714
2008.41672	21144.57143
2011.46859	21086.85714
2014.51848	21028.71429
2017.56639	20969.71429
2020.61233	20880.28571
2023.6563	20898.71429
2026.6983	20863
2029.73833	20786.42857
2032.7764	20775.71429
2035.8125	20683.57143
2038.84664	20676.71429
2041.87881	20681.42857
2044.90903	20619.71429
2047.93729	20603.85714
2050.96359	20594.71429
2053.98794	20564.28571
2057.01034	20530.57143
2060.03078	20563.28571
2063.04927	20504.85714
2066.06582	20500.57143
2069.08042	20479.14286
2072.09307	20452.28571
2075.10378	20449
2078.11255	20460.57143
2081.11938	20442.85714
2084.12426	20460.14286
2087.12722	20447
2090.12824	20435
2093.12732	20419
2096.12447	20437.57143
2099.11969	20407.85714
2102.11299	20444.28571
2105.10435	20440.57143
2108.09379	20426.85714
2111.08131	20513.57143
2114.0669	20484.57143
2117.05057	20532.57143
2120.03233	20577.42857
2123.01216	20569.14286
2125.99008	20596.42857
2128.96609	20609.42857
2131.94018	20633.28571
2134.91236	20644
2137.88263	20639.85714
2140.851	20637
2143.81746	20639.42857
2146.78201	20672
2149.74466	20702
2152.7054	20674.85714
2155.66425	20691.57143
2158.6212	20638
2161.57625	20665
2164.52941	20661
2167.48067	20647
2170.43004	20628.57143
2173.37752	20649
2176.32311	20650.14286
2179.26681	20651.57143
2182.20863	20610.57143
2185.14856	20659.14286
2188.08661	20639.57143
2191.02278	20692.42857
2193.95707	20673.14286
2196.88948	20648.85714
2199.82001	20676.14286
2202.74867	20642.14286
2205.67545	20621.57143
2208.60037	20605
2211.52341	20577.57143
2214.44458	20516.71429
2217.36388	20506
2220.28132	20497.85714
2223.1969	20447.85714
2226.11061	20447.71429
2229.02246	20388.71429
2231.93245	20337.71429
2234.84058	20251.57143
2237.74686	20229.71429
2240.65128	20273.57143
2243.55385	20271.42857
2246.45456	20194.14286
2249.35343	20144.14286
2252.25044	20162.85714
2255.14561	20159.85714
2258.03893	20151.85714
2260.93041	20115.14286
2263.82004	20085.57143
2266.70783	19964.28571
2269.59378	19961
2272.4779	19884.42857
2275.36017	19883
2278.24061	19850.57143
2281.11922	19834.57143
2283.996	19787.28571
2286.87094	19796.42857
2289.74405	19769.85714
2292.61534	19723.28571
2295.4848	19731
2298.35243	19728.14286
2301.21824	19719.57143
2304.08223	19740
2306.94439	19718
2309.80474	19667.71429
2312.66327	19687.14286
2315.51999	19680.28571
2318.37489	19691.14286
2321.22797	19603.85714
2324.07925	19651.28571
2326.92871	19619.14286
2329.77637	19544.42857
2332.62222	19538.28571
2335.46626	19487
2338.3085	19513.14286
2341.14893	19523
2343.98756	19536.42857
2346.8244	19524.28571
2349.65943	19505
2352.49267	19472
2355.32411	19482.42857
2358.15376	19473.71429
2360.98161	19481.42857
2363.80768	19441.14286
2366.63195	19431.42857
2369.45444	19400.42857
2372.27514	19334.71429
2375.09405	19311.28571
2377.91118	19276.85714
2380.72652	19260
2383.54009	19188
2386.35187	19150.85714
2389.16188	19106.14286
2391.97011	19131.28571
2394.77657	19100.85714
2397.58125	19072.28571
2400.38416	19016.28571
2403.18529	19036.57143
2405.98466	18994.14286
2408.78226	18928.57143
2411.57809	18897.42857
2414.37216	18871.42857
2417.16446	18853.14286
2419.955	18854.28571
2422.74378	18820
2425.5308	18814.85714
2428.31606	18798.71429
2431.09956	18803.85714
2433.88131	18773
2436.6613	18765.42857
2439.43954	18751.14286
2442.21603	18782
2444.99077	18719
2447.76377	18723.28571
2450.53501	18705.57143
2453.30451	18668.28571
2456.07226	18690.28571
2458.83827	18640.28571
2461.60254	18624.42857
2464.36507	18652.14286
2467.12586	18585.85714
2469.88492	18614
2472.64224	18572.14286
2475.39782	18603.85714
2478.15167	18602.71429
2480.90379	18611.85714
2483.65417	18659.85714
2486.40283	18642.57143
2489.14976	18645
2491.89497	18646.42857
2494.63845	18655.28571
2497.3802	18585.42857
2500.12024	18606.14286
2502.85855	18580
2505.59514	18548.28571
2508.33002	18516.85714
2511.06318	18479.42857
2513.79462	18486.85714
2516.52435	18482
2519.25237	18447.71429
2521.97867	18380.42857
2524.70327	18385
2527.42616	18373.71429
2530.14734	18375.71429
2532.86681	18376.14286
2535.58458	18344.14286
2538.30065	18314.71429
2541.01501	18316.85714
2543.72768	18293.57143
2546.43864	18294.57143
2549.14791	18271.85714
2551.85548	18243.57143
2554.56136	18238.71429
2557.26554	18191.14286
2559.96803	18149.42857
2562.66883	18158.85714
2565.36794	18108.42857
2568.06536	18100.14286
2570.7611	18062.42857
2573.45514	18039
2576.14751	17990.57143
2578.83819	17964.42857
2581.52719	17996
2584.21451	17965.42857
2586.90015	17953.85714
2589.58411	17946.71429
2592.2664	17926.57143
2594.94701	17876.28571
2597.62594	17899.85714
2600.30321	17836.42857
2602.9788	17805.42857
2605.65273	17764.14286
2608.32498	17786.42857
2610.99557	17817
2613.66449	17765.57143
2616.33175	17773.14286
2618.99734	17739
2621.66128	17741.85714
2624.32355	17736
2626.98416	17687.85714
2629.64311	17721.57143
2632.30041	17708.14286
2634.95605	17648.28571
2637.61004	17623.85714
2640.26238	17617.42857
2642.91306	17581.42857
2645.56209	17616.42857
2648.20948	17586.57143
2650.85521	17573.71429
2653.4993	17564.57143
2656.14175	17565.57143
2658.78255	17600.71429
2661.42171	17566.42857
2664.05923	17565.57143
2666.6951	17568.28571
2669.32934	17630.71429
2671.96194	17635.42857
2674.59291	17586.57143
2677.22224	17589
2679.84993	17578.71429
2682.476	17538
2685.10043	17556.85714
2687.72324	17517.42857
2690.34441	17536.85714
2692.96396	17514.42857
2695.58188	17534.85714
2698.19818	17548.42857
2700.81285	17546.28571
2703.4259	17556.57143
2706.03733	17557.57143
2708.64714	17558.71429
2711.25533	17562.14286
2713.86191	17550
2716.46687	17614.71429
2719.07021	17573.42857
2721.67194	17616.28571
2724.27206	17546.42857
2726.87057	17564
2729.46747	17583
2732.06276	17513.28571
2734.65644	17550
2737.24852	17557
2739.83899	17544.71429
2742.42786	17559.42857
2745.01513	17503.42857
2747.60079	17460.71429
2750.18486	17449.42857
2752.76733	17448.42857
2755.3482	17471
2757.92747	17505.14286
2760.50515	17466
2763.08123	17424.28571
2765.65573	17407.85714
2768.22863	17376.85714
2770.79994	17339.85714
2773.36967	17358.28571
2775.9378	17355.28571
2778.50435	17308.42857
2781.06932	17277.71429
2783.6327	17262.28571
2786.1945	17276.42857
2788.75471	17274.42857
2791.31335	17227
2793.87041	17216
2796.42589	17186.71429
2798.97979	17173.14286
2801.53212	17153.57143
2804.08288	17130.42857
2806.63206	17074.57143
2809.17967	17025.57143
2811.72571	17061.28571
2814.27018	17004.28571
2816.81308	16926.85714
2819.35442	16921.57143
2821.89419	16924
2824.43239	16920.28571
2826.96904	16872.42857
2829.50412	16867.28571
2832.03763	16855.57143
2834.56959	16868.71429
2837.1	16833.71429
2839.62884	16814.57143
2842.15613	16810.85714
2844.68186	16815.14286
2847.20604	16756.57143
2849.72867	16756.57143
2852.24974	16747.71429
2854.76927	16783.71429
2857.28724	16744
2859.80367	16723
2862.31855	16699
2864.83189	16653.71429
2867.34368	16615.14286
2869.85393	16641
2872.36264	16640.85714
2874.8698	16607.71429
2877.37543	16620.85714
2879.87952	16632.42857
2882.38207	16620.42857
2884.88308	16597.28571
2887.38256	16626.57143
2889.88051	16618
2892.37692	16665.14286
2894.8718	16615
2897.36515	16649.57143
2899.85698	16692.71429
2902.34727	16730.42857
2904.83604	16757.42857
2907.32328	16722.85714
2909.809	16730
2912.29319	16749.42857
2914.77587	16797.42857
2917.25702	16759.85714
2919.73665	16780.28571
2922.21476	16789.85714
2924.69136	16763.57143
2927.16644	16765.85714
2929.64	16744.85714
2932.11205	16715.85714
2934.58258	16680.71429
2937.05161	16724.14286
2939.51912	16712.57143
2941.98513	16703.28571
2944.44962	16682.57143
2946.91261	16660.57143
2949.37409	16694.28571
2951.83407	16662.14286
2954.29254	16657
2956.74951	16606.14286
2959.20498	16628.14286
2961.65895	16623.14286
2964.11142	16602.14286
2966.56239	16572.14286
2969.01186	16580.57143
2971.45984	16542.85714
2973.90632	16523.57143
2976.35131	16472.28571
2978.7948	16455.14286
2981.23681	16406
2983.67732	16418.57143
2986.11635	16341.85714
2988.55388	16315.85714
2990.98993	16295.28571
2993.4245	16267.14286
2995.85758	16247.42857
2998.28917	16219.28571
3000.71928	16217
3003.14791	16174
3005.57506	16204.57143
3008.00073	16157
3010.42493	16138.71429
3012.84764	16095.14286
3015.26888	16115.85714
3017.68865	16025
3020.10694	16042.85714
3022.52376	16001.71429
3024.9391	15959.57143
3027.35298	15969.42857
3029.76539	15968.42857
3032.17632	15968.42857
3034.5858	15944.28571
3036.9938	15934.14286
3039.40034	15909.57143
3041.80542	15913.85714
3044.20903	15863.71429
3046.61118	15868.28571
3049.01187	15839.28571
3051.4111	15823.14286
3053.80888	15808.28571
3056.20519	15809
3058.60005	15749.42857
3060.99345	15732.71429
3063.3854	15713
3065.7759	15645.28571
3068.16494	15633.71429
3070.55254	15575
3072.93868	15538.71429
3075.32338	15520.85714
3077.70662	15528.14286
3080.08842	15493.85714
3082.46878	15470.14286
3084.84769	15460.14286
3087.22515	15442.71429
3089.60118	15444.85714
3091.97576	15453
3094.3489	15476.85714
3096.72061	15481.28571
3099.09087	15461.14286
3101.4597	15442.85714
3103.82709	15471.14286
3106.19305	15453
3108.55757	15449.57143
3110.92066	15423.28571
3113.28232	15414.42857
3115.64255	15374.71429
3118.00134	15336.85714
3120.35871	15321
3122.71466	15291.85714
3125.06917	15289.14286
3127.42226	15273.71429
3129.77393	15299
3132.12417	15239.42857
3134.47299	15234.71429
3136.82039	15206
3139.16636	15247.57143
3141.51092	15233.28571
3143.85406	15274.85714
3146.19579	15231.71429
3148.53609	15241.85714
3150.87499	15267.85714
3153.21246	15316.85714
3155.54853	15296.28571
3157.88318	15288.28571
3160.21642	15330.14286
3162.54826	15357.71429
3164.87868	15324.57143
3167.2077	15281.71429
3169.5353	15340.71429
3171.86151	15325.85714
3174.18631	15312.57143
3176.5097	15336
3178.83169	15322.42857
3181.15228	15275.85714
3183.47147	15243.71429
3185.78926	15266.85714
3188.10565	15225.85714
3190.42065	15214.14286
3192.73424	15230.71429
3195.04645	15222.85714
3197.35725	15219.57143
3199.66667	15228.85714
3201.97469	15207.85714
3204.28132	15181.71429
3206.58656	15265.14286
3208.8904	15276.71429
3211.19287	15269
3213.49394	15277.42857
3215.79363	15276.57143
3218.09193	15333.85714
3220.38884	15312.42857
3222.68438	15351.42857
3224.97853	15314.85714
3227.2713	15279
3229.56269	15319.28571
3231.8527	15300.57143
3234.14133	15258.14286
3236.42858	15210.14286
3238.71446	15211
3240.99896	15188.71429
3243.28209	15151.28571
3245.56384	15104.14286
3247.84423	15166.71429
3250.12324	15114.14286
3252.40088	15122.14286
3254.67715	15128
3256.95205	15104.14286
3259.22558	15106.14286
3261.49775	15115.28571
3263.76855	15118.42857
3266.03799	15073.85714
3268.30606	15072.85714
3270.57277	15069.28571
3272.83812	15004.42857
3275.10211	15010.71429
3277.36474	14994.42857
3279.62601	15009.14286
3281.88593	14934
3284.14448	14940.42857
3286.40168	14927.42857
3288.65753	14933
3290.91202	14938.28571
3293.16516	14883.71429
3295.41695	14866
3297.66738	14807.14286
3299.91647	14723.71429
3302.16421	14657.28571
3304.4106	14641.42857
3306.65564	14530.57143
3308.89933	14426.85714
3311.14169	14333.57143
3313.38269	14209.42857
3315.62236	14140
3317.86068	14009
3320.09766	13890
3322.3333	13837
3324.5676	13757.57143
3326.80056	13551.57143
3329.03219	13519.85714
3331.26248	3.42857
3333.49143	0.14286
3335.71905	-0.14286
