Data from AgNPs_FTO_APTES_UA_20uM_CRN_500uM_R6G_10uM_NaF_0.1M_Addition_RamanShift__7__18-40-14-963.txt Node

Date: Thu Feb 17 18:40:14 GMT 2022
User: TCL
Spectrometer: QEP01345
Trigger mode: 4
Integration Time (sec): 1.000000E1
Scans to average: 7
Electric dark correction enabled: true
Nonlinearity correction enabled: false
Boxcar width: 0
XAxis mode: Raman Shifts
Number of Pixels in Spectrum: 1044
>>>>>Begin Spectral Data<<<<<
46.04893	0.03571
50.45542	-0.53571
54.85868	-0.67857
59.25871	-0.53571
63.6555	89.46429
68.04907	94.60714
72.43941	97.60714
76.82654	103.46429
81.21044	106.89286
85.59113	111.03571
89.96862	113.03571
94.34289	111.03571
98.71396	124.60714
103.08183	121.17857
107.4465	133.46429
111.80798	129.17857
116.16626	132.32143
120.52136	139.75
124.87327	143.60714
129.222	150.75
133.56755	157.89286
137.90993	166.46429
142.24913	182.17857
146.58517	210.60714
150.91804	235.32143
155.24774	276.60714
159.57429	342.03571
163.89768	443.60714
168.21792	585.60714
172.53501	795.60714
176.84895	1127.03571
181.15975	1586.89286
185.46741	2241.60714
189.77193	3100.60714
194.07331	4180.46429
198.37157	5429.46429
202.6667	6719.60714
206.9587	8018.75
211.24758	9298.03571
215.53334	10564.75
219.81599	11890.75
224.09553	13335.46429
228.37195	14950.89286
232.64527	16731.46429
236.91549	18646.60714
241.18261	20557.60714
245.44663	22303.89286
249.70755	23857.03571
253.96539	25266.32143
258.22014	26391.32143
262.4718	27299.75
266.72039	27900.75
270.96589	28209.46429
275.20832	28183.17857
279.44768	27968.17857
283.68397	27625.32143
287.91719	27287.60714
292.14735	27120.32143
296.37445	26990.03571
300.59849	27115.89286
304.81948	27282.03571
309.03742	27514.89286
313.25231	27536.17857
317.46415	27374.32143
321.67296	26977.60714
325.87872	26588.03571
330.08145	26378.32143
334.28114	26425.03571
338.47781	26590.17857
342.67145	26903.32143
346.86207	27369.17857
351.04966	27898.03571
355.23424	28477.46429
359.4158	28898.17857
363.59435	29176.75
367.76989	29365.32143
371.94243	29474.32143
376.11196	29643.75
380.27849	29754.17857
384.44203	29926.17857
388.60257	30153.75
392.76012	30312.32143
396.91468	30616.60714
401.06626	30990.60714
405.21485	31215.17857
409.36047	31120.60714
413.50311	30752.32143
417.64277	30418.03571
421.77947	30329.03571
425.9132	30411.17857
430.04396	30578.46429
434.17176	30793.32143
438.2966	31016.32143
442.41849	31596.60714
446.53742	32245.89286
450.6534	32942.89286
454.76644	33368.32143
458.87653	33523.32143
462.98368	33384.60714
467.08789	33075.89286
471.18916	32678.46429
475.2875	32178.75
479.38291	31779.46429
483.4754	31410.03571
487.56496	31241.46429
491.6516	31071.75
495.73531	30938.03571
499.81612	30919.46429
503.89401	31174.03571
507.96899	31317.60714
512.04106	31355.32143
516.11023	31407.03571
520.1765	31402.03571
524.23987	31431.03571
528.30034	31504.75
532.35792	31434.60714
536.41261	31216.89286
540.46441	31005.46429
544.51333	30890.89286
548.55936	31040.03571
552.60252	31432.75
556.64279	31843.32143
560.6802	32241.75
564.71473	32308.17857
568.7464	32423.46429
572.7752	32797.32143
576.80114	33060.32143
580.82422	33486.32143
584.84444	34103.32143
588.86181	35245.89286
592.87633	36517.75
596.888	37276.17857
600.89682	36736.32143
604.9028	36595.60714
608.90594	38580.46429
612.90624	41460.60714
616.90371	40085.75
620.89834	34864.32143
624.89015	32254.17857
628.87913	31860.89286
632.86528	32110.46429
636.84862	32306.46429
640.82913	32091.32143
644.80683	31609.89286
648.78172	31242.89286
652.75379	31234.89286
656.72306	31576.03571
660.68952	31942.46429
664.65319	31848.75
668.61405	31361.17857
672.57211	31296.89286
676.52738	31468.60714
680.47986	31559.89286
684.42955	31427.32143
688.37646	31312.46429
692.32058	31297.60714
696.26192	31483.89286
700.20048	31779.89286
704.13626	31987.17857
708.06928	31968.17857
711.99952	31860.89286
715.927	31800.17857
719.85171	31837.60714
723.77365	31817.60714
727.69284	31617.60714
731.60928	31468.32143
735.52295	31445.89286
739.43388	31483.75
743.34206	31631.17857
747.24749	31679.17857
751.15017	31764.32143
755.05012	32009.60714
758.94733	32623.17857
762.8418	33789.60714
766.73354	35796.32143
770.62254	37805.17857
774.50882	38499.46429
778.39237	37430.60714
782.27321	35476.75
786.15132	33628.32143
790.02671	32414.60714
793.89938	31787.17857
797.76935	31484.75
801.6366	31377.89286
805.50115	31255.17857
809.36299	31116.46429
813.22213	31035.17857
817.07857	30944.60714
820.93231	30892.75
824.78336	30891.60714
828.63172	30874.17857
832.47738	30881.46429
836.32036	30834.89286
840.16066	30880.46429
843.99827	30913.89286
847.8332	30890.17857
851.66546	30906.89286
855.49504	30984.89286
859.32195	30968.89286
863.1462	30982.60714
866.96777	30972.89286
870.78668	31017.32143
874.60293	31057.89286
878.41652	31116.03571
882.22745	31174.89286
886.03573	31249.89286
889.84136	31288.46429
893.64433	31125.03571
897.44466	31105.75
901.24235	31034.75
905.0374	30971.17857
908.8298	30883.89286
912.61957	30796.03571
916.40671	30866.03571
920.19121	31060.60714
923.97308	31337.89286
927.75233	31343.75
931.52895	31284.46429
935.30295	31016.46429
939.07433	30710.46429
942.84309	30440.46429
946.60924	30260.75
950.37278	30214.75
954.13371	30111.60714
957.89203	30106.46429
961.64774	30116.17857
965.40086	30071.89286
969.15137	30023.75
972.89929	30013.89286
976.64461	29956.03571
980.38733	29977.60714
984.12747	30018.46429
987.86502	30167.32143
991.59999	30266.17857
995.33237	30492.46429
999.06217	30806.32143
1002.78939	31120.75
1006.51404	31502.75
1010.23611	31920.32143
1013.95561	32207.60714
1017.67255	32355.46429
1021.38692	32146.03571
1025.09872	31907.17857
1028.80796	31521.46429
1032.51465	31350.60714
1036.21877	31397.89286
1039.92035	31489.32143
1043.61937	31515.03571
1047.31584	31606.03571
1051.00976	31590.03571
1054.70114	31569.46429
1058.38998	31621.46429
1062.07627	31742.75
1065.76003	31866.17857
1069.44126	32150.46429
1073.11995	32471.17857
1076.79611	32764.17857
1080.46974	32998.89286
1084.14085	33235.03571
1087.80943	33448.60714
1091.47549	33592.03571
1095.13903	33481.89286
1098.80005	33145.03571
1102.45857	32752.32143
1106.11456	32527.17857
1109.76805	32470.17857
1113.41903	32547.60714
1117.06751	32794.17857
1120.71348	33106.89286
1124.35696	33501.46429
1127.99793	33872.75
1131.63641	33996.89286
1135.2724	33808.03571
1138.90589	33447.32143
1142.5369	33309.60714
1146.16542	33216.75
1149.79145	33259.75
1153.415	33314.60714
1157.03607	33376.60714
1160.65467	33761.17857
1164.27079	34504.17857
1167.88443	35563.46429
1171.49561	37044.17857
1175.10432	38899.46429
1178.71056	41359.03571
1182.31434	43703.17857
1185.91565	44767.60714
1189.51451	44605.75
1193.11091	43655.03571
1196.70485	42473.60714
1200.29634	41197.03571
1203.88538	39990.46429
1207.47197	38880.60714
1211.05612	37907.32143
1214.63782	37159.89286
1218.21708	36711.17857
1221.79391	36442.75
1225.36829	36482.75
1228.94024	36533.46429
1232.50976	36373.89286
1236.07685	35957.03571
1239.6415	35724.32143
1243.20374	35563.46429
1246.76355	35620.60714
1250.32093	35761.32143
1253.8759	36171.89286
1257.42845	36771.46429
1260.97859	37400.17857
1264.52631	38124.17857
1268.07163	38844.75
1271.61453	39506.03571
1275.15503	40025.03571
1278.69312	40554.03571
1282.22882	41108.75
1285.76211	41893.03571
1289.29301	42968.75
1292.82151	44126.75
1296.34761	45544.46429
1299.87133	47377.32143
1303.39266	49365.75
1306.9116	51698.32143
1310.42815	54072.60714
1313.94233	55492.60714
1317.45412	54900.32143
1320.96354	53310.75
1324.47058	51416.46429
1327.97525	49760.32143
1331.47754	48654.75
1334.97747	48058.17857
1338.47502	47877.03571
1341.97022	48187.75
1345.46305	48728.17857
1348.95352	49758.75
1352.44163	51125.75
1355.92738	53022.89286
1359.41078	55576.32143
1362.89183	57795.60714
1366.37053	57017.32143
1369.84688	52568.17857
1373.32088	47236.17857
1376.79254	43601.60714
1380.26186	42039.60714
1383.72883	41406.32143
1387.19347	40958.46429
1390.65578	40245.03571
1394.11575	39791.75
1397.57339	39667.17857
1401.0287	39804.17857
1404.48168	39854.75
1407.93234	39753.32143
1411.38068	39572.17857
1414.82669	39211.32143
1418.27039	38708.17857
1421.71177	38101.17857
1425.15083	37492.46429
1428.58758	37149.46429
1432.02203	37206.75
1435.45416	37690.46429
1438.88399	38134.60714
1442.31151	38473.60714
1445.73673	38502.32143
1449.15965	38616.03571
1452.58027	38472.46429
1455.9986	38391.89286
1459.41463	38458.60714
1462.82837	38855.03571
1466.23982	39450.03571
1469.64898	40087.60714
1473.05586	40612.46429
1476.46045	40902.75
1479.86276	41087.17857
1483.26279	41110.17857
1486.66054	41288.89286
1490.05602	41770.32143
1493.44922	42619.89286
1496.84016	43587.60714
1500.22882	45054.46429
1503.61521	46866.17857
1506.99934	48921.46429
1510.38121	50280.17857
1513.76081	50211.03571
1517.13816	48461.60714
1520.51324	46064.75
1523.88607	44123.17857
1527.25665	42950.17857
1530.62498	42528.03571
1533.99105	42207.32143
1537.35488	41901.89286
1540.71647	41382.89286
1544.07581	40789.75
1547.4329	40160.32143
1550.78776	39577.89286
1554.14038	39073.46429
1557.49077	38849.60714
1560.83892	38824.89286
1564.18484	38975.75
1567.52853	39414.75
1570.86999	39810.60714
1574.20922	40223.03571
1577.54624	40316.60714
1580.88103	39815.32143
1584.2136	39221.60714
1587.54395	39191.46429
1590.87208	39948.75
1594.19801	41453.03571
1597.52172	43340.03571
1600.84321	44379.60714
1604.16251	43670.32143
1607.47959	41921.46429
1610.79447	39748.60714
1614.10715	37596.17857
1617.41763	35798.75
1620.7259	34501.17857
1624.03199	33663.03571
1627.33587	33526.75
1630.63757	33912.32143
1633.93707	35075.75
1637.23439	37118.75
1640.52951	40353.17857
1643.82246	44336.46429
1647.11321	47877.03571
1650.40179	48988.03571
1653.68819	46586.46429
1656.97241	41929.32143
1660.25446	37385.32143
1663.53433	34239.46429
1666.81203	32273.46429
1670.08756	31052.60714
1673.36092	30307.75
1676.63211	29801.75
1679.90115	29411.75
1683.16801	29129.17857
1686.43272	28863.03571
1689.69527	28668.60714
1692.95567	28553.89286
1696.2139	28453.89286
1699.46999	28414.32143
1702.72392	28274.46429
1705.97571	28251.60714
1709.22535	28207.46429
1712.47284	28209.75
1715.71819	28157.60714
1718.96139	28152.32143
1722.20246	28049.89286
1725.44139	27885.17857
1728.67818	27858.46429
1731.91284	27772.60714
1735.14537	27654.60714
1738.37576	27610.17857
1741.60403	27457.17857
1744.83017	27359.75
1748.05418	27339.17857
1751.27607	27316.89286
1754.49584	27267.46429
1757.71349	27254.46429
1760.92903	27246.03571
1764.14244	27191.03571
1767.35375	27171.46429
1770.56294	27124.17857
1773.77002	27058.32143
1776.97499	26991.75
1780.17785	27012.17857
1783.37861	26964.60714
1786.57727	26874.03571
1789.77382	26801.03571
1792.96828	26775.03571
1796.16064	26720.60714
1799.3509	26654.46429
1802.53907	26612.32143
1805.72514	26496.32143
1808.90913	26514.89286
1812.09102	26463.75
1815.27083	26410.46429
1818.44856	26373.60714
1821.6242	26391.75
1824.79776	26366.03571
1827.96924	26337.75
1831.13864	26249.03571
1834.30597	26269.32143
1837.47122	26231.46429
1840.6344	26251.46429
1843.7955	26238.46429
1846.95454	26164.46429
1850.11151	26103.89286
1853.26642	26117.03571
1856.41926	26062.17857
1859.57004	26147.75
1862.71876	26073.60714
1865.86542	26052.03571
1869.01003	26027.60714
1872.15258	26017.60714
1875.29308	25984.60714
1878.43152	25925.75
1881.56792	25887.32143
1884.70227	25851.60714
1887.83457	25864.89286
1890.96482	25840.75
1894.09304	25814.89286
1897.21921	25769.32143
1900.34335	25733.32143
1903.46544	25761.03571
1906.58551	25647.75
1909.70353	25669.17857
1912.81953	25597.46429
1915.93349	25563.60714
1919.04543	25566.17857
1922.15534	25515.75
1925.26322	25404.89286
1928.36908	25389.17857
1931.47292	25319.75
1934.57473	25321.60714
1937.67453	25240.46429
1940.77232	25197.89286
1943.86808	25098.89286
1946.96184	25045.32143
1950.05358	24966.75
1953.14331	24915.17857
1956.23103	24884.75
1959.31675	24828.75
1962.40046	24758.75
1965.48217	24647.32143
1968.56188	24576.17857
1971.63959	24537.75
1974.7153	24491.03571
1977.78901	24412.17857
1980.86073	24348.17857
1983.93046	24295.46429
1986.99819	24165.03571
1990.06394	24181.03571
1993.1277	24112.46429
1996.18947	23965.75
1999.24925	23936.46429
2002.30706	23765.46429
2005.36288	23735.46429
2008.41672	23696.60714
2011.46859	23597.03571
2014.51848	23581.60714
2017.56639	23455.60714
2020.61233	23421.32143
2023.6563	23324.17857
2026.6983	23282.75
2029.73833	23254.32143
2032.7764	23179.32143
2035.8125	23151.60714
2038.84664	23077.75
2041.87881	23070.32143
2044.90903	22985.17857
2047.93729	22968.60714
2050.96359	22948.32143
2053.98794	22912.17857
2057.01034	22911.03571
2060.03078	22867.60714
2063.04927	22897.60714
2066.06582	22879.60714
2069.08042	22840.89286
2072.09307	22759.89286
2075.10378	22846.32143
2078.11255	22797.60714
2081.11938	22808.03571
2084.12426	22789.60714
2087.12722	22758.17857
2090.12824	22803.46429
2093.12732	22787.60714
2096.12447	22788.03571
2099.11969	22769.32143
2102.11299	22776.32143
2105.10435	22738.03571
2108.09379	22775.17857
2111.08131	22824.75
2114.0669	22821.89286
2117.05057	22825.46429
2120.03233	22820.60714
2123.01216	22927.89286
2125.99008	22897.32143
2128.96609	23022.17857
2131.94018	22993.75
2134.91236	22958.46429
2137.88263	22981.03571
2140.851	22931.89286
2143.81746	23014.60714
2146.78201	23005.46429
2149.74466	22993.89286
2152.7054	22963.17857
2155.66425	22921.32143
2158.6212	22933.03571
2161.57625	22911.89286
2164.52941	22917.89286
2167.48067	22944.75
2170.43004	22896.75
2173.37752	22917.89286
2176.32311	22884.75
2179.26681	22915.89286
2182.20863	22899.89286
2185.14856	22888.32143
2188.08661	22874.03571
2191.02278	22869.32143
2193.95707	22850.17857
2196.88948	22822.32143
2199.82001	22852.17857
2202.74867	22778.32143
2205.67545	22758.60714
2208.60037	22790.32143
2211.52341	22670.32143
2214.44458	22656.60714
2217.36388	22634.17857
2220.28132	22597.46429
2223.1969	22541.03571
2226.11061	22534.60714
2229.02246	22448.17857
2231.93245	22420.03571
2234.84058	22361.89286
2237.74686	22335.32143
2240.65128	22393.46429
2243.55385	22324.75
2246.45456	22314.32143
2249.35343	22295.32143
2252.25044	22257.60714
2255.14561	22214.60714
2258.03893	22169.32143
2260.93041	22124.89286
2263.82004	22083.60714
2266.70783	22023.46429
2269.59378	21990.75
2272.4779	21932.03571
2275.36017	21884.89286
2278.24061	21813.75
2281.11922	21745.32143
2283.996	21764.75
2286.87094	21730.75
2289.74405	21723.75
2292.61534	21676.46429
2295.4848	21652.17857
2298.35243	21673.46429
2301.21824	21662.32143
2304.08223	21608.46429
2306.94439	21558.75
2309.80474	21589.32143
2312.66327	21533.75
2315.51999	21491.60714
2318.37489	21501.89286
2321.22797	21452.89286
2324.07925	21433.46429
2326.92871	21328.17857
2329.77637	21398.89286
2332.62222	21347.03571
2335.46626	21276.17857
2338.3085	21290.89286
2341.14893	21243.75
2343.98756	21260.17857
2346.8244	21212.89286
2349.65943	21194.17857
2352.49267	21165.17857
2355.32411	21166.75
2358.15376	21178.03571
2360.98161	21147.17857
2363.80768	21160.89286
2366.63195	21147.89286
2369.45444	21116.75
2372.27514	21120.75
2375.09405	21050.32143
2377.91118	21025.17857
2380.72652	20991.75
2383.54009	20919.75
2386.35187	20869.46429
2389.16188	20816.46429
2391.97011	20736.75
2394.77657	20755.46429
2397.58125	20698.60714
2400.38416	20743.32143
2403.18529	20688.75
2405.98466	20653.46429
2408.78226	20614.17857
2411.57809	20602.46429
2414.37216	20586.75
2417.16446	20531.03571
2419.955	20546.60714
2422.74378	20526.60714
2425.5308	20503.60714
2428.31606	20506.03571
2431.09956	20477.75
2433.88131	20407.17857
2436.6613	20406.60714
2439.43954	20406.03571
2442.21603	20415.03571
2444.99077	20352.75
2447.76377	20370.60714
2450.53501	20340.60714
2453.30451	20330.89286
2456.07226	20298.89286
2458.83827	20295.75
2461.60254	20279.46429
2464.36507	20263.60714
2467.12586	20227.17857
2469.88492	20190.32143
2472.64224	20188.17857
2475.39782	20155.89286
2478.15167	20181.89286
2480.90379	20175.60714
2483.65417	20185.03571
2486.40283	20165.89286
2489.14976	20179.89286
2491.89497	20126.75
2494.63845	20187.46429
2497.3802	20175.89286
2500.12024	20149.32143
2502.85855	20114.17857
2505.59514	20030.60714
2508.33002	20048.60714
2511.06318	20007.60714
2513.79462	19968.60714
2516.52435	19974.46429
2519.25237	19953.03571
2521.97867	19912.17857
2524.70327	19905.89286
2527.42616	19891.60714
2530.14734	19824.75
2532.86681	19809.32143
2535.58458	19770.89286
2538.30065	19758.17857
2541.01501	19757.32143
2543.72768	19743.75
2546.43864	19701.89286
2549.14791	19664.03571
2551.85548	19650.89286
2554.56136	19626.32143
2557.26554	19536.89286
2559.96803	19535.75
2562.66883	19523.46429
2565.36794	19501.46429
2568.06536	19430.03571
2570.7611	19401.46429
2573.45514	19376.75
2576.14751	19313.17857
2578.83819	19271.32143
2581.52719	19282.03571
2584.21451	19234.46429
2586.90015	19228.60714
2589.58411	19212.17857
2592.2664	19196.75
2594.94701	19131.60714
2597.62594	19126.03571
2600.30321	19087.03571
2602.9788	19018.46429
2605.65273	19009.60714
2608.32498	18954.60714
2610.99557	19007.75
2613.66449	18989.89286
2616.33175	18954.32143
2618.99734	18979.60714
2621.66128	18895.46429
2624.32355	18881.17857
2626.98416	18797.75
2629.64311	18859.03571
2632.30041	18810.17857
2634.95605	18740.46429
2637.61004	18715.46429
2640.26238	18705.89286
2642.91306	18716.89286
2645.56209	18710.60714
2648.20948	18675.03571
2650.85521	18712.17857
2653.4993	18680.17857
2656.14175	18681.03571
2658.78255	18721.32143
2661.42171	18729.32143
2664.05923	18717.60714
2666.6951	18703.17857
2669.32934	18731.89286
2671.96194	18704.89286
2674.59291	18679.75
2677.22224	18697.03571
2679.84993	18690.60714
2682.476	18654.03571
2685.10043	18644.89286
2687.72324	18640.32143
2690.34441	18607.17857
2692.96396	18643.03571
2695.58188	18632.32143
2698.19818	18625.60714
2700.81285	18676.17857
2703.4259	18599.17857
2706.03733	18635.03571
2708.64714	18662.89286
2711.25533	18650.89286
2713.86191	18606.46429
2716.46687	18679.32143
2719.07021	18611.60714
2721.67194	18675.46429
2724.27206	18651.60714
2726.87057	18636.89286
2729.46747	18615.32143
2732.06276	18605.17857
2734.65644	18595.89286
2737.24852	18601.46429
2739.83899	18591.60714
2742.42786	18608.89286
2745.01513	18528.46429
2747.60079	18503.89286
2750.18486	18471.89286
2752.76733	18455.03571
2755.3482	18470.75
2757.92747	18498.75
2760.50515	18450.75
2763.08123	18387.17857
2765.65573	18346.17857
2768.22863	18318.32143
2770.79994	18358.46429
2773.36967	18333.60714
2775.9378	18282.89286
2778.50435	18307.03571
2781.06932	18265.17857
2783.6327	18252.03571
2786.1945	18172.17857
2788.75471	18169.03571
2791.31335	18146.32143
2793.87041	18153.17857
2796.42589	18109.17857
2798.97979	18078.89286
2801.53212	18030.46429
2804.08288	18007.03571
2806.63206	17933.89286
2809.17967	17899.46429
2811.72571	17872.46429
2814.27018	17877.32143
2816.81308	17823.60714
2819.35442	17736.17857
2821.89419	17745.17857
2824.43239	17692.89286
2826.96904	17727.17857
2829.50412	17704.03571
2832.03763	17672.17857
2834.56959	17666.75
2837.1	17635.60714
2839.62884	17628.75
2842.15613	17602.75
2844.68186	17633.17857
2847.20604	17598.60714
2849.72867	17602.03571
2852.24974	17554.60714
2854.76927	17571.32143
2857.28724	17521.03571
2859.80367	17484.89286
2862.31855	17440.89286
2864.83189	17384.60714
2867.34368	17365.03571
2869.85393	17385.03571
2872.36264	17399.75
2874.8698	17347.17857
2877.37543	17328.17857
2879.87952	17300.17857
2882.38207	17313.03571
2884.88308	17274.60714
2887.38256	17306.32143
2889.88051	17283.46429
2892.37692	17294.46429
2894.8718	17315.32143
2897.36515	17299.17857
2899.85698	17282.60714
2902.34727	17341.46429
2904.83604	17350.75
2907.32328	17374.75
2909.809	17331.46429
2912.29319	17377.32143
2914.77587	17375.17857
2917.25702	17401.60714
2919.73665	17381.17857
2922.21476	17380.32143
2924.69136	17325.17857
2927.16644	17343.75
2929.64	17308.60714
2932.11205	17303.89286
2934.58258	17253.60714
2937.05161	17241.32143
2939.51912	17263.89286
2941.98513	17241.60714
2944.44962	17217.32143
2946.91261	17162.46429
2949.37409	17174.89286
2951.83407	17173.75
2954.29254	17178.46429
2956.74951	17124.03571
2959.20498	17118.75
2961.65895	17110.60714
2964.11142	17121.89286
2966.56239	17072.32143
2969.01186	17071.46429
2971.45984	17030.03571
2973.90632	16991.32143
2976.35131	16938.60714
2978.7948	16933.32143
2981.23681	16870.75
2983.67732	16872.75
2986.11635	16870.03571
2988.55388	16841.89286
2990.98993	16776.17857
2993.4245	16748.60714
2995.85758	16731.46429
2998.28917	16696.60714
3000.71928	16697.46429
3003.14791	16659.75
3005.57506	16627.75
3008.00073	16633.60714
3010.42493	16546.46429
3012.84764	16519.60714
3015.26888	16546.46429
3017.68865	16476.60714
3020.10694	16476.17857
3022.52376	16416.89286
3024.9391	16400.32143
3027.35298	16363.17857
3029.76539	16375.17857
3032.17632	16343.75
3034.5858	16325.17857
3036.9938	16319.60714
3039.40034	16331.75
3041.80542	16300.46429
3044.20903	16238.46429
3046.61118	16242.32143
3049.01187	16194.75
3051.4111	16192.60714
3053.80888	16149.89286
3056.20519	16107.17857
3058.60005	16095.32143
3060.99345	16049.32143
3063.3854	16014.60714
3065.7759	15997.89286
3068.16494	15942.32143
3070.55254	15888.46429
3072.93868	15869.75
3075.32338	15809.03571
3077.70662	15813.03571
3080.08842	15794.17857
3082.46878	15759.46429
3084.84769	15744.32143
3087.22515	15744.17857
3089.60118	15730.03571
3091.97576	15739.32143
3094.3489	15776.17857
3096.72061	15707.75
3099.09087	15695.17857
3101.4597	15684.32143
3103.82709	15723.46429
3106.19305	15685.32143
3108.55757	15711.75
3110.92066	15630.32143
3113.28232	15628.03571
3115.64255	15614.17857
3118.00134	15559.03571
3120.35871	15555.60714
3122.71466	15508.89286
3125.06917	15430.46429
3127.42226	15471.75
3129.77393	15436.60714
3132.12417	15422.46429
3134.47299	15419.75
3136.82039	15394.89286
3139.16636	15382.60714
3141.51092	15419.60714
3143.85406	15389.03571
3146.19579	15422.60714
3148.53609	15422.32143
3150.87499	15410.46429
3153.21246	15401.32143
3155.54853	15428.32143
3157.88318	15434.32143
3160.21642	15433.75
3162.54826	15444.03571
3164.87868	15434.03571
3167.2077	15413.46429
3169.5353	15425.75
3171.86151	15440.17857
3174.18631	15400.60714
3176.5097	15377.32143
3178.83169	15359.89286
3181.15228	15363.60714
3183.47147	15301.89286
3185.78926	15263.32143
3188.10565	15235.03571
3190.42065	15237.46429
3192.73424	15224.60714
3195.04645	15211.89286
3197.35725	15209.89286
3199.66667	15237.17857
3201.97469	15204.03571
3204.28132	15190.60714
3206.58656	15240.17857
3208.8904	15259.32143
3211.19287	15261.03571
3213.49394	15277.03571
3215.79363	15278.03571
3218.09193	15238.03571
3220.38884	15254.17857
3222.68438	15275.46429
3224.97853	15250.60714
3227.2713	15170.60714
3229.56269	15169.75
3231.8527	15235.46429
3234.14133	15163.60714
3236.42858	15106.03571
3238.71446	15097.32143
3240.99896	15081.46429
3243.28209	15053.17857
3245.56384	14988.03571
3247.84423	15023.03571
3250.12324	14988.03571
3252.40088	14987.03571
3254.67715	14982.60714
3256.95205	14954.17857
3259.22558	14980.17857
3261.49775	14922.75
3263.76855	14928.46429
3266.03799	14897.32143
3268.30606	14894.46429
3270.57277	14849.89286
3272.83812	14779.17857
3275.10211	14792.46429
3277.36474	14753.32143
3279.62601	14757.03571
3281.88593	14689.46429
3284.14448	14756.60714
3286.40168	14742.75
3288.65753	14725.75
3290.91202	14669.03571
3293.16516	14644.60714
3295.41695	14644.03571
3297.66738	14579.17857
3299.91647	14516.46429
3302.16421	14380.89286
3304.4106	14361.32143
3306.65564	14247.03571
3308.89933	14175.17857
3311.14169	14078.89286
3313.38269	13946.46429
3315.62236	13874.46429
3317.86068	13736.32143
3320.09766	13621.32143
3322.3333	13544.46429
3324.5676	13467.75
3326.80056	13296.03571
3329.03219	13214.46429
3331.26248	1.75
3333.49143	-0.39286
3335.71905	-0.25
