Data from AgNPs_FTO_APTES_UA_20uM_CRN_200uM_R6G_10uM_NaF_0.1M_Addition_RamanShift__3__17-55-54-907.txt Node

Date: Thu Feb 17 17:55:54 GMT 2022
User: TCL
Spectrometer: QEP01345
Trigger mode: 4
Integration Time (sec): 1.000000E1
Scans to average: 7
Electric dark correction enabled: true
Nonlinearity correction enabled: false
Boxcar width: 0
XAxis mode: Raman Shifts
Number of Pixels in Spectrum: 1044
>>>>>Begin Spectral Data<<<<<
46.04893	-0.82143
50.45542	-1.10714
54.85868	-0.25
59.25871	-0.53571
63.6555	105.75
68.04907	107.60714
72.43941	114.89286
76.82654	117.03571
81.21044	121.32143
85.59113	125.32143
89.96862	132.17857
94.34289	133.60714
98.71396	140.32143
103.08183	139.32143
107.4465	150.17857
111.80798	150.89286
116.16626	153.60714
120.52136	158.03571
124.87327	163.46429
129.222	178.03571
133.56755	182.46429
137.90993	197.75
142.24913	217.46429
146.58517	240.03571
150.91804	282.60714
155.24774	335.89286
159.57429	412.03571
163.89768	530.17857
168.21792	699.03571
172.53501	976.17857
176.84895	1352.60714
181.15975	1919.89286
185.46741	2702.89286
189.77193	3744.17857
194.07331	5021.75
198.37157	6521.89286
202.6667	8059.46429
206.9587	9618.17857
211.24758	11162.03571
215.53334	12633.89286
219.81599	14234.75
224.09553	15968.89286
228.37195	17913.75
232.64527	20026.75
236.91549	22332.89286
241.18261	24601.32143
245.44663	26692.03571
249.70755	28640.32143
253.96539	30294.75
258.22014	31617.60714
262.4718	32769.89286
266.72039	33497.46429
270.96589	33964.75
275.20832	33920.46429
279.44768	33567.17857
283.68397	33102.89286
287.91719	32685.17857
292.14735	32309.89286
296.37445	32239.32143
300.59849	32390.03571
304.81948	32638.89286
309.03742	32910.89286
313.25231	33009.32143
317.46415	32886.03571
321.67296	32437.03571
325.87872	32104.32143
330.08145	31898.03571
334.28114	31990.17857
338.47781	32224.75
342.67145	32598.46429
346.86207	33176.17857
351.04966	33852.89286
355.23424	34586.60714
359.4158	35060.60714
363.59435	35346.46429
367.76989	35596.03571
371.94243	35713.17857
376.11196	35931.75
380.27849	36144.75
384.44203	36407.03571
388.60257	36668.46429
392.76012	36920.32143
396.91468	37212.89286
401.06626	37669.60714
405.21485	37920.75
409.36047	37820.60714
413.50311	37414.89286
417.64277	37119.32143
421.77947	37063.46429
425.9132	37208.03571
430.04396	37446.03571
434.17176	37679.03571
438.2966	38091.89286
442.41849	38917.17857
446.53742	40172.60714
450.6534	41394.60714
454.76644	42025.89286
458.87653	41992.89286
462.98368	41387.03571
467.08789	40604.46429
471.18916	39854.17857
475.2875	39043.75
479.38291	38257.03571
483.4754	37719.89286
487.56496	37422.46429
491.6516	37211.89286
495.73531	37277.17857
499.81612	37404.46429
503.89401	37607.89286
507.96899	37827.03571
512.04106	37860.60714
516.11023	37848.17857
520.1765	37886.46429
524.23987	38011.89286
528.30034	38165.46429
532.35792	38145.89286
536.41261	37857.03571
540.46441	37440.89286
544.51333	37242.75
548.55936	37334.89286
552.60252	37922.17857
556.64279	38672.17857
560.6802	39167.17857
564.71473	39195.46429
568.7464	39145.32143
572.7752	39487.32143
576.80114	39888.75
580.82422	40484.46429
584.84444	41856.32143
588.86181	44070.89286
592.87633	46825.03571
596.888	48098.03571
600.89682	46558.17857
604.9028	45387.89286
608.90594	47519.32143
612.90624	50992.32143
616.90371	48982.46429
620.89834	42483.03571
624.89015	39456.46429
628.87913	38949.17857
632.86528	39072.17857
636.84862	38992.46429
640.82913	38594.89286
644.80683	37869.17857
648.78172	37472.03571
652.75379	37525.60714
656.72306	38017.60714
660.68952	38561.32143
664.65319	38348.17857
668.61405	37830.17857
672.57211	37739.46429
676.52738	37941.32143
680.47986	38009.32143
684.42955	37698.32143
688.37646	37590.46429
692.32058	37763.89286
696.26192	38156.03571
700.20048	38636.03571
704.13626	38845.46429
708.06928	38754.75
711.99952	38431.89286
715.927	38472.46429
719.85171	38647.89286
723.77365	38656.89286
727.69284	38319.89286
731.60928	37993.46429
735.52295	38033.46429
739.43388	38090.32143
743.34206	38271.89286
747.24749	38386.75
751.15017	38566.46429
755.05012	38922.89286
758.94733	39587.46429
762.8418	41033.60714
766.73354	43467.17857
770.62254	45888.75
774.50882	46701.17857
778.39237	45452.89286
782.27321	43121.03571
786.15132	40810.32143
790.02671	39415.17857
793.89938	38677.32143
797.76935	38399.03571
801.6366	38224.03571
805.50115	38078.89286
809.36299	37958.75
813.22213	37758.17857
817.07857	37668.03571
820.93231	37545.17857
824.78336	37551.46429
828.63172	37569.46429
832.47738	37670.75
836.32036	37746.17857
840.16066	37854.75
843.99827	37989.89286
847.8332	38007.60714
851.66546	37950.60714
855.49504	37955.75
859.32195	37982.32143
863.1462	37974.17857
866.96777	37900.46429
870.78668	37892.32143
874.60293	37910.17857
878.41652	37953.89286
882.22745	38083.89286
886.03573	38246.17857
889.84136	38170.75
893.64433	38012.89286
897.44466	37956.03571
901.24235	37819.46429
905.0374	37759.03571
908.8298	37610.46429
912.61957	37579.17857
916.40671	37742.03571
920.19121	38014.60714
923.97308	38278.17857
927.75233	38591.46429
931.52895	38494.03571
935.30295	38245.03571
939.07433	37814.17857
942.84309	37436.89286
946.60924	37356.60714
950.37278	37199.03571
954.13371	37057.75
957.89203	36977.46429
961.64774	36911.46429
965.40086	36893.89286
969.15137	36875.17857
972.89929	36850.32143
976.64461	36875.89286
980.38733	36984.17857
984.12747	37178.75
987.86502	37375.46429
991.59999	37713.75
995.33237	38276.03571
999.06217	39028.60714
1002.78939	39797.75
1006.51404	40469.46429
1010.23611	40904.89286
1013.95561	41205.89286
1017.67255	41488.60714
1021.38692	41159.17857
1025.09872	40716.32143
1028.80796	40483.03571
1032.51465	40983.60714
1036.21877	41622.32143
1039.92035	41718.17857
1043.61937	41485.46429
1047.31584	40940.32143
1051.00976	40273.89286
1054.70114	39864.17857
1058.38998	39760.17857
1062.07627	39674.46429
1065.76003	39844.03571
1069.44126	40090.17857
1073.11995	40381.89286
1076.79611	40769.60714
1080.46974	41155.75
1084.14085	41578.46429
1087.80943	41909.32143
1091.47549	42024.75
1095.13903	41802.60714
1098.80005	41335.60714
1102.45857	40834.46429
1106.11456	40641.60714
1109.76805	40692.75
1113.41903	40929.32143
1117.06751	41192.89286
1120.71348	41597.75
1124.35696	41984.89286
1127.99793	42241.03571
1131.63641	42407.17857
1135.2724	42072.32143
1138.90589	41780.75
1142.5369	41569.60714
1146.16542	41466.17857
1149.79145	41520.46429
1153.415	41495.75
1157.03607	41673.17857
1160.65467	42253.17857
1164.27079	43390.89286
1167.88443	45036.75
1171.49561	47256.17857
1175.10432	50096.17857
1178.71056	53825.32143
1182.31434	57340.60714
1185.91565	58846.17857
1189.51451	57916.32143
1193.11091	55807.32143
1196.70485	53570.89286
1200.29634	51742.89286
1203.88538	50105.32143
1207.47197	48725.46429
1211.05612	47601.89286
1214.63782	46833.89286
1218.21708	46552.46429
1221.79391	46730.17857
1225.36829	47075.89286
1228.94024	47136.89286
1232.50976	46545.32143
1236.07685	45565.32143
1239.6415	45037.75
1243.20374	44771.03571
1246.76355	44955.75
1250.32093	45319.89286
1253.8759	46064.60714
1257.42845	46952.60714
1260.97859	47932.60714
1264.52631	49019.60714
1268.07163	50091.03571
1271.61453	51302.32143
1275.15503	52348.89286
1278.69312	53295.32143
1282.22882	54126.32143
1285.76211	55314.17857
1289.29301	56780.75
1292.82151	58579.60714
1296.34761	60711.17857
1299.87133	63771.03571
1303.39266	67369.32143
1306.9116	71617.60714
1310.42815	75727.89286
1313.94233	78127.03571
1317.45412	77114.60714
1320.96354	73875.89286
1324.47058	70112.89286
1327.97525	66957.75
1331.47754	64724.60714
1334.97747	63429.17857
1338.47502	62773.32143
1341.97022	62395.75
1345.46305	62434.03571
1348.95352	63369.03571
1352.44163	65434.89286
1355.92738	69094.60714
1359.41078	73869.89286
1362.89183	77430.75
1366.37053	76075.03571
1369.84688	69516.03571
1373.32088	61635.46429
1376.79254	56687.32143
1380.26186	54503.60714
1383.72883	54027.32143
1387.19347	53405.03571
1390.65578	52558.60714
1394.11575	51972.75
1397.57339	52195.46429
1401.0287	52701.60714
1404.48168	52921.60714
1407.93234	52869.03571
1411.38068	52776.60714
1414.82669	52360.32143
1418.27039	51718.46429
1421.71177	50843.89286
1425.15083	49853.60714
1428.58758	49462.17857
1432.02203	49793.89286
1435.45416	50790.32143
1438.88399	51610.17857
1442.31151	51890.60714
1445.73673	51866.03571
1449.15965	51662.75
1452.58027	51192.32143
1455.9986	50741.60714
1459.41463	50661.89286
1462.82837	51202.89286
1466.23982	52245.03571
1469.64898	53220.75
1473.05586	54163.60714
1476.46045	54673.75
1479.86276	54896.75
1483.26279	54920.75
1486.66054	55065.17857
1490.05602	55559.46429
1493.44922	56284.75
1496.84016	57010.46429
1500.22882	58166.60714
1503.61521	59874.75
1506.99934	62082.60714
1510.38121	63653.03571
1513.76081	63602.75
1517.13816	61569.75
1520.51324	58483.89286
1523.88607	56089.60714
1527.25665	54937.75
1530.62498	54579.03571
1533.99105	54451.46429
1537.35488	54094.89286
1540.71647	53534.03571
1544.07581	52814.46429
1547.4329	52022.17857
1550.78776	51209.75
1554.14038	50582.03571
1557.49077	50188.46429
1560.83892	50033.32143
1564.18484	50180.17857
1567.52853	50499.17857
1570.86999	51015.17857
1574.20922	51516.46429
1577.54624	51739.32143
1580.88103	51357.75
1584.2136	50915.89286
1587.54395	51438.75
1590.87208	53349.75
1594.19801	56504.03571
1597.52172	60154.17857
1600.84321	62145.03571
1604.16251	60902.17857
1607.47959	57251.75
1610.79447	52857.46429
1614.10715	49016.75
1617.41763	46155.89286
1620.7259	44389.89286
1624.03199	43586.17857
1627.33587	43704.17857
1630.63757	44644.75
1633.93707	46565.03571
1637.23439	49879.75
1640.52951	54873.17857
1643.82246	61159.75
1647.11321	66328.89286
1650.40179	67097.17857
1653.68819	62398.46429
1656.97241	54881.46429
1660.25446	48355.75
1663.53433	43977.89286
1666.81203	41440.46429
1670.08756	39971.17857
1673.36092	38991.17857
1676.63211	38376.75
1679.90115	37954.46429
1683.16801	37499.75
1686.43272	37272.17857
1689.69527	37114.46429
1692.95567	36880.17857
1696.2139	36822.89286
1699.46999	36808.75
1702.72392	36659.60714
1705.97571	36679.46429
1709.22535	36665.89286
1712.47284	36685.03571
1715.71819	36609.03571
1718.96139	36629.17857
1722.20246	36490.46429
1725.44139	36365.46429
1728.67818	36277.60714
1731.91284	36165.03571
1735.14537	36065.03571
1738.37576	35933.17857
1741.60403	35841.17857
1744.83017	35741.17857
1748.05418	35684.89286
1751.27607	35659.60714
1754.49584	35578.60714
1757.71349	35559.60714
1760.92903	35568.89286
1764.14244	35573.03571
1767.35375	35544.17857
1770.56294	35509.60714
1773.77002	35421.89286
1776.97499	35387.32143
1780.17785	35358.89286
1783.37861	35318.75
1786.57727	35272.60714
1789.77382	35180.17857
1792.96828	35217.75
1796.16064	35166.60714
1799.3509	35041.32143
1802.53907	35025.32143
1805.72514	34961.17857
1808.90913	34869.17857
1812.09102	34856.46429
1815.27083	34766.32143
1818.44856	34775.75
1821.6242	34801.60714
1824.79776	34734.60714
1827.96924	34756.46429
1831.13864	34683.75
1834.30597	34665.46429
1837.47122	34699.89286
1840.6344	34678.89286
1843.7955	34702.75
1846.95454	34634.32143
1850.11151	34618.17857
1853.26642	34592.03571
1856.41926	34561.17857
1859.57004	34601.46429
1862.71876	34528.89286
1865.86542	34519.17857
1869.01003	34566.32143
1872.15258	34466.60714
1875.29308	34500.46429
1878.43152	34460.03571
1881.56792	34441.60714
1884.70227	34448.75
1887.83457	34437.03571
1890.96482	34326.32143
1894.09304	34297.32143
1897.21921	34331.32143
1900.34335	34283.46429
1903.46544	34275.60714
1906.58551	34255.60714
1909.70353	34174.60714
1912.81953	34089.60714
1915.93349	34043.75
1919.04543	34005.60714
1922.15534	34000.03571
1925.26322	33977.17857
1928.36908	33913.03571
1931.47292	33898.60714
1934.57473	33798.46429
1937.67453	33739.75
1940.77232	33660.46429
1943.86808	33550.46429
1946.96184	33492.60714
1950.05358	33379.17857
1953.14331	33301.60714
1956.23103	33303.17857
1959.31675	33255.89286
1962.40046	33135.60714
1965.48217	33055.89286
1968.56188	32968.75
1971.63959	32858.46429
1974.7153	32789.46429
1977.78901	32701.32143
1980.86073	32623.17857
1983.93046	32507.89286
1986.99819	32417.32143
1990.06394	32380.17857
1993.1277	32303.89286
1996.18947	32200.17857
1999.24925	32031.46429
2002.30706	32041.75
2005.36288	31922.60714
2008.41672	31813.89286
2011.46859	31704.89286
2014.51848	31673.46429
2017.56639	31577.17857
2020.61233	31542.75
2023.6563	31424.46429
2026.6983	31386.75
2029.73833	31388.17857
2032.7764	31280.32143
2035.8125	31249.60714
2038.84664	31217.03571
2041.87881	31178.75
2044.90903	31164.17857
2047.93729	31056.32143
2050.96359	31098.32143
2053.98794	31046.75
2057.01034	31015.60714
2060.03078	30982.89286
2063.04927	30995.60714
2066.06582	30964.03571
2069.08042	30964.75
2072.09307	30914.75
2075.10378	30937.75
2078.11255	30939.89286
2081.11938	30925.60714
2084.12426	30927.17857
2087.12722	30968.60714
2090.12824	30985.75
2093.12732	30929.60714
2096.12447	31002.03571
2099.11969	30977.89286
2102.11299	30959.60714
2105.10435	30948.03571
2108.09379	30967.03571
2111.08131	31006.03571
2114.0669	31055.75
2117.05057	31091.46429
2120.03233	31206.03571
2123.01216	31170.17857
2125.99008	31215.75
2128.96609	31313.32143
2131.94018	31351.75
2134.91236	31305.89286
2137.88263	31315.46429
2140.851	31273.46429
2143.81746	31388.89286
2146.78201	31396.46429
2149.74466	31423.03571
2152.7054	31415.17857
2155.66425	31347.03571
2158.6212	31403.89286
2161.57625	31442.75
2164.52941	31399.17857
2167.48067	31377.03571
2170.43004	31363.32143
2173.37752	31388.32143
2176.32311	31397.46429
2179.26681	31357.89286
2182.20863	31432.89286
2185.14856	31424.32143
2188.08661	31420.75
2191.02278	31474.60714
2193.95707	31486.03571
2196.88948	31398.60714
2199.82001	31429.46429
2202.74867	31404.32143
2205.67545	31383.03571
2208.60037	31365.60714
2211.52341	31323.17857
2214.44458	31281.17857
2217.36388	31215.60714
2220.28132	31207.75
2223.1969	31107.46429
2226.11061	31123.75
2229.02246	31053.75
2231.93245	31054.32143
2234.84058	30884.89286
2237.74686	30919.60714
2240.65128	30947.60714
2243.55385	30999.60714
2246.45456	30891.89286
2249.35343	30843.46429
2252.25044	30745.75
2255.14561	30699.03571
2258.03893	30745.32143
2260.93041	30662.32143
2263.82004	30638.60714
2266.70783	30560.60714
2269.59378	30511.17857
2272.4779	30405.46429
2275.36017	30438.17857
2278.24061	30336.89286
2281.11922	30304.17857
2283.996	30263.32143
2286.87094	30286.03571
2289.74405	30224.75
2292.61534	30242.75
2295.4848	30186.17857
2298.35243	30249.32143
2301.21824	30224.03571
2304.08223	30192.32143
2306.94439	30208.03571
2309.80474	30133.17857
2312.66327	30166.32143
2315.51999	30201.46429
2318.37489	30142.60714
2321.22797	30147.60714
2324.07925	30052.17857
2326.92871	30031.03571
2329.77637	29976.75
2332.62222	29899.75
2335.46626	29933.60714
2338.3085	29903.75
2341.14893	29922.32143
2343.98756	29924.75
2346.8244	29896.60714
2349.65943	29897.89286
2352.49267	29826.46429
2355.32411	29853.46429
2358.15376	29876.03571
2360.98161	29837.32143
2363.80768	29844.46429
2366.63195	29761.89286
2369.45444	29680.32143
2372.27514	29660.46429
2375.09405	29617.89286
2377.91118	29620.32143
2380.72652	29586.32143
2383.54009	29525.46429
2386.35187	29428.17857
2389.16188	29421.03571
2391.97011	29378.46429
2394.77657	29345.03571
2397.58125	29362.46429
2400.38416	29289.89286
2403.18529	29216.89286
2405.98466	29216.46429
2408.78226	29192.46429
2411.57809	29162.46429
2414.37216	29111.75
2417.16446	29086.60714
2419.955	29036.03571
2422.74378	29047.46429
2425.5308	28987.03571
2428.31606	29016.46429
2431.09956	29006.75
2433.88131	28934.75
2436.6613	28934.60714
2439.43954	28880.32143
2442.21603	28949.89286
2444.99077	28949.46429
2447.76377	28921.17857
2450.53501	28864.75
2453.30451	28896.32143
2456.07226	28847.17857
2458.83827	28814.32143
2461.60254	28833.03571
2464.36507	28845.60714
2467.12586	28796.46429
2469.88492	28800.03571
2472.64224	28777.75
2475.39782	28822.60714
2478.15167	28799.89286
2480.90379	28787.03571
2483.65417	28840.75
2486.40283	28857.46429
2489.14976	28829.03571
2491.89497	28838.89286
2494.63845	28856.75
2497.3802	28850.17857
2500.12024	28846.17857
2502.85855	28783.89286
2505.59514	28756.46429
2508.33002	28683.03571
2511.06318	28703.60714
2513.79462	28680.46429
2516.52435	28635.60714
2519.25237	28597.03571
2521.97867	28537.60714
2524.70327	28530.75
2527.42616	28554.32143
2530.14734	28505.17857
2532.86681	28495.46429
2535.58458	28494.32143
2538.30065	28449.46429
2541.01501	28445.75
2543.72768	28402.60714
2546.43864	28369.46429
2549.14791	28393.89286
2551.85548	28370.32143
2554.56136	28273.32143
2557.26554	28266.60714
2559.96803	28257.89286
2562.66883	28176.46429
2565.36794	28186.60714
2568.06536	28157.75
2570.7611	28142.32143
2573.45514	28107.17857
2576.14751	28033.46429
2578.83819	28003.32143
2581.52719	28016.89286
2584.21451	27987.75
2586.90015	27969.46429
2589.58411	27978.32143
2592.2664	27973.60714
2594.94701	27854.03571
2597.62594	27824.32143
2600.30321	27796.60714
2602.9788	27768.17857
2605.65273	27722.60714
2608.32498	27738.46429
2610.99557	27798.75
2613.66449	27754.46429
2616.33175	27753.89286
2618.99734	27727.46429
2621.66128	27672.89286
2624.32355	27636.89286
2626.98416	27594.17857
2629.64311	27593.17857
2632.30041	27588.75
2634.95605	27539.32143
2637.61004	27501.60714
2640.26238	27437.60714
2642.91306	27447.32143
2645.56209	27437.17857
2648.20948	27426.60714
2650.85521	27385.75
2653.4993	27448.46429
2656.14175	27417.75
2658.78255	27452.17857
2661.42171	27489.03571
2664.05923	27495.03571
2666.6951	27514.75
2669.32934	27477.46429
2671.96194	27541.89286
2674.59291	27566.60714
2677.22224	27520.03571
2679.84993	27529.46429
2682.476	27449.89286
2685.10043	27486.03571
2687.72324	27451.17857
2690.34441	27469.17857
2692.96396	27457.60714
2695.58188	27474.60714
2698.19818	27440.89286
2700.81285	27458.17857
2703.4259	27464.60714
2706.03733	27475.46429
2708.64714	27508.46429
2711.25533	27529.60714
2713.86191	27543.46429
2716.46687	27580.32143
2719.07021	27581.46429
2721.67194	27573.75
2724.27206	27567.17857
2726.87057	27568.32143
2729.46747	27535.60714
2732.06276	27581.46429
2734.65644	27578.89286
2737.24852	27549.89286
2739.83899	27533.89286
2742.42786	27585.32143
2745.01513	27513.03571
2747.60079	27456.89286
2750.18486	27409.03571
2752.76733	27402.60714
2755.3482	27440.60714
2757.92747	27478.75
2760.50515	27410.03571
2763.08123	27380.89286
2765.65573	27347.46429
2768.22863	27324.17857
2770.79994	27283.17857
2773.36967	27262.75
2775.9378	27301.32143
2778.50435	27309.75
2781.06932	27231.46429
2783.6327	27257.03571
2786.1945	27243.03571
2788.75471	27193.03571
2791.31335	27104.75
2793.87041	27099.60714
2796.42589	27024.17857
2798.97979	27072.03571
2801.53212	27021.32143
2804.08288	26947.60714
2806.63206	26876.17857
2809.17967	26833.60714
2811.72571	26794.32143
2814.27018	26815.46429
2816.81308	26747.60714
2819.35442	26648.89286
2821.89419	26591.89286
2824.43239	26611.89286
2826.96904	26604.75
2829.50412	26585.32143
2832.03763	26545.60714
2834.56959	26542.89286
2837.1	26519.60714
2839.62884	26526.46429
2842.15613	26445.89286
2844.68186	26468.60714
2847.20604	26476.60714
2849.72867	26452.46429
2852.24974	26435.03571
2854.76927	26442.89286
2857.28724	26365.32143
2859.80367	26350.03571
2862.31855	26314.75
2864.83189	26275.32143
2867.34368	26179.75
2869.85393	26248.32143
2872.36264	26204.32143
2874.8698	26181.32143
2877.37543	26152.89286
2879.87952	26163.03571
2882.38207	26191.32143
2884.88308	26125.75
2887.38256	26156.75
2889.88051	26146.17857
2892.37692	26211.60714
2894.8718	26196.17857
2897.36515	26263.03571
2899.85698	26269.03571
2902.34727	26323.17857
2904.83604	26307.03571
2907.32328	26339.03571
2909.809	26343.89286
2912.29319	26382.17857
2914.77587	26390.89286
2917.25702	26368.17857
2919.73665	26308.60714
2922.21476	26357.46429
2924.69136	26318.32143
2927.16644	26319.03571
2929.64	26287.60714
2932.11205	26243.60714
2934.58258	26166.75
2937.05161	26272.46429
2939.51912	26228.17857
2941.98513	26261.75
2944.44962	26184.32143
2946.91261	26132.60714
2949.37409	26195.89286
2951.83407	26201.75
2954.29254	26226.32143
2956.74951	26175.03571
2959.20498	26166.46429
2961.65895	26131.32143
2964.11142	26202.03571
2966.56239	26099.46429
2969.01186	26108.60714
2971.45984	26114.89286
2973.90632	26027.89286
2976.35131	25984.75
2978.7948	25977.75
2981.23681	25901.46429
2983.67732	25870.75
2986.11635	25787.32143
2988.55388	25744.46429
2990.98993	25689.89286
2993.4245	25657.17857
2995.85758	25670.32143
2998.28917	25655.46429
3000.71928	25583.17857
3003.14791	25545.03571
3005.57506	25570.17857
3008.00073	25457.17857
3010.42493	25529.46429
3012.84764	25449.03571
3015.26888	25407.03571
3017.68865	25377.17857
3020.10694	25344.03571
3022.52376	25257.75
3024.9391	25247.75
3027.35298	25191.03571
3029.76539	25255.60714
3032.17632	25191.60714
3034.5858	25206.03571
3036.9938	25136.03571
3039.40034	25194.32143
3041.80542	25171.75
3044.20903	25084.46429
3046.61118	25138.32143
3049.01187	25057.17857
3051.4111	25061.75
3053.80888	25008.89286
3056.20519	24955.60714
3058.60005	24926.32143
3060.99345	24911.17857
3063.3854	24822.89286
3065.7759	24754.32143
3068.16494	24683.60714
3070.55254	24644.60714
3072.93868	24614.17857
3075.32338	24574.60714
3077.70662	24566.89286
3080.08842	24497.17857
3082.46878	24467.60714
3084.84769	24451.46429
3087.22515	24445.60714
3089.60118	24447.46429
3091.97576	24455.60714
3094.3489	24462.75
3096.72061	24498.17857
3099.09087	24471.17857
3101.4597	24419.32143
3103.82709	24408.17857
3106.19305	24386.03571
3108.55757	24447.17857
3110.92066	24361.89286
3113.28232	24351.46429
3115.64255	24267.60714
3118.00134	24254.32143
3120.35871	24168.03571
3122.71466	24144.60714
3125.06917	24104.75
3127.42226	24081.17857
3129.77393	24103.46429
3132.12417	24017.89286
3134.47299	24016.17857
3136.82039	23977.03571
3139.16636	24006.60714
3141.51092	23989.60714
3143.85406	23957.60714
3146.19579	23981.75
3148.53609	24007.89286
3150.87499	24048.89286
3153.21246	24016.03571
3155.54853	24071.89286
3157.88318	24040.75
3160.21642	24122.89286
3162.54826	24114.17857
3164.87868	24100.17857
3167.2077	24034.75
3169.5353	24082.46429
3171.86151	24072.75
3174.18631	24073.03571
3176.5097	24103.89286
3178.83169	24011.03571
3181.15228	24003.17857
3183.47147	23920.46429
3185.78926	23913.89286
3188.10565	23901.32143
3190.42065	23861.46429
3192.73424	23856.75
3195.04645	23809.03571
3197.35725	23820.46429
3199.66667	23834.46429
3201.97469	23808.89286
3204.28132	23819.89286
3206.58656	23859.60714
3208.8904	23875.75
3211.19287	23892.32143
3213.49394	23880.89286
3215.79363	23950.32143
3218.09193	23948.03571
3220.38884	23927.89286
3222.68438	23950.46429
3224.97853	23969.75
3227.2713	23958.03571
3229.56269	23873.03571
3231.8527	23928.60714
3234.14133	23866.17857
3236.42858	23797.60714
3238.71446	23720.89286
3240.99896	23679.89286
3243.28209	23679.32143
3245.56384	23648.03571
3247.84423	23647.60714
3250.12324	23614.03571
3252.40088	23600.17857
3254.67715	23581.17857
3256.95205	23595.75
3259.22558	23593.46429
3261.49775	23549.89286
3263.76855	23562.75
3266.03799	23498.75
3268.30606	23493.89286
3270.57277	23487.32143
3272.83812	23449.60714
3275.10211	23411.60714
3277.36474	23410.32143
3279.62601	23397.46429
3281.88593	23349.75
3284.14448	23369.46429
3286.40168	23345.17857
3288.65753	23323.17857
3290.91202	23300.32143
3293.16516	23228.46429
3295.41695	23234.46429
3297.66738	23092.17857
3299.91647	23015.03571
3302.16421	22858.89286
3304.4106	22772.89286
3306.65564	22591.75
3308.89933	22463.32143
3311.14169	22339.17857
3313.38269	22121.60714
3315.62236	21997.32143
3317.86068	21839.60714
3320.09766	21666.46429
3322.3333	21543.32143
3324.5676	21481.03571
3326.80056	21153.32143
3329.03219	21013.75
3331.26248	3.60714
3333.49143	-0.67857
3335.71905	-0.96429
