Data from AgNPs_FTO_APTES_UA_10uM_CRN_50uM_R6G_10uM_NaF_0.1M_Addition_RamanShift__25__17-04-34-843.txt Node

Date: Thu Feb 17 17:04:34 GMT 2022
User: TCL
Spectrometer: QEP01345
Trigger mode: 4
Integration Time (sec): 1.000000E1
Scans to average: 7
Electric dark correction enabled: true
Nonlinearity correction enabled: false
Boxcar width: 0
XAxis mode: Raman Shifts
Number of Pixels in Spectrum: 1044
>>>>>Begin Spectral Data<<<<<
46.04893	0.23214
50.45542	-0.48214
54.85868	0.51786
59.25871	-0.625
63.6555	73.94643
68.04907	74.66071
72.43941	83.66071
76.82654	85.94643
81.21044	89.94643
85.59113	92.80357
89.96862	99.51786
94.34289	95.375
98.71396	100.08929
103.08183	103.23214
107.4465	110.66071
111.80798	105.80357
116.16626	113.80357
120.52136	116.375
124.87327	120.375
129.222	126.80357
133.56755	127.375
137.90993	142.08929
142.24913	150.66071
146.58517	173.23214
150.91804	195.94643
155.24774	231.80357
159.57429	290.08929
163.89768	362.80357
168.21792	490.51786
172.53501	675.375
176.84895	946.23214
181.15975	1321.94643
185.46741	1860.80357
189.77193	2580.80357
194.07331	3459.94643
198.37157	4485.375
202.6667	5598.375
206.9587	6706.23214
211.24758	7813.51786
215.53334	8974.80357
219.81599	10240.08929
224.09553	11680.80357
228.37195	13320.94643
232.64527	15027.66071
236.91549	16829.375
241.18261	18412.375
245.44663	19777.08929
249.70755	20958.23214
253.96539	21926.375
258.22014	22757.51786
262.4718	23354.51786
266.72039	23680.51786
270.96589	23676.51786
275.20832	23353.08929
279.44768	22777.23214
283.68397	22159.66071
287.91719	21766.375
292.14735	21760.375
296.37445	22286.94643
300.59849	23321.23214
304.81948	24611.94643
309.03742	25496.66071
313.25231	25585.08929
317.46415	24349.375
321.67296	22443.80357
325.87872	20806.80357
330.08145	20026.23214
334.28114	20058.94643
338.47781	20518.23214
342.67145	21243.08929
346.86207	22244.08929
351.04966	23744.23214
355.23424	25469.51786
359.4158	26738.375
363.59435	27272.94643
367.76989	27444.80357
371.94243	27343.375
376.11196	27111.375
380.27849	26879.51786
384.44203	26483.51786
388.60257	26085.08929
392.76012	25805.375
396.91468	25871.375
401.06626	26482.23214
405.21485	26905.80357
409.36047	26368.66071
413.50311	24839.51786
417.64277	23369.51786
421.77947	22376.23214
425.9132	21997.80357
430.04396	21868.08929
434.17176	21919.66071
438.2966	22281.51786
442.41849	22772.375
446.53742	23429.80357
450.6534	24015.80357
454.76644	24443.375
458.87653	24518.375
462.98368	24251.66071
467.08789	23971.80357
471.18916	23475.23214
475.2875	22890.80357
479.38291	22460.08929
483.4754	22079.66071
487.56496	21768.08929
491.6516	21573.375
495.73531	21535.66071
499.81612	21619.08929
503.89401	21889.80357
507.96899	22249.51786
512.04106	22788.375
516.11023	23350.94643
520.1765	23777.08929
524.23987	23875.94643
528.30034	23548.51786
532.35792	23150.51786
536.41261	22797.66071
540.46441	22260.80357
544.51333	21901.23214
548.55936	21933.23214
552.60252	22236.66071
556.64279	22648.80357
560.6802	22876.80357
564.71473	23287.375
568.7464	24219.23214
572.7752	24630.08929
576.80114	23555.51786
580.82422	22363.23214
584.84444	21917.66071
588.86181	21852.94643
592.87633	22136.23214
596.888	22539.375
600.89682	23464.375
604.9028	26530.66071
608.90594	34799.08929
612.90624	45957.08929
616.90371	44228.94643
620.89834	30762.94643
624.89015	24373.80357
628.87913	23238.51786
632.86528	23447.23214
636.84862	23829.51786
640.82913	23391.375
644.80683	22299.80357
648.78172	21488.66071
652.75379	21529.375
656.72306	22380.94643
660.68952	23503.94643
664.65319	23278.375
668.61405	22147.94643
672.57211	21694.08929
676.52738	21705.94643
680.47986	21676.23214
684.42955	21440.375
688.37646	21244.80357
692.32058	21247.66071
696.26192	21362.80357
700.20048	21580.375
704.13626	21709.23214
708.06928	21553.94643
711.99952	21317.94643
715.927	21322.08929
719.85171	21489.66071
723.77365	21608.51786
727.69284	21596.66071
731.60928	21507.94643
735.52295	21451.80357
739.43388	21510.66071
743.34206	21679.375
747.24749	21690.375
751.15017	21652.51786
755.05012	21895.375
758.94733	22802.80357
762.8418	25387.80357
766.73354	29809.94643
770.62254	34344.94643
774.50882	36991.66071
778.39237	35851.23214
782.27321	31127.66071
786.15132	26207.23214
790.02671	23348.375
793.89938	22073.94643
797.76935	21590.80357
801.6366	21418.08929
805.50115	21301.51786
809.36299	21210.51786
813.22213	21082.66071
817.07857	21047.51786
820.93231	21010.23214
824.78336	21127.375
828.63172	21227.51786
832.47738	21280.51786
836.32036	21260.375
840.16066	21161.08929
843.99827	21089.94643
847.8332	21065.51786
851.66546	20976.375
855.49504	20987.66071
859.32195	21020.94643
863.1462	21022.94643
866.96777	20979.51786
870.78668	20984.66071
874.60293	21008.08929
878.41652	21109.375
882.22745	21251.66071
886.03573	21358.375
889.84136	21281.23214
893.64433	21180.375
897.44466	21106.23214
901.24235	21046.375
905.0374	20959.23214
908.8298	20778.51786
912.61957	20650.375
916.40671	20643.08929
920.19121	20751.66071
923.97308	20931.66071
927.75233	21329.23214
931.52895	21744.94643
935.30295	21658.66071
939.07433	21076.66071
942.84309	20551.94643
946.60924	20187.08929
950.37278	20039.94643
954.13371	19897.23214
957.89203	19792.08929
961.64774	19750.23214
965.40086	19656.80357
969.15137	19582.66071
972.89929	19526.375
976.64461	19486.51786
980.38733	19525.23214
984.12747	19606.08929
987.86502	19720.51786
991.59999	19892.375
995.33237	20194.375
999.06217	20747.375
1002.78939	21287.66071
1006.51404	21711.08929
1010.23611	21940.23214
1013.95561	22113.80357
1017.67255	22161.66071
1021.38692	21987.08929
1025.09872	21814.51786
1028.80796	21906.08929
1032.51465	22399.08929
1036.21877	22911.23214
1039.92035	23041.23214
1043.61937	22863.80357
1047.31584	22462.94643
1051.00976	21957.375
1054.70114	21590.23214
1058.38998	21407.375
1062.07627	21317.94643
1065.76003	21222.51786
1069.44126	21219.51786
1073.11995	21359.23214
1076.79611	21632.375
1080.46974	22127.08929
1084.14085	22834.23214
1087.80943	23449.08929
1091.47549	23610.94643
1095.13903	23168.94643
1098.80005	22404.66071
1102.45857	21918.375
1106.11456	21883.375
1109.76805	22183.80357
1113.41903	22932.23214
1117.06751	23900.23214
1120.71348	25126.375
1124.35696	26508.23214
1127.99793	27426.23214
1131.63641	26958.08929
1135.2724	25501.08929
1138.90589	24129.51786
1142.5369	23187.51786
1146.16542	22528.51786
1149.79145	22103.94643
1153.415	21950.375
1157.03607	22021.80357
1160.65467	22357.375
1164.27079	23057.51786
1167.88443	24200.51786
1171.49561	25900.375
1175.10432	28788.80357
1178.71056	32825.375
1182.31434	36223.94643
1185.91565	37179.80357
1189.51451	35868.80357
1193.11091	33138.66071
1196.70485	30394.66071
1200.29634	28582.66071
1203.88538	27296.66071
1207.47197	25766.94643
1211.05612	24377.375
1214.63782	23563.08929
1218.21708	23293.375
1221.79391	23282.51786
1225.36829	23380.08929
1228.94024	23349.80357
1232.50976	23146.94643
1236.07685	23051.66071
1239.6415	23159.375
1243.20374	23400.94643
1246.76355	23649.94643
1250.32093	24032.23214
1253.8759	24580.08929
1257.42845	25262.51786
1260.97859	26161.08929
1264.52631	26952.94643
1268.07163	27771.94643
1271.61453	28504.94643
1275.15503	29025.66071
1278.69312	29301.23214
1282.22882	29569.80357
1285.76211	30095.51786
1289.29301	30901.94643
1292.82151	31716.51786
1296.34761	32736.375
1299.87133	34616.80357
1303.39266	37984.80357
1306.9116	43182.23214
1310.42815	48423.80357
1313.94233	50195.51786
1317.45412	47198.66071
1320.96354	42152.80357
1324.47058	37424.23214
1327.97525	33753.66071
1331.47754	31702.94643
1334.97747	31066.80357
1338.47502	31650.66071
1341.97022	33178.375
1345.46305	35428.51786
1348.95352	38507.51786
1352.44163	42395.08929
1355.92738	48109.94643
1359.41078	56514.375
1362.89183	63196.23214
1366.37053	59589.23214
1369.84688	48614.51786
1373.32088	39431.08929
1376.79254	33925.23214
1380.26186	30860.80357
1383.72883	29074.375
1387.19347	27786.375
1390.65578	26504.23214
1394.11575	25618.375
1397.57339	25149.80357
1401.0287	25071.23214
1404.48168	25132.08929
1407.93234	25294.94643
1411.38068	25667.23214
1414.82669	26082.375
1418.27039	26183.23214
1421.71177	25998.51786
1425.15083	25661.80357
1428.58758	25573.08929
1432.02203	25900.23214
1435.45416	26167.08929
1438.88399	26177.375
1442.31151	26088.66071
1445.73673	26159.94643
1449.15965	26241.51786
1452.58027	26194.66071
1455.9986	25894.80357
1459.41463	25789.51786
1462.82837	26012.08929
1466.23982	26563.94643
1469.64898	27117.375
1473.05586	27511.08929
1476.46045	27798.08929
1479.86276	28206.23214
1483.26279	28842.08929
1486.66054	29718.08929
1490.05602	30911.375
1493.44922	32656.23214
1496.84016	35151.94643
1500.22882	39296.94643
1503.61521	45221.80357
1506.99934	52451.66071
1510.38121	58286.66071
1513.76081	59405.80357
1517.13816	54423.80357
1520.51324	46139.08929
1523.88607	38794.94643
1527.25665	34078.94643
1530.62498	31296.66071
1533.99105	29764.08929
1537.35488	28791.80357
1540.71647	28442.66071
1544.07581	28410.375
1547.4329	28602.08929
1550.78776	28925.23214
1554.14038	29168.66071
1557.49077	29599.66071
1560.83892	30166.23214
1564.18484	31153.08929
1567.52853	32238.66071
1570.86999	32993.94643
1574.20922	33442.94643
1577.54624	32978.51786
1580.88103	31085.51786
1584.2136	28776.94643
1587.54395	27511.51786
1590.87208	27725.08929
1594.19801	29256.08929
1597.52172	31406.375
1600.84321	32325.375
1604.16251	31315.23214
1607.47959	29443.23214
1610.79447	27459.51786
1614.10715	25594.375
1617.41763	24135.375
1620.7259	23337.80357
1624.03199	23002.375
1627.33587	23158.23214
1630.63757	23751.375
1633.93707	24833.375
1637.23439	26514.94643
1640.52951	29013.94643
1643.82246	32912.375
1647.11321	37539.08929
1650.40179	40744.66071
1653.68819	39327.80357
1656.97241	33851.08929
1660.25446	28226.23214
1663.53433	24558.66071
1666.81203	22485.375
1670.08756	21270.51786
1673.36092	20550.23214
1676.63211	20124.80357
1679.90115	19819.80357
1683.16801	19517.08929
1686.43272	19371.94643
1689.69527	19230.23214
1692.95567	19116.23214
1696.2139	19087.94643
1699.46999	19011.80357
1702.72392	19023.375
1705.97571	18966.94643
1709.22535	18989.08929
1712.47284	18977.23214
1715.71819	19002.23214
1718.96139	18966.23214
1722.20246	18905.80357
1725.44139	18836.23214
1728.67818	18723.94643
1731.91284	18615.375
1735.14537	18474.80357
1738.37576	18398.66071
1741.60403	18364.23214
1744.83017	18322.23214
1748.05418	18317.66071
1751.27607	18226.66071
1754.49584	18226.80357
1757.71349	18197.94643
1760.92903	18169.23214
1764.14244	18112.80357
1767.35375	18106.375
1770.56294	17982.375
1773.77002	17952.66071
1776.97499	17936.375
1780.17785	17905.08929
1783.37861	17874.08929
1786.57727	17826.23214
1789.77382	17765.375
1792.96828	17802.23214
1796.16064	17787.08929
1799.3509	17749.08929
1802.53907	17691.51786
1805.72514	17639.23214
1808.90913	17645.08929
1812.09102	17614.08929
1815.27083	17538.23214
1818.44856	17541.08929
1821.6242	17518.80357
1824.79776	17482.51786
1827.96924	17445.80357
1831.13864	17391.23214
1834.30597	17374.94643
1837.47122	17374.80357
1840.6344	17325.375
1843.7955	17341.51786
1846.95454	17337.51786
1850.11151	17329.08929
1853.26642	17376.80357
1856.41926	17302.94643
1859.57004	17293.80357
1862.71876	17303.51786
1865.86542	17344.80357
1869.01003	17353.51786
1872.15258	17285.66071
1875.29308	17309.375
1878.43152	17269.80357
1881.56792	17285.94643
1884.70227	17321.08929
1887.83457	17284.66071
1890.96482	17238.94643
1894.09304	17258.08929
1897.21921	17255.66071
1900.34335	17228.23214
1903.46544	17146.23214
1906.58551	17195.375
1909.70353	17164.375
1912.81953	17144.375
1915.93349	17131.66071
1919.04543	17120.375
1922.15534	17129.08929
1925.26322	17037.23214
1928.36908	17029.80357
1931.47292	17005.51786
1934.57473	16977.23214
1937.67453	16973.80357
1940.77232	16894.375
1943.86808	16847.375
1946.96184	16792.66071
1950.05358	16746.80357
1953.14331	16715.23214
1956.23103	16675.80357
1959.31675	16647.80357
1962.40046	16619.94643
1965.48217	16572.51786
1968.56188	16551.80357
1971.63959	16518.66071
1974.7153	16528.80357
1977.78901	16454.94643
1980.86073	16363.94643
1983.93046	16323.66071
1986.99819	16281.94643
1990.06394	16192.08929
1993.1277	16157.51786
1996.18947	16066.51786
1999.24925	16075.08929
2002.30706	15978.08929
2005.36288	15930.375
2008.41672	15920.23214
2011.46859	15846.23214
2014.51848	15837.08929
2017.56639	15757.23214
2020.61233	15740.51786
2023.6563	15685.375
2026.6983	15652.375
2029.73833	15650.80357
2032.7764	15568.375
2035.8125	15560.23214
2038.84664	15586.80357
2041.87881	15555.94643
2044.90903	15500.80357
2047.93729	15513.66071
2050.96359	15461.375
2053.98794	15463.80357
2057.01034	15440.51786
2060.03078	15400.375
2063.04927	15415.51786
2066.06582	15387.375
2069.08042	15360.51786
2072.09307	15359.08929
2075.10378	15388.66071
2078.11255	15366.66071
2081.11938	15343.51786
2084.12426	15317.08929
2087.12722	15337.375
2090.12824	15323.51786
2093.12732	15327.23214
2096.12447	15349.66071
2099.11969	15340.375
2102.11299	15347.375
2105.10435	15354.66071
2108.09379	15391.375
2111.08131	15358.66071
2114.0669	15400.23214
2117.05057	15404.66071
2120.03233	15421.80357
2123.01216	15483.23214
2125.99008	15483.51786
2128.96609	15501.375
2131.94018	15495.94643
2134.91236	15511.08929
2137.88263	15518.80357
2140.851	15512.51786
2143.81746	15501.375
2146.78201	15559.66071
2149.74466	15526.08929
2152.7054	15504.94643
2155.66425	15489.51786
2158.6212	15447.375
2161.57625	15473.08929
2164.52941	15508.375
2167.48067	15472.80357
2170.43004	15472.94643
2173.37752	15479.80357
2176.32311	15484.08929
2179.26681	15495.51786
2182.20863	15504.08929
2185.14856	15533.66071
2188.08661	15499.23214
2191.02278	15537.80357
2193.95707	15505.23214
2196.88948	15475.23214
2199.82001	15466.94643
2202.74867	15456.375
2205.67545	15443.08929
2208.60037	15452.66071
2211.52341	15462.51786
2214.44458	15442.80357
2217.36388	15434.66071
2220.28132	15394.23214
2223.1969	15345.80357
2226.11061	15326.375
2229.02246	15280.375
2231.93245	15244.08929
2234.84058	15217.80357
2237.74686	15183.80357
2240.65128	15193.66071
2243.55385	15196.08929
2246.45456	15176.08929
2249.35343	15214.51786
2252.25044	15190.08929
2255.14561	15168.94643
2258.03893	15197.375
2260.93041	15154.375
2263.82004	15157.08929
2266.70783	15123.94643
2269.59378	15071.94643
2272.4779	15053.51786
2275.36017	14999.51786
2278.24061	15001.80357
2281.11922	14916.94643
2283.996	14937.51786
2286.87094	14895.94643
2289.74405	14861.375
2292.61534	14876.80357
2295.4848	14865.66071
2298.35243	14833.51786
2301.21824	14863.23214
2304.08223	14843.08929
2306.94439	14852.08929
2309.80474	14877.51786
2312.66327	14870.23214
2315.51999	14873.94643
2318.37489	14886.375
2321.22797	14888.51786
2324.07925	14855.94643
2326.92871	14797.94643
2329.77637	14733.94643
2332.62222	14779.08929
2335.46626	14797.08929
2338.3085	14761.66071
2341.14893	14760.66071
2343.98756	14809.51786
2346.8244	14797.80357
2349.65943	14780.51786
2352.49267	14837.94643
2355.32411	14837.375
2358.15376	14808.94643
2360.98161	14826.66071
2363.80768	14823.80357
2366.63195	14810.51786
2369.45444	14823.51786
2372.27514	14783.23214
2375.09405	14757.51786
2377.91118	14698.08929
2380.72652	14683.375
2383.54009	14626.08929
2386.35187	14599.80357
2389.16188	14501.66071
2391.97011	14489.94643
2394.77657	14486.94643
2397.58125	14424.23214
2400.38416	14448.94643
2403.18529	14359.80357
2405.98466	14353.08929
2408.78226	14343.23214
2411.57809	14298.375
2414.37216	14269.23214
2417.16446	14263.94643
2419.955	14233.375
2422.74378	14243.80357
2425.5308	14233.51786
2428.31606	14225.08929
2431.09956	14256.80357
2433.88131	14252.08929
2436.6613	14225.80357
2439.43954	14232.94643
2442.21603	14214.80357
2444.99077	14212.375
2447.76377	14218.51786
2450.53501	14223.94643
2453.30451	14252.23214
2456.07226	14217.66071
2458.83827	14201.375
2461.60254	14191.80357
2464.36507	14186.375
2467.12586	14163.80357
2469.88492	14166.94643
2472.64224	14167.23214
2475.39782	14178.51786
2478.15167	14194.23214
2480.90379	14232.51786
2483.65417	14267.66071
2486.40283	14324.66071
2489.14976	14327.94643
2491.89497	14313.80357
2494.63845	14328.80357
2497.3802	14332.08929
2500.12024	14313.51786
2502.85855	14271.80357
2505.59514	14259.375
2508.33002	14194.80357
2511.06318	14132.23214
2513.79462	14093.66071
2516.52435	14062.51786
2519.25237	14027.80357
2521.97867	13962.51786
2524.70327	13995.08929
2527.42616	13941.23214
2530.14734	13977.66071
2532.86681	13936.94643
2535.58458	13936.375
2538.30065	13966.23214
2541.01501	13935.08929
2543.72768	13961.375
2546.43864	13889.80357
2549.14791	13905.94643
2551.85548	13914.08929
2554.56136	13872.23214
2557.26554	13871.375
2559.96803	13877.375
2562.66883	13854.66071
2565.36794	13837.23214
2568.06536	13840.23214
2570.7611	13760.80357
2573.45514	13748.94643
2576.14751	13733.80357
2578.83819	13726.94643
2581.52719	13741.80357
2584.21451	13663.51786
2586.90015	13695.08929
2589.58411	13644.66071
2592.2664	13679.66071
2594.94701	13647.80357
2597.62594	13638.51786
2600.30321	13636.94643
2602.9788	13606.08929
2605.65273	13572.23214
2608.32498	13602.375
2610.99557	13582.66071
2613.66449	13597.08929
2616.33175	13578.66071
2618.99734	13579.08929
2621.66128	13559.23214
2624.32355	13550.51786
2626.98416	13561.375
2629.64311	13551.51786
2632.30041	13537.375
2634.95605	13530.23214
2637.61004	13472.375
2640.26238	13479.66071
2642.91306	13443.375
2645.56209	13440.80357
2648.20948	13433.51786
2650.85521	13420.94643
2653.4993	13370.66071
2656.14175	13433.66071
2658.78255	13422.51786
2661.42171	13410.08929
2664.05923	13493.66071
2666.6951	13490.51786
2669.32934	13482.375
2671.96194	13465.51786
2674.59291	13498.94643
2677.22224	13483.80357
2679.84993	13495.80357
2682.476	13458.51786
2685.10043	13457.80357
2687.72324	13435.94643
2690.34441	13459.80357
2692.96396	13459.08929
2695.58188	13456.23214
2698.19818	13424.08929
2700.81285	13399.23214
2703.4259	13414.375
2706.03733	13413.66071
2708.64714	13415.23214
2711.25533	13417.66071
2713.86191	13433.08929
2716.46687	13451.94643
2719.07021	13455.375
2721.67194	13475.375
2724.27206	13455.66071
2726.87057	13473.08929
2729.46747	13482.51786
2732.06276	13442.375
2734.65644	13429.94643
2737.24852	13410.80357
2739.83899	13400.375
2742.42786	13393.23214
2745.01513	13345.23214
2747.60079	13344.08929
2750.18486	13329.51786
2752.76733	13311.94643
2755.3482	13330.80357
2757.92747	13322.94643
2760.50515	13327.80357
2763.08123	13299.80357
2765.65573	13283.375
2768.22863	13278.66071
2770.79994	13230.94643
2773.36967	13268.375
2775.9378	13235.66071
2778.50435	13233.66071
2781.06932	13248.94643
2783.6327	13248.51786
2786.1945	13232.23214
2788.75471	13219.375
2791.31335	13184.51786
2793.87041	13176.80357
2796.42589	13155.66071
2798.97979	13212.08929
2801.53212	13122.375
2804.08288	13127.23214
2806.63206	13139.23214
2809.17967	13148.80357
2811.72571	13138.23214
2814.27018	13118.23214
2816.81308	13089.08929
2819.35442	13115.66071
2821.89419	13105.23214
2824.43239	13080.23214
2826.96904	13103.51786
2829.50412	13098.94643
2832.03763	13084.23214
2834.56959	13099.375
2837.1	13051.66071
2839.62884	13076.51786
2842.15613	13053.94643
2844.68186	13072.94643
2847.20604	13071.375
2849.72867	13107.375
2852.24974	13100.375
2854.76927	13109.80357
2857.28724	13108.66071
2859.80367	13103.08929
2862.31855	13082.51786
2864.83189	13087.51786
2867.34368	13065.23214
2869.85393	13119.66071
2872.36264	13108.51786
2874.8698	13125.51786
2877.37543	13059.80357
2879.87952	13040.66071
2882.38207	13035.66071
2884.88308	13033.375
2887.38256	13041.51786
2889.88051	13052.51786
2892.37692	13046.375
2894.8718	13047.80357
2897.36515	13029.08929
2899.85698	13011.375
2902.34727	13039.80357
2904.83604	13067.23214
2907.32328	13088.66071
2909.809	13078.80357
2912.29319	13108.08929
2914.77587	13090.51786
2917.25702	13065.23214
2919.73665	13049.375
2922.21476	13041.94643
2924.69136	13025.94643
2927.16644	13056.66071
2929.64	13021.51786
2932.11205	12998.23214
2934.58258	12957.94643
2937.05161	12974.51786
2939.51912	12947.66071
2941.98513	12956.51786
2944.44962	12932.23214
2946.91261	12894.94643
2949.37409	12901.08929
2951.83407	12895.23214
2954.29254	12876.80357
2956.74951	12895.51786
2959.20498	12890.80357
2961.65895	12865.51786
2964.11142	12861.23214
2966.56239	12822.375
2969.01186	12804.66071
2971.45984	12774.94643
2973.90632	12765.375
2976.35131	12744.66071
2978.7948	12713.80357
2981.23681	12712.23214
2983.67732	12683.66071
2986.11635	12672.375
2988.55388	12627.08929
2990.98993	12631.66071
2993.4245	12610.66071
2995.85758	12574.80357
2998.28917	12550.375
3000.71928	12573.94643
3003.14791	12555.375
3005.57506	12551.51786
3008.00073	12491.375
3010.42493	12518.66071
3012.84764	12477.51786
3015.26888	12476.80357
3017.68865	12473.51786
3020.10694	12423.51786
3022.52376	12418.375
3024.9391	12405.80357
3027.35298	12365.80357
3029.76539	12361.23214
3032.17632	12333.23214
3034.5858	12319.23214
3036.9938	12294.375
3039.40034	12305.08929
3041.80542	12292.23214
3044.20903	12259.94643
3046.61118	12236.23214
3049.01187	12222.375
3051.4111	12205.80357
3053.80888	12182.94643
3056.20519	12190.66071
3058.60005	12123.94643
3060.99345	12146.08929
3063.3854	12105.23214
3065.7759	12072.23214
3068.16494	12034.66071
3070.55254	12020.51786
3072.93868	11998.23214
3075.32338	11983.80357
3077.70662	11924.66071
3080.08842	11933.375
3082.46878	11899.23214
3084.84769	11883.375
3087.22515	11903.375
3089.60118	11905.08929
3091.97576	11904.375
3094.3489	11911.66071
3096.72061	11912.66071
3099.09087	11921.375
3101.4597	11871.375
3103.82709	11881.23214
3106.19305	11864.51786
3108.55757	11902.66071
3110.92066	11845.08929
3113.28232	11896.375
3115.64255	11852.51786
3118.00134	11834.375
3120.35871	11815.51786
3122.71466	11804.94643
3125.06917	11772.08929
3127.42226	11732.94643
3129.77393	11752.80357
3132.12417	11754.23214
3134.47299	11756.66071
3136.82039	11749.66071
3139.16636	11756.66071
3141.51092	11768.23214
3143.85406	11775.08929
3146.19579	11784.80357
3148.53609	11797.23214
3150.87499	11798.51786
3153.21246	11824.23214
3155.54853	11836.51786
3157.88318	11827.94643
3160.21642	11848.80357
3162.54826	11866.375
3164.87868	11875.66071
3167.2077	11853.80357
3169.5353	11861.375
3171.86151	11856.08929
3174.18631	11863.51786
3176.5097	11877.66071
3178.83169	11819.80357
3181.15228	11840.08929
3183.47147	11825.94643
3185.78926	11831.51786
3188.10565	11823.23214
3190.42065	11793.375
3192.73424	11797.375
3195.04645	11809.375
3197.35725	11815.08929
3199.66667	11814.08929
3201.97469	11842.94643
3204.28132	11834.80357
3206.58656	11841.08929
3208.8904	11912.80357
3211.19287	11904.08929
3213.49394	11902.23214
3215.79363	11922.23214
3218.09193	11949.66071
3220.38884	11930.51786
3222.68438	11974.23214
3224.97853	11971.66071
3227.2713	11977.94643
3229.56269	11958.08929
3231.8527	11916.23214
3234.14133	11915.08929
3236.42858	11916.80357
3238.71446	11903.66071
3240.99896	11872.51786
3243.28209	11865.375
3245.56384	11861.23214
3247.84423	11869.80357
3250.12324	11848.94643
3252.40088	11832.23214
3254.67715	11840.23214
3256.95205	11861.375
3259.22558	11849.23214
3261.49775	11852.94643
3263.76855	11826.66071
3266.03799	11820.51786
3268.30606	11808.375
3270.57277	11817.23214
3272.83812	11802.375
3275.10211	11751.375
3277.36474	11702.08929
3279.62601	11737.51786
3281.88593	11721.80357
3284.14448	11713.375
3286.40168	11742.08929
3288.65753	11715.51786
3290.91202	11713.375
3293.16516	11720.51786
3295.41695	11681.66071
3297.66738	11649.08929
3299.91647	11612.80357
3302.16421	11575.375
3304.4106	11474.23214
3306.65564	11408.08929
3308.89933	11315.94643
3311.14169	11234.08929
3313.38269	11166.375
3315.62236	11066.23214
3317.86068	10987.23214
3320.09766	10901.80357
3322.3333	10866.375
3324.5676	10787.51786
3326.80056	10648.23214
3329.03219	10578.94643
3331.26248	1.66071
3333.49143	-2.05357
3335.71905	-0.76786
