Data from AgNPs_FTO_APTES_UA_10uM_CRN_50uM_R6G_10uM_NaF_0.1M_Addition_RamanShift__21__16-59-54-837.txt Node

Date: Thu Feb 17 16:59:54 GMT 2022
User: TCL
Spectrometer: QEP01345
Trigger mode: 4
Integration Time (sec): 1.000000E1
Scans to average: 7
Electric dark correction enabled: true
Nonlinearity correction enabled: false
Boxcar width: 0
XAxis mode: Raman Shifts
Number of Pixels in Spectrum: 1044
>>>>>Begin Spectral Data<<<<<
46.04893	-1.10714
50.45542	-1.67857
54.85868	-0.53571
59.25871	-0.67857
63.6555	70.75
68.04907	72.17857
72.43941	80.46429
76.82654	84.32143
81.21044	85.75
85.59113	90.46429
89.96862	95.89286
94.34289	92.89286
98.71396	102.46429
103.08183	100.03571
107.4465	106.46429
111.80798	102.89286
116.16626	110.03571
120.52136	109.89286
124.87327	118.17857
129.222	118.32143
133.56755	123.89286
137.90993	135.17857
142.24913	139.17857
146.58517	159.46429
150.91804	183.75
155.24774	216.60714
159.57429	266.75
163.89768	331.89286
168.21792	441.46429
172.53501	597.89286
176.84895	837.03571
181.15975	1183.03571
185.46741	1668.60714
189.77193	2303.03571
194.07331	3104.32143
198.37157	4029.17857
202.6667	4996.60714
206.9587	5963.75
211.24758	6901.75
215.53334	7880.60714
219.81599	8893.75
224.09553	10009.89286
228.37195	11259.17857
232.64527	12651.89286
236.91549	14098.89286
241.18261	15515.03571
245.44663	16857.17857
249.70755	18086.32143
253.96539	19065.17857
258.22014	19968.17857
262.4718	20585.17857
266.72039	21025.32143
270.96589	21240.17857
275.20832	21259.17857
279.44768	20953.17857
283.68397	20626.46429
287.91719	20286.60714
292.14735	20111.17857
296.37445	20128.32143
300.59849	20281.32143
304.81948	20580.60714
309.03742	20696.75
313.25231	20539.32143
317.46415	20119.75
321.67296	19562.89286
325.87872	19090.17857
330.08145	18925.17857
334.28114	18985.46429
338.47781	19277.60714
342.67145	19580.89286
346.86207	20065.60714
351.04966	20588.60714
355.23424	21227.89286
359.4158	21792.75
363.59435	22183.32143
367.76989	22468.60714
371.94243	22575.17857
376.11196	22704.60714
380.27849	22760.46429
384.44203	22795.75
388.60257	22768.75
392.76012	22881.32143
396.91468	23006.89286
401.06626	23295.17857
405.21485	23556.03571
409.36047	23444.17857
413.50311	23029.03571
417.64277	22601.75
421.77947	22327.46429
425.9132	22263.32143
430.04396	22269.89286
434.17176	22424.75
438.2966	22644.60714
442.41849	22938.75
446.53742	23387.46429
450.6534	23841.17857
454.76644	24278.46429
458.87653	24465.60714
462.98368	24388.60714
467.08789	24253.17857
471.18916	23997.03571
475.2875	23697.89286
479.38291	23525.75
483.4754	23358.46429
487.56496	23178.75
491.6516	23056.46429
495.73531	22997.75
499.81612	22986.46429
503.89401	23096.75
507.96899	23336.32143
512.04106	23502.03571
516.11023	23641.46429
520.1765	23857.17857
524.23987	23923.17857
528.30034	23849.75
532.35792	23840.46429
536.41261	23716.89286
540.46441	23492.03571
544.51333	23339.75
548.55936	23253.17857
552.60252	23418.60714
556.64279	23614.75
560.6802	23577.17857
564.71473	23628.17857
568.7464	23787.17857
572.7752	23878.46429
576.80114	23688.17857
580.82422	23480.17857
584.84444	23505.75
588.86181	23681.46429
592.87633	23931.75
596.888	24306.60714
600.89682	24671.17857
604.9028	25855.89286
608.90594	28987.46429
612.90624	32814.46429
616.90371	31744.60714
620.89834	26813.75
624.89015	24555.46429
628.87913	24280.32143
632.86528	24292.46429
636.84862	24335.03571
640.82913	24229.60714
644.80683	23789.60714
648.78172	23355.46429
652.75379	23377.60714
656.72306	23646.03571
660.68952	24110.46429
664.65319	24069.17857
668.61405	23768.89286
672.57211	23799.17857
676.52738	23912.89286
680.47986	23877.32143
684.42955	23788.03571
688.37646	23578.17857
692.32058	23568.60714
696.26192	23539.89286
700.20048	23667.75
704.13626	23715.89286
708.06928	23618.89286
711.99952	23378.46429
715.927	23379.75
719.85171	23397.17857
723.77365	23436.60714
727.69284	23472.46429
731.60928	23463.75
735.52295	23491.17857
739.43388	23520.89286
743.34206	23619.32143
747.24749	23656.03571
751.15017	23626.75
755.05012	23605.17857
758.94733	23930.03571
762.8418	24808.60714
766.73354	26454.89286
770.62254	28390.03571
774.50882	29555.89286
778.39237	29036.60714
782.27321	27118.32143
786.15132	25197.32143
790.02671	24031.89286
793.89938	23453.60714
797.76935	23224.03571
801.6366	23176.17857
805.50115	23175.46429
809.36299	23076.03571
813.22213	22978.46429
817.07857	22915.75
820.93231	22929.75
824.78336	22890.60714
828.63172	22959.32143
832.47738	23028.89286
836.32036	23050.60714
840.16066	23035.03571
843.99827	23096.60714
847.8332	23100.75
851.66546	23029.46429
855.49504	23012.03571
859.32195	23098.46429
863.1462	23196.17857
866.96777	23188.32143
870.78668	23173.89286
874.60293	23137.60714
878.41652	23183.32143
882.22745	23203.32143
886.03573	23249.89286
889.84136	23231.32143
893.64433	23168.17857
897.44466	23004.03571
901.24235	22855.17857
905.0374	22803.89286
908.8298	22708.46429
912.61957	22647.75
916.40671	22686.75
920.19121	22794.60714
923.97308	22933.46429
927.75233	23146.03571
931.52895	23222.60714
935.30295	23154.03571
939.07433	22962.32143
942.84309	22675.60714
946.60924	22564.60714
950.37278	22403.75
954.13371	22366.60714
957.89203	22197.17857
961.64774	22109.46429
965.40086	21941.46429
969.15137	21897.60714
972.89929	21839.17857
976.64461	21849.75
980.38733	21854.17857
984.12747	21970.17857
987.86502	22118.17857
991.59999	22269.46429
995.33237	22559.89286
999.06217	23038.46429
1002.78939	23569.89286
1006.51404	23734.03571
1010.23611	23813.03571
1013.95561	23916.03571
1017.67255	23969.32143
1021.38692	23924.75
1025.09872	23784.17857
1028.80796	23942.17857
1032.51465	24514.60714
1036.21877	25067.32143
1039.92035	25180.46429
1043.61937	24893.46429
1047.31584	24458.46429
1051.00976	23927.75
1054.70114	23587.46429
1058.38998	23452.89286
1062.07627	23424.89286
1065.76003	23335.03571
1069.44126	23257.46429
1073.11995	23286.46429
1076.79611	23448.89286
1080.46974	23607.89286
1084.14085	23806.32143
1087.80943	23979.60714
1091.47549	24058.03571
1095.13903	23949.46429
1098.80005	23636.03571
1102.45857	23430.89286
1106.11456	23420.17857
1109.76805	23559.60714
1113.41903	23803.17857
1117.06751	24116.75
1120.71348	24550.03571
1124.35696	24888.17857
1127.99793	25312.60714
1131.63641	25467.89286
1135.2724	25110.17857
1138.90589	24566.03571
1142.5369	24129.46429
1146.16542	23768.75
1149.79145	23462.46429
1153.415	23244.89286
1157.03607	23241.17857
1160.65467	23475.60714
1164.27079	23846.46429
1167.88443	24513.89286
1171.49561	25436.46429
1175.10432	26792.89286
1178.71056	28601.46429
1182.31434	30306.89286
1185.91565	31172.75
1189.51451	30927.46429
1193.11091	29797.46429
1196.70485	28416.60714
1200.29634	27307.75
1203.88538	26501.03571
1207.47197	25733.03571
1211.05612	25059.75
1214.63782	24722.17857
1218.21708	24659.60714
1221.79391	24841.46429
1225.36829	24969.46429
1228.94024	24915.60714
1232.50976	24710.60714
1236.07685	24467.89286
1239.6415	24426.32143
1243.20374	24511.17857
1246.76355	24625.89286
1250.32093	24918.60714
1253.8759	25294.60714
1257.42845	25814.89286
1260.97859	26277.89286
1264.52631	26662.17857
1268.07163	27101.60714
1271.61453	27628.32143
1275.15503	28160.89286
1278.69312	28640.32143
1282.22882	28997.60714
1285.76211	29297.75
1289.29301	29539.03571
1292.82151	29962.46429
1296.34761	30556.60714
1299.87133	31523.46429
1303.39266	33188.03571
1306.9116	35415.75
1310.42815	37700.75
1313.94233	38770.89286
1317.45412	37783.32143
1320.96354	35827.60714
1324.47058	33717.17857
1327.97525	32028.89286
1331.47754	30888.89286
1334.97747	30437.75
1338.47502	30635.60714
1341.97022	31248.75
1345.46305	32116.75
1348.95352	33170.32143
1352.44163	34788.17857
1355.92738	36931.89286
1359.41078	39868.60714
1362.89183	42176.75
1366.37053	40980.17857
1369.84688	36478.03571
1373.32088	32187.17857
1376.79254	29486.03571
1380.26186	28054.17857
1383.72883	27268.32143
1387.19347	26715.32143
1390.65578	26090.60714
1394.11575	25691.17857
1397.57339	25545.03571
1401.0287	25558.60714
1404.48168	25707.75
1407.93234	25823.03571
1411.38068	26058.17857
1414.82669	26207.32143
1418.27039	26117.89286
1421.71177	25911.89286
1425.15083	25662.17857
1428.58758	25393.60714
1432.02203	25491.03571
1435.45416	25695.46429
1438.88399	25835.89286
1442.31151	25839.03571
1445.73673	25883.03571
1449.15965	25972.17857
1452.58027	26003.32143
1455.9986	26008.60714
1459.41463	26048.32143
1462.82837	26263.32143
1466.23982	26589.46429
1469.64898	27017.17857
1473.05586	27303.75
1476.46045	27500.89286
1479.86276	27618.03571
1483.26279	27778.89286
1486.66054	28023.89286
1490.05602	28366.60714
1493.44922	28963.32143
1496.84016	29680.17857
1500.22882	30931.32143
1503.61521	32781.89286
1506.99934	34991.03571
1510.38121	36891.75
1513.76081	37148.46429
1517.13816	35519.17857
1520.51324	32923.75
1523.88607	30472.17857
1527.25665	28927.32143
1530.62498	27999.75
1533.99105	27424.60714
1537.35488	27123.75
1540.71647	26980.75
1544.07581	26955.89286
1547.4329	26975.32143
1550.78776	26991.75
1554.14038	27005.46429
1557.49077	27151.46429
1560.83892	27307.89286
1564.18484	27555.03571
1567.52853	27849.60714
1570.86999	28024.89286
1574.20922	28170.03571
1577.54624	28102.17857
1580.88103	27496.32143
1584.2136	26753.46429
1587.54395	26460.46429
1590.87208	26937.89286
1594.19801	28030.60714
1597.52172	29490.89286
1600.84321	30212.32143
1604.16251	29681.17857
1607.47959	28361.60714
1610.79447	26924.75
1614.10715	25520.60714
1617.41763	24545.46429
1620.7259	23842.17857
1624.03199	23584.03571
1627.33587	23616.03571
1630.63757	23997.46429
1633.93707	24651.60714
1637.23439	25604.32143
1640.52951	26866.46429
1643.82246	28559.32143
1647.11321	30227.60714
1650.40179	31162.17857
1653.68819	30168.60714
1656.97241	27659.32143
1660.25446	25128.17857
1663.53433	23381.60714
1666.81203	22380.46429
1670.08756	21797.89286
1673.36092	21360.32143
1676.63211	21076.17857
1679.90115	20892.46429
1683.16801	20726.46429
1686.43272	20570.75
1689.69527	20510.32143
1692.95567	20424.32143
1696.2139	20413.75
1699.46999	20345.60714
1702.72392	20321.89286
1705.97571	20305.32143
1709.22535	20260.32143
1712.47284	20283.60714
1715.71819	20265.60714
1718.96139	20271.17857
1722.20246	20171.60714
1725.44139	20103.89286
1728.67818	20120.03571
1731.91284	20032.89286
1735.14537	19923.32143
1738.37576	19925.17857
1741.60403	19825.32143
1744.83017	19820.32143
1748.05418	19819.75
1751.27607	19797.75
1754.49584	19743.46429
1757.71349	19715.75
1760.92903	19709.75
1764.14244	19682.89286
1767.35375	19632.60714
1770.56294	19637.89286
1773.77002	19552.89286
1776.97499	19511.89286
1780.17785	19533.75
1783.37861	19492.32143
1786.57727	19492.75
1789.77382	19453.60714
1792.96828	19452.89286
1796.16064	19414.89286
1799.3509	19368.32143
1802.53907	19347.75
1805.72514	19320.46429
1808.90913	19265.32143
1812.09102	19260.32143
1815.27083	19223.03571
1818.44856	19181.89286
1821.6242	19159.03571
1824.79776	19110.17857
1827.96924	19112.32143
1831.13864	19093.60714
1834.30597	19075.75
1837.47122	19096.46429
1840.6344	19052.60714
1843.7955	19054.89286
1846.95454	19022.46429
1850.11151	19024.46429
1853.26642	19019.75
1856.41926	19012.46429
1859.57004	18996.60714
1862.71876	18979.46429
1865.86542	18990.75
1869.01003	19031.75
1872.15258	18991.75
1875.29308	19009.32143
1878.43152	18988.75
1881.56792	18934.89286
1884.70227	18920.32143
1887.83457	18917.32143
1890.96482	18910.46429
1894.09304	18841.17857
1897.21921	18824.89286
1900.34335	18869.17857
1903.46544	18855.03571
1906.58551	18826.46429
1909.70353	18829.89286
1912.81953	18768.17857
1915.93349	18743.46429
1919.04543	18765.46429
1922.15534	18744.03571
1925.26322	18664.03571
1928.36908	18639.60714
1931.47292	18633.60714
1934.57473	18595.60714
1937.67453	18562.17857
1940.77232	18523.46429
1943.86808	18435.60714
1946.96184	18428.46429
1950.05358	18413.89286
1953.14331	18318.89286
1956.23103	18315.60714
1959.31675	18298.32143
1962.40046	18249.75
1965.48217	18207.46429
1968.56188	18159.17857
1971.63959	18113.89286
1974.7153	18105.75
1977.78901	18043.03571
1980.86073	17978.32143
1983.93046	17905.75
1986.99819	17830.32143
1990.06394	17774.46429
1993.1277	17802.32143
1996.18947	17664.17857
1999.24925	17649.75
2002.30706	17598.75
2005.36288	17539.75
2008.41672	17519.75
2011.46859	17474.03571
2014.51848	17453.17857
2017.56639	17357.32143
2020.61233	17306.03571
2023.6563	17271.89286
2026.6983	17220.89286
2029.73833	17202.17857
2032.7764	17180.89286
2035.8125	17171.60714
2038.84664	17124.03571
2041.87881	17114.60714
2044.90903	17090.89286
2047.93729	17042.17857
2050.96359	17061.17857
2053.98794	17017.60714
2057.01034	17008.32143
2060.03078	17003.03571
2063.04927	16960.03571
2066.06582	16946.60714
2069.08042	16960.32143
2072.09307	16955.46429
2075.10378	16961.17857
2078.11255	16930.03571
2081.11938	16896.60714
2084.12426	16913.89286
2087.12722	16909.60714
2090.12824	16932.32143
2093.12732	16908.89286
2096.12447	16920.03571
2099.11969	16900.46429
2102.11299	16942.89286
2105.10435	16930.17857
2108.09379	16909.89286
2111.08131	16926.60714
2114.0669	16964.03571
2117.05057	16972.75
2120.03233	16969.75
2123.01216	17028.75
2125.99008	17044.60714
2128.96609	17072.17857
2131.94018	17095.32143
2134.91236	17076.17857
2137.88263	17081.75
2140.851	17077.17857
2143.81746	17126.60714
2146.78201	17147.60714
2149.74466	17133.60714
2152.7054	17128.60714
2155.66425	17137.75
2158.6212	17111.89286
2161.57625	17090.75
2164.52941	17109.17857
2167.48067	17102.17857
2170.43004	17092.75
2173.37752	17114.46429
2176.32311	17144.75
2179.26681	17135.03571
2182.20863	17125.89286
2185.14856	17105.60714
2188.08661	17137.60714
2191.02278	17155.89286
2193.95707	17144.46429
2196.88948	17111.32143
2199.82001	17120.03571
2202.74867	17101.60714
2205.67545	17121.89286
2208.60037	17110.60714
2211.52341	17039.75
2214.44458	17056.17857
2217.36388	17046.75
2220.28132	17024.60714
2223.1969	16995.17857
2226.11061	16933.60714
2229.02246	16899.03571
2231.93245	16886.60714
2234.84058	16846.60714
2237.74686	16843.89286
2240.65128	16837.60714
2243.55385	16834.46429
2246.45456	16798.03571
2249.35343	16799.60714
2252.25044	16758.46429
2255.14561	16780.89286
2258.03893	16742.17857
2260.93041	16664.89286
2263.82004	16679.46429
2266.70783	16617.75
2269.59378	16576.17857
2272.4779	16549.89286
2275.36017	16547.32143
2278.24061	16528.03571
2281.11922	16469.03571
2283.996	16459.32143
2286.87094	16430.60714
2289.74405	16448.60714
2292.61534	16421.32143
2295.4848	16412.89286
2298.35243	16388.17857
2301.21824	16414.17857
2304.08223	16427.46429
2306.94439	16380.17857
2309.80474	16380.03571
2312.66327	16448.75
2315.51999	16433.75
2318.37489	16438.46429
2321.22797	16414.46429
2324.07925	16393.32143
2326.92871	16345.46429
2329.77637	16307.89286
2332.62222	16313.32143
2335.46626	16337.17857
2338.3085	16300.60714
2341.14893	16273.46429
2343.98756	16295.46429
2346.8244	16279.03571
2349.65943	16243.32143
2352.49267	16272.60714
2355.32411	16299.17857
2358.15376	16238.17857
2360.98161	16250.89286
2363.80768	16259.60714
2366.63195	16230.17857
2369.45444	16168.46429
2372.27514	16136.17857
2375.09405	16127.46429
2377.91118	16106.60714
2380.72652	16090.60714
2383.54009	16004.03571
2386.35187	16028.89286
2389.16188	15949.03571
2391.97011	15940.89286
2394.77657	15919.46429
2397.58125	15897.60714
2400.38416	15877.46429
2403.18529	15874.32143
2405.98466	15837.17857
2408.78226	15816.17857
2411.57809	15730.17857
2414.37216	15740.03571
2417.16446	15720.60714
2419.955	15673.32143
2422.74378	15738.89286
2425.5308	15696.89286
2428.31606	15655.32143
2431.09956	15657.17857
2433.88131	15623.32143
2436.6613	15677.32143
2439.43954	15665.60714
2442.21603	15638.03571
2444.99077	15615.89286
2447.76377	15626.17857
2450.53501	15600.46429
2453.30451	15615.46429
2456.07226	15592.60714
2458.83827	15570.17857
2461.60254	15597.03571
2464.36507	15576.75
2467.12586	15538.75
2469.88492	15533.46429
2472.64224	15524.60714
2475.39782	15524.46429
2478.15167	15509.32143
2480.90379	15544.75
2483.65417	15558.60714
2486.40283	15600.75
2489.14976	15586.60714
2491.89497	15568.32143
2494.63845	15622.46429
2497.3802	15570.75
2500.12024	15577.75
2502.85855	15557.32143
2505.59514	15538.17857
2508.33002	15542.89286
2511.06318	15452.03571
2513.79462	15450.89286
2516.52435	15469.03571
2519.25237	15424.75
2521.97867	15383.03571
2524.70327	15364.32143
2527.42616	15385.17857
2530.14734	15368.17857
2532.86681	15294.60714
2535.58458	15360.89286
2538.30065	15344.89286
2541.01501	15346.60714
2543.72768	15332.32143
2546.43864	15310.17857
2549.14791	15291.32143
2551.85548	15250.03571
2554.56136	15224.32143
2557.26554	15225.89286
2559.96803	15214.17857
2562.66883	15179.89286
2565.36794	15145.03571
2568.06536	15146.75
2570.7611	15111.32143
2573.45514	15094.17857
2576.14751	15053.17857
2578.83819	15059.17857
2581.52719	15045.03571
2584.21451	15043.32143
2586.90015	15026.17857
2589.58411	14990.75
2592.2664	15003.32143
2594.94701	14953.89286
2597.62594	14949.32143
2600.30321	14947.60714
2602.9788	14946.03571
2605.65273	14909.32143
2608.32498	14903.89286
2610.99557	14916.60714
2613.66449	14887.32143
2616.33175	14857.75
2618.99734	14872.46429
2621.66128	14837.03571
2624.32355	14872.89286
2626.98416	14834.17857
2629.64311	14873.03571
2632.30041	14818.75
2634.95605	14785.17857
2637.61004	14772.89286
2640.26238	14794.60714
2642.91306	14742.17857
2645.56209	14729.03571
2648.20948	14741.32143
2650.85521	14695.17857
2653.4993	14721.60714
2656.14175	14700.17857
2658.78255	14725.03571
2661.42171	14736.75
2664.05923	14751.46429
2666.6951	14726.03571
2669.32934	14745.03571
2671.96194	14739.03571
2674.59291	14739.60714
2677.22224	14758.17857
2679.84993	14766.75
2682.476	14752.03571
2685.10043	14729.60714
2687.72324	14736.89286
2690.34441	14714.17857
2692.96396	14690.03571
2695.58188	14717.17857
2698.19818	14706.32143
2700.81285	14669.17857
2703.4259	14655.89286
2706.03733	14667.75
2708.64714	14667.17857
2711.25533	14694.46429
2713.86191	14695.03571
2716.46687	14718.75
2719.07021	14716.89286
2721.67194	14719.89286
2724.27206	14716.60714
2726.87057	14754.60714
2729.46747	14712.32143
2732.06276	14692.32143
2734.65644	14692.17857
2737.24852	14681.17857
2739.83899	14649.46429
2742.42786	14682.46429
2745.01513	14637.17857
2747.60079	14609.60714
2750.18486	14590.46429
2752.76733	14592.60714
2755.3482	14598.75
2757.92747	14629.46429
2760.50515	14578.75
2763.08123	14586.75
2765.65573	14586.32143
2768.22863	14559.17857
2770.79994	14550.03571
2773.36967	14542.75
2775.9378	14533.46429
2778.50435	14540.89286
2781.06932	14540.03571
2783.6327	14508.75
2786.1945	14500.75
2788.75471	14476.03571
2791.31335	14478.17857
2793.87041	14428.60714
2796.42589	14421.03571
2798.97979	14398.89286
2801.53212	14366.60714
2804.08288	14344.89286
2806.63206	14300.46429
2809.17967	14311.60714
2811.72571	14276.46429
2814.27018	14300.17857
2816.81308	14260.60714
2819.35442	14230.03571
2821.89419	14185.46429
2824.43239	14188.17857
2826.96904	14181.75
2829.50412	14198.89286
2832.03763	14158.46429
2834.56959	14193.75
2837.1	14172.46429
2839.62884	14155.03571
2842.15613	14141.60714
2844.68186	14124.46429
2847.20604	14167.32143
2849.72867	14164.03571
2852.24974	14139.32143
2854.76927	14111.89286
2857.28724	14137.89286
2859.80367	14088.60714
2862.31855	14077.03571
2864.83189	14054.46429
2867.34368	14059.03571
2869.85393	14030.89286
2872.36264	14022.75
2874.8698	14022.46429
2877.37543	14024.60714
2879.87952	14017.89286
2882.38207	14023.89286
2884.88308	14039.17857
2887.38256	14018.60714
2889.88051	14057.03571
2892.37692	14052.60714
2894.8718	14054.32143
2897.36515	14068.60714
2899.85698	14084.46429
2902.34727	14096.89286
2904.83604	14113.89286
2907.32328	14134.60714
2909.809	14159.32143
2912.29319	14131.46429
2914.77587	14138.03571
2917.25702	14161.17857
2919.73665	14165.17857
2922.21476	14146.17857
2924.69136	14122.17857
2927.16644	14165.60714
2929.64	14123.75
2932.11205	14107.17857
2934.58258	14070.89286
2937.05161	14103.32143
2939.51912	14077.03571
2941.98513	14109.03571
2944.44962	14070.17857
2946.91261	14015.32143
2949.37409	14067.46429
2951.83407	14057.32143
2954.29254	14043.32143
2956.74951	14049.89286
2959.20498	14037.46429
2961.65895	13997.46429
2964.11142	13997.03571
2966.56239	13934.75
2969.01186	13978.32143
2971.45984	13933.89286
2973.90632	13928.89286
2976.35131	13905.75
2978.7948	13898.60714
2981.23681	13846.60714
2983.67732	13808.32143
2986.11635	13791.89286
2988.55388	13768.60714
2990.98993	13798.17857
2993.4245	13735.32143
2995.85758	13723.46429
2998.28917	13695.03571
3000.71928	13708.46429
3003.14791	13661.46429
3005.57506	13652.60714
3008.00073	13641.75
3010.42493	13600.89286
3012.84764	13580.75
3015.26888	13586.75
3017.68865	13551.03571
3020.10694	13558.03571
3022.52376	13527.46429
3024.9391	13515.89286
3027.35298	13498.03571
3029.76539	13485.17857
3032.17632	13469.32143
3034.5858	13450.89286
3036.9938	13413.32143
3039.40034	13477.17857
3041.80542	13435.46429
3044.20903	13384.60714
3046.61118	13399.60714
3049.01187	13335.03571
3051.4111	13347.03571
3053.80888	13335.32143
3056.20519	13356.60714
3058.60005	13284.46429
3060.99345	13295.46429
3063.3854	13240.46429
3065.7759	13197.60714
3068.16494	13179.89286
3070.55254	13146.75
3072.93868	13149.89286
3075.32338	13112.46429
3077.70662	13084.60714
3080.08842	13092.60714
3082.46878	13091.32143
3084.84769	13100.17857
3087.22515	13080.17857
3089.60118	13084.46429
3091.97576	13074.32143
3094.3489	13087.03571
3096.72061	13093.32143
3099.09087	13086.17857
3101.4597	13082.03571
3103.82709	13079.03571
3106.19305	13057.75
3108.55757	13091.03571
3110.92066	13102.17857
3113.28232	13065.46429
3115.64255	13045.46429
3118.00134	13026.17857
3120.35871	13023.89286
3122.71466	13020.46429
3125.06917	12949.17857
3127.42226	12931.17857
3129.77393	12978.75
3132.12417	12940.75
3134.47299	12943.46429
3136.82039	12937.17857
3139.16636	12927.60714
3141.51092	12964.17857
3143.85406	12989.03571
3146.19579	12970.60714
3148.53609	12964.60714
3150.87499	12992.03571
3153.21246	12982.75
3155.54853	13020.46429
3157.88318	13006.75
3160.21642	13034.17857
3162.54826	13070.89286
3164.87868	13084.17857
3167.2077	13049.46429
3169.5353	13096.89286
3171.86151	13103.03571
3174.18631	13058.03571
3176.5097	13069.46429
3178.83169	13050.46429
3181.15228	13027.46429
3183.47147	13001.17857
3185.78926	13030.89286
3188.10565	12997.03571
3190.42065	12962.89286
3192.73424	13045.46429
3195.04645	13029.46429
3197.35725	12996.89286
3199.66667	13004.75
3201.97469	13028.60714
3204.28132	12996.03571
3206.58656	13044.46429
3208.8904	13085.46429
3211.19287	13067.46429
3213.49394	13075.60714
3215.79363	13085.60714
3218.09193	13117.60714
3220.38884	13105.89286
3222.68438	13117.03571
3224.97853	13116.75
3227.2713	13101.17857
3229.56269	13111.60714
3231.8527	13072.17857
3234.14133	13066.89286
3236.42858	13033.60714
3238.71446	13070.03571
3240.99896	12980.46429
3243.28209	12996.03571
3245.56384	12991.03571
3247.84423	12984.89286
3250.12324	12981.32143
3252.40088	12983.75
3254.67715	12944.17857
3256.95205	12986.89286
3259.22558	12969.32143
3261.49775	12999.46429
3263.76855	12970.32143
3266.03799	12944.75
3268.30606	12952.75
3270.57277	12923.32143
3272.83812	12912.60714
3275.10211	12888.89286
3277.36474	12857.75
3279.62601	12838.17857
3281.88593	12852.46429
3284.14448	12835.46429
3286.40168	12845.03571
3288.65753	12822.75
3290.91202	12813.32143
3293.16516	12827.46429
3295.41695	12834.17857
3297.66738	12754.17857
3299.91647	12711.32143
3302.16421	12584.75
3304.4106	12566.75
3306.65564	12487.75
3308.89933	12398.46429
3311.14169	12319.03571
3313.38269	12239.03571
3315.62236	12146.75
3317.86068	12059.89286
3320.09766	12002.03571
3322.3333	11911.60714
3324.5676	11881.17857
3326.80056	11716.46429
3329.03219	11633.03571
3331.26248	2.60714
3333.49143	0.32143
3335.71905	0.03571
