Data from AgNPs_FTO_APTES_UA_20uM_CRN_200uM_R6G_10uM_NaF_0.1M_Addition_RamanShift__18__18-13-24-929.txt Node

Date: Thu Feb 17 18:13:24 GMT 2022
User: TCL
Spectrometer: QEP01345
Trigger mode: 4
Integration Time (sec): 1.000000E1
Scans to average: 7
Electric dark correction enabled: true
Nonlinearity correction enabled: false
Boxcar width: 0
XAxis mode: Raman Shifts
Number of Pixels in Spectrum: 1044
>>>>>Begin Spectral Data<<<<<
46.04893	-0.26786
50.45542	-2.125
54.85868	1.01786
59.25871	-1.69643
63.6555	78.875
68.04907	77.30357
72.43941	80.875
76.82654	85.01786
81.21044	89.875
85.59113	94.01786
89.96862	100.16071
94.34289	94.875
98.71396	103.875
103.08183	107.875
107.4465	109.16071
111.80798	110.01786
116.16626	111.58929
120.52136	116.44643
124.87327	122.01786
129.222	124.01786
133.56755	130.58929
137.90993	140.16071
142.24913	156.30357
146.58517	173.875
150.91804	198.16071
155.24774	228.73214
159.57429	278.01786
163.89768	365.01786
168.21792	473.16071
172.53501	648.01786
176.84895	914.44643
181.15975	1285.01786
185.46741	1812.73214
189.77193	2508.01786
194.07331	3410.73214
198.37157	4417.16071
202.6667	5470.30357
206.9587	6531.01786
211.24758	7598.16071
215.53334	8616.44643
219.81599	9671.58929
224.09553	10884.58929
228.37195	12113.01786
232.64527	13566.16071
236.91549	15080.16071
241.18261	16634.58929
245.44663	18115.875
249.70755	19483.875
253.96539	20636.58929
258.22014	21609.30357
262.4718	22448.16071
266.72039	22954.16071
270.96589	23222.16071
275.20832	23262.73214
279.44768	23067.01786
283.68397	22751.875
287.91719	22425.73214
292.14735	22227.73214
296.37445	22074.01786
300.59849	22070.16071
304.81948	22157.73214
309.03742	22123.01786
313.25231	22078.875
317.46415	21792.01786
321.67296	21486.30357
325.87872	21209.30357
330.08145	21141.44643
334.28114	21205.16071
338.47781	21430.01786
342.67145	21679.58929
346.86207	21978.30357
351.04966	22391.44643
355.23424	22916.44643
359.4158	23301.01786
363.59435	23594.01786
367.76989	23848.73214
371.94243	24048.875
376.11196	24259.01786
380.27849	24426.01786
384.44203	24608.30357
388.60257	24675.875
392.76012	24835.01786
396.91468	25023.73214
401.06626	25287.16071
405.21485	25489.875
409.36047	25477.73214
413.50311	25329.73214
417.64277	25027.73214
421.77947	24950.875
425.9132	24969.73214
430.04396	25046.73214
434.17176	25221.875
438.2966	25472.875
442.41849	25806.16071
446.53742	26300.16071
450.6534	26768.16071
454.76644	27156.01786
458.87653	27279.44643
462.98368	27287.01786
467.08789	27114.01786
471.18916	26920.01786
475.2875	26567.44643
479.38291	26381.01786
483.4754	26206.16071
487.56496	26099.30357
491.6516	26021.30357
495.73531	25913.58929
499.81612	26001.16071
503.89401	26138.73214
507.96899	26233.16071
512.04106	26309.16071
516.11023	26332.01786
520.1765	26381.30357
524.23987	26383.58929
528.30034	26338.58929
532.35792	26282.16071
536.41261	26217.01786
540.46441	26096.01786
544.51333	26005.44643
548.55936	26081.58929
552.60252	26261.01786
556.64279	26482.44643
560.6802	26653.30357
564.71473	26688.58929
568.7464	26760.73214
572.7752	26973.875
576.80114	27060.16071
580.82422	27111.01786
584.84444	27389.73214
588.86181	27719.875
592.87633	28215.30357
596.888	28448.58929
600.89682	28492.58929
604.9028	29101.44643
608.90594	30992.30357
612.90624	33226.58929
616.90371	32323.875
620.89834	28782.73214
624.89015	27117.16071
628.87913	26875.30357
632.86528	26981.73214
636.84862	26940.44643
640.82913	26806.73214
644.80683	26487.875
648.78172	26233.875
652.75379	26253.73214
656.72306	26483.30357
660.68952	26791.30357
664.65319	26754.44643
668.61405	26579.73214
672.57211	26590.875
676.52738	26800.73214
680.47986	26876.16071
684.42955	26790.44643
688.37646	26714.58929
692.32058	26651.44643
696.26192	26707.16071
700.20048	26850.44643
704.13626	26911.73214
708.06928	26884.16071
711.99952	26725.44643
715.927	26624.73214
719.85171	26663.44643
723.77365	26663.44643
727.69284	26615.73214
731.60928	26491.875
735.52295	26504.58929
739.43388	26524.16071
743.34206	26533.73214
747.24749	26578.30357
751.15017	26621.875
755.05012	26761.01786
758.94733	27031.58929
762.8418	27701.73214
766.73354	28872.16071
770.62254	30271.30357
774.50882	31000.58929
778.39237	30504.01786
782.27321	29099.44643
786.15132	27773.30357
790.02671	26897.16071
793.89938	26504.16071
797.76935	26294.44643
801.6366	26259.01786
805.50115	26234.01786
809.36299	26176.73214
813.22213	26012.73214
817.07857	25996.30357
820.93231	25922.44643
824.78336	25933.73214
828.63172	25919.16071
832.47738	25968.16071
836.32036	25986.30357
840.16066	26011.875
843.99827	26100.44643
847.8332	26104.30357
851.66546	26058.30357
855.49504	26066.16071
859.32195	26133.73214
863.1462	26130.58929
866.96777	26168.73214
870.78668	26216.875
874.60293	26209.44643
878.41652	26182.44643
882.22745	26232.58929
886.03573	26245.875
889.84136	26215.44643
893.64433	26161.44643
897.44466	26093.01786
901.24235	25998.73214
905.0374	25929.30357
908.8298	25826.73214
912.61957	25752.44643
916.40671	25817.44643
920.19121	25937.44643
923.97308	26092.875
927.75233	26199.16071
931.52895	26182.58929
935.30295	26087.16071
939.07433	25862.01786
942.84309	25676.16071
946.60924	25554.44643
950.37278	25497.58929
954.13371	25392.875
957.89203	25285.16071
961.64774	25255.01786
965.40086	25236.16071
969.15137	25156.73214
972.89929	25099.44643
976.64461	25080.58929
980.38733	25151.73214
984.12747	25219.73214
987.86502	25313.01786
991.59999	25488.875
995.33237	25742.875
999.06217	26055.58929
1002.78939	26468.58929
1006.51404	26668.58929
1010.23611	26785.01786
1013.95561	26830.01786
1017.67255	26965.875
1021.38692	26851.875
1025.09872	26755.73214
1028.80796	26731.01786
1032.51465	27043.875
1036.21877	27364.01786
1039.92035	27398.44643
1043.61937	27263.16071
1047.31584	27026.30357
1051.00976	26704.16071
1054.70114	26577.16071
1058.38998	26477.16071
1062.07627	26529.73214
1065.76003	26566.58929
1069.44126	26587.01786
1073.11995	26689.01786
1076.79611	26839.44643
1080.46974	27007.58929
1084.14085	27113.73214
1087.80943	27240.73214
1091.47549	27363.30357
1095.13903	27260.01786
1098.80005	27091.44643
1102.45857	26881.01786
1106.11456	26794.44643
1109.76805	26854.16071
1113.41903	26900.01786
1117.06751	27083.44643
1120.71348	27268.875
1124.35696	27413.01786
1127.99793	27617.58929
1131.63641	27730.01786
1135.2724	27569.73214
1138.90589	27377.44643
1142.5369	27163.01786
1146.16542	27022.30357
1149.79145	26947.875
1153.415	26842.16071
1157.03607	26925.30357
1160.65467	27238.30357
1164.27079	27698.875
1167.88443	28376.58929
1171.49561	29330.73214
1175.10432	30510.16071
1178.71056	32106.44643
1182.31434	33646.875
1185.91565	34438.30357
1189.51451	34294.58929
1193.11091	33465.01786
1196.70485	32431.73214
1200.29634	31520.16071
1203.88538	30823.30357
1207.47197	30108.58929
1211.05612	29529.58929
1214.63782	29137.01786
1218.21708	28980.30357
1221.79391	28965.875
1225.36829	29077.16071
1228.94024	29015.30357
1232.50976	28729.73214
1236.07685	28451.875
1239.6415	28348.16071
1243.20374	28328.16071
1246.76355	28437.73214
1250.32093	28647.30357
1253.8759	28947.44643
1257.42845	29279.875
1260.97859	29729.16071
1264.52631	30057.30357
1268.07163	30528.44643
1271.61453	31005.58929
1275.15503	31529.73214
1278.69312	32011.58929
1282.22882	32443.875
1285.76211	32716.58929
1289.29301	33097.875
1292.82151	33612.16071
1296.34761	34297.01786
1299.87133	35277.875
1303.39266	36637.73214
1306.9116	38307.58929
1310.42815	40140.44643
1313.94233	41277.875
1317.45412	41074.16071
1320.96354	40033.16071
1324.47058	38687.44643
1327.97525	37571.01786
1331.47754	36767.58929
1334.97747	36338.58929
1338.47502	36292.01786
1341.97022	36372.875
1345.46305	36785.30357
1348.95352	37215.875
1352.44163	38056.58929
1355.92738	39312.73214
1359.41078	41117.16071
1362.89183	42603.16071
1366.37053	42094.30357
1369.84688	38959.30357
1373.32088	35555.01786
1376.79254	33228.30357
1380.26186	31988.16071
1383.72883	31476.30357
1387.19347	31153.58929
1390.65578	30672.44643
1394.11575	30255.73214
1397.57339	30228.30357
1401.0287	30375.44643
1404.48168	30597.44643
1407.93234	30717.44643
1411.38068	30733.875
1414.82669	30660.58929
1418.27039	30360.875
1421.71177	29973.01786
1425.15083	29530.44643
1428.58758	29199.875
1432.02203	29204.30357
1435.45416	29409.58929
1438.88399	29749.44643
1442.31151	29983.16071
1445.73673	30138.01786
1449.15965	30279.875
1452.58027	30214.16071
1455.9986	30105.44643
1459.41463	30141.16071
1462.82837	30338.58929
1466.23982	30773.16071
1469.64898	31181.16071
1473.05586	31631.16071
1476.46045	31818.73214
1479.86276	31930.01786
1483.26279	31929.01786
1486.66054	31935.58929
1490.05602	31993.73214
1493.44922	32253.58929
1496.84016	32518.73214
1500.22882	33225.01786
1503.61521	34212.01786
1506.99934	35359.16071
1510.38121	36469.16071
1513.76081	36702.58929
1517.13816	35871.30357
1520.51324	34334.58929
1523.88607	32927.44643
1527.25665	32043.73214
1530.62498	31542.16071
1533.99105	31372.30357
1537.35488	31211.44643
1540.71647	31113.875
1544.07581	30928.44643
1547.4329	30754.44643
1550.78776	30590.58929
1554.14038	30416.16071
1557.49077	30356.58929
1560.83892	30330.16071
1564.18484	30337.16071
1567.52853	30519.875
1570.86999	30633.58929
1574.20922	30838.16071
1577.54624	30890.44643
1580.88103	30606.44643
1584.2136	30264.30357
1587.54395	30286.58929
1590.87208	30807.30357
1594.19801	31941.16071
1597.52172	33380.44643
1600.84321	34126.44643
1604.16251	33722.01786
1607.47959	32456.73214
1610.79447	30934.58929
1614.10715	29497.01786
1617.41763	28300.875
1620.7259	27442.44643
1624.03199	26942.58929
1627.33587	26812.875
1630.63757	27108.16071
1633.93707	27744.01786
1637.23439	28969.44643
1640.52951	30557.16071
1643.82246	32627.16071
1647.11321	34397.875
1650.40179	34959.01786
1653.68819	33734.875
1656.97241	31183.16071
1660.25446	28607.30357
1663.53433	26768.30357
1666.81203	25603.01786
1670.08756	24900.44643
1673.36092	24451.16071
1676.63211	24096.875
1679.90115	23845.30357
1683.16801	23663.73214
1686.43272	23461.44643
1689.69527	23397.58929
1692.95567	23278.58929
1696.2139	23199.16071
1699.46999	23156.58929
1702.72392	23120.16071
1705.97571	23137.875
1709.22535	23075.44643
1712.47284	23045.875
1715.71819	23059.875
1718.96139	22995.875
1722.20246	22951.73214
1725.44139	22861.875
1728.67818	22847.73214
1731.91284	22779.30357
1735.14537	22693.44643
1738.37576	22661.30357
1741.60403	22578.30357
1744.83017	22520.73214
1748.05418	22509.16071
1751.27607	22486.16071
1754.49584	22479.16071
1757.71349	22498.30357
1760.92903	22497.44643
1764.14244	22427.30357
1767.35375	22381.30357
1770.56294	22349.875
1773.77002	22301.30357
1776.97499	22287.16071
1780.17785	22209.875
1783.37861	22180.44643
1786.57727	22130.01786
1789.77382	22073.30357
1792.96828	22079.875
1796.16064	21970.58929
1799.3509	21959.875
1802.53907	21931.58929
1805.72514	21871.30357
1808.90913	21851.875
1812.09102	21803.58929
1815.27083	21744.16071
1818.44856	21711.73214
1821.6242	21730.16071
1824.79776	21727.30357
1827.96924	21642.16071
1831.13864	21614.44643
1834.30597	21626.30357
1837.47122	21588.875
1840.6344	21552.30357
1843.7955	21580.30357
1846.95454	21569.16071
1850.11151	21528.58929
1853.26642	21522.73214
1856.41926	21486.875
1859.57004	21502.30357
1862.71876	21510.875
1865.86542	21515.30357
1869.01003	21465.875
1872.15258	21428.875
1875.29308	21422.30357
1878.43152	21403.73214
1881.56792	21387.44643
1884.70227	21358.16071
1887.83457	21359.30357
1890.96482	21356.58929
1894.09304	21278.44643
1897.21921	21269.01786
1900.34335	21259.875
1903.46544	21224.01786
1906.58551	21206.73214
1909.70353	21183.875
1912.81953	21121.58929
1915.93349	21121.44643
1919.04543	21091.58929
1922.15534	21062.875
1925.26322	21036.58929
1928.36908	20995.875
1931.47292	20971.73214
1934.57473	20950.16071
1937.67453	20900.16071
1940.77232	20818.16071
1943.86808	20815.44643
1946.96184	20721.44643
1950.05358	20677.58929
1953.14331	20598.58929
1956.23103	20578.01786
1959.31675	20511.73214
1962.40046	20505.16071
1965.48217	20414.01786
1968.56188	20355.44643
1971.63959	20326.01786
1974.7153	20268.875
1977.78901	20164.875
1980.86073	20108.44643
1983.93046	20082.58929
1986.99819	20001.73214
1990.06394	19976.875
1993.1277	19952.30357
1996.18947	19884.01786
1999.24925	19764.58929
2002.30706	19739.16071
2005.36288	19656.58929
2008.41672	19608.73214
2011.46859	19526.44643
2014.51848	19532.73214
2017.56639	19460.30357
2020.61233	19420.16071
2023.6563	19374.16071
2026.6983	19318.875
2029.73833	19279.30357
2032.7764	19274.58929
2035.8125	19224.58929
2038.84664	19181.875
2041.87881	19144.30357
2044.90903	19077.16071
2047.93729	19105.16071
2050.96359	19069.01786
2053.98794	19024.44643
2057.01034	19042.58929
2060.03078	19039.30357
2063.04927	19016.73214
2066.06582	18993.44643
2069.08042	19013.73214
2072.09307	18970.30357
2075.10378	18992.01786
2078.11255	18933.875
2081.11938	18951.73214
2084.12426	18946.875
2087.12722	18931.73214
2090.12824	18907.73214
2093.12732	18941.875
2096.12447	18947.58929
2099.11969	18913.16071
2102.11299	18948.875
2105.10435	18930.58929
2108.09379	18923.73214
2111.08131	18950.16071
2114.0669	19004.30357
2117.05057	19045.30357
2120.03233	19016.73214
2123.01216	19044.58929
2125.99008	19051.16071
2128.96609	19079.875
2131.94018	19071.16071
2134.91236	19138.44643
2137.88263	19101.44643
2140.851	19088.30357
2143.81746	19156.16071
2146.78201	19134.30357
2149.74466	19178.30357
2152.7054	19173.30357
2155.66425	19158.30357
2158.6212	19143.16071
2161.57625	19087.01786
2164.52941	19107.01786
2167.48067	19104.30357
2170.43004	19110.44643
2173.37752	19095.44643
2176.32311	19098.30357
2179.26681	19097.30357
2182.20863	19118.73214
2185.14856	19111.875
2188.08661	19083.01786
2191.02278	19120.01786
2193.95707	19103.01786
2196.88948	19095.875
2199.82001	19097.01786
2202.74867	19055.875
2205.67545	19076.01786
2208.60037	19070.01786
2211.52341	19038.73214
2214.44458	19010.30357
2217.36388	18922.30357
2220.28132	18921.44643
2223.1969	18885.30357
2226.11061	18822.73214
2229.02246	18801.16071
2231.93245	18789.44643
2234.84058	18715.73214
2237.74686	18671.16071
2240.65128	18699.44643
2243.55385	18708.16071
2246.45456	18686.58929
2249.35343	18637.73214
2252.25044	18606.16071
2255.14561	18587.16071
2258.03893	18567.44643
2260.93041	18579.58929
2263.82004	18512.30357
2266.70783	18420.16071
2269.59378	18416.16071
2272.4779	18368.30357
2275.36017	18357.16071
2278.24061	18322.30357
2281.11922	18252.875
2283.996	18252.875
2286.87094	18258.30357
2289.74405	18189.58929
2292.61534	18190.01786
2295.4848	18175.58929
2298.35243	18167.30357
2301.21824	18186.16071
2304.08223	18172.30357
2306.94439	18180.58929
2309.80474	18141.16071
2312.66327	18153.44643
2315.51999	18134.58929
2318.37489	18106.875
2321.22797	18108.44643
2324.07925	18107.30357
2326.92871	17991.44643
2329.77637	17954.44643
2332.62222	17924.44643
2335.46626	17961.16071
2338.3085	17998.875
2341.14893	17927.58929
2343.98756	17955.44643
2346.8244	17914.73214
2349.65943	17881.16071
2352.49267	17886.44643
2355.32411	17911.58929
2358.15376	17882.58929
2360.98161	17855.58929
2363.80768	17830.73214
2366.63195	17819.30357
2369.45444	17791.30357
2372.27514	17752.875
2375.09405	17751.44643
2377.91118	17710.30357
2380.72652	17676.01786
2383.54009	17601.73214
2386.35187	17618.01786
2389.16188	17588.16071
2391.97011	17545.01786
2394.77657	17521.44643
2397.58125	17529.44643
2400.38416	17462.875
2403.18529	17435.875
2405.98466	17459.58929
2408.78226	17387.875
2411.57809	17381.01786
2414.37216	17336.30357
2417.16446	17333.01786
2419.955	17323.73214
2422.74378	17290.875
2425.5308	17281.16071
2428.31606	17287.16071
2431.09956	17291.30357
2433.88131	17225.30357
2436.6613	17235.58929
2439.43954	17224.16071
2442.21603	17206.16071
2444.99077	17171.01786
2447.76377	17176.73214
2450.53501	17163.875
2453.30451	17148.58929
2456.07226	17153.73214
2458.83827	17115.16071
2461.60254	17112.73214
2464.36507	17049.44643
2467.12586	17067.16071
2469.88492	17049.30357
2472.64224	17033.16071
2475.39782	17033.16071
2478.15167	17060.01786
2480.90379	17033.01786
2483.65417	17071.73214
2486.40283	17016.875
2489.14976	17072.01786
2491.89497	17079.16071
2494.63845	17065.875
2497.3802	17054.44643
2500.12024	17011.58929
2502.85855	17040.875
2505.59514	16964.875
2508.33002	16947.44643
2511.06318	16901.73214
2513.79462	16906.73214
2516.52435	16897.875
2519.25237	16854.58929
2521.97867	16809.16071
2524.70327	16834.01786
2527.42616	16805.16071
2530.14734	16815.16071
2532.86681	16791.30357
2535.58458	16793.30357
2538.30065	16739.44643
2541.01501	16774.58929
2543.72768	16744.01786
2546.43864	16708.73214
2549.14791	16683.16071
2551.85548	16668.875
2554.56136	16632.01786
2557.26554	16613.73214
2559.96803	16607.16071
2562.66883	16557.73214
2565.36794	16499.30357
2568.06536	16501.01786
2570.7611	16473.30357
2573.45514	16473.01786
2576.14751	16405.73214
2578.83819	16397.875
2581.52719	16406.875
2584.21451	16371.44643
2586.90015	16358.58929
2589.58411	16353.875
2592.2664	16346.875
2594.94701	16276.16071
2597.62594	16291.44643
2600.30321	16234.58929
2602.9788	16220.58929
2605.65273	16156.73214
2608.32498	16167.16071
2610.99557	16159.58929
2613.66449	16188.73214
2616.33175	16153.44643
2618.99734	16170.58929
2621.66128	16152.44643
2624.32355	16134.16071
2626.98416	16096.73214
2629.64311	16090.01786
2632.30041	16119.30357
2634.95605	16032.01786
2637.61004	16022.73214
2640.26238	16002.01786
2642.91306	15984.58929
2645.56209	16004.16071
2648.20948	15964.01786
2650.85521	15965.73214
2653.4993	15952.58929
2656.14175	15953.16071
2658.78255	15951.44643
2661.42171	15949.58929
2664.05923	15974.30357
2666.6951	15931.16071
2669.32934	15980.58929
2671.96194	15995.73214
2674.59291	15985.44643
2677.22224	15957.16071
2679.84993	15952.01786
2682.476	15932.58929
2685.10043	15898.875
2687.72324	15918.30357
2690.34441	15893.01786
2692.96396	15923.01786
2695.58188	15916.30357
2698.19818	15892.73214
2700.81285	15906.73214
2703.4259	15900.30357
2706.03733	15891.875
2708.64714	15932.58929
2711.25533	15958.73214
2713.86191	15937.01786
2716.46687	15960.875
2719.07021	15949.875
2721.67194	15923.44643
2724.27206	15944.58929
2726.87057	15946.875
2729.46747	15922.30357
2732.06276	15915.875
2734.65644	15903.44643
2737.24852	15925.58929
2739.83899	15896.30357
2742.42786	15911.875
2745.01513	15822.58929
2747.60079	15822.44643
2750.18486	15774.44643
2752.76733	15823.16071
2755.3482	15808.875
2757.92747	15831.44643
2760.50515	15802.875
2763.08123	15801.73214
2765.65573	15699.01786
2768.22863	15718.875
2770.79994	15675.875
2773.36967	15696.30357
2775.9378	15686.01786
2778.50435	15663.73214
2781.06932	15642.58929
2783.6327	15621.875
2786.1945	15610.44643
2788.75471	15579.30357
2791.31335	15545.30357
2793.87041	15532.16071
2796.42589	15499.44643
2798.97979	15505.58929
2801.53212	15444.875
2804.08288	15485.44643
2806.63206	15412.01786
2809.17967	15408.44643
2811.72571	15344.01786
2814.27018	15350.58929
2816.81308	15324.44643
2819.35442	15287.58929
2821.89419	15255.16071
2824.43239	15249.30357
2826.96904	15213.58929
2829.50412	15202.73214
2832.03763	15184.30357
2834.56959	15206.875
2837.1	15207.44643
2839.62884	15165.58929
2842.15613	15140.58929
2844.68186	15121.30357
2847.20604	15121.73214
2849.72867	15132.875
2852.24974	15095.16071
2854.76927	15074.16071
2857.28724	15060.30357
2859.80367	15061.30357
2862.31855	15031.01786
2864.83189	15031.01786
2867.34368	14987.16071
2869.85393	15003.44643
2872.36264	14985.73214
2874.8698	14974.16071
2877.37543	14972.44643
2879.87952	14971.875
2882.38207	14991.875
2884.88308	14966.30357
2887.38256	14964.58929
2889.88051	14953.73214
2892.37692	14943.58929
2894.8718	14935.44643
2897.36515	14966.44643
2899.85698	15011.44643
2902.34727	15020.58929
2904.83604	15027.01786
2907.32328	15052.73214
2909.809	15056.73214
2912.29319	15064.58929
2914.77587	15102.16071
2917.25702	15071.30357
2919.73665	15098.58929
2922.21476	15076.44643
2924.69136	15071.30357
2927.16644	15074.44643
2929.64	15028.58929
2932.11205	15029.16071
2934.58258	14997.875
2937.05161	15047.30357
2939.51912	15007.44643
2941.98513	15025.01786
2944.44962	15003.73214
2946.91261	14956.875
2949.37409	15015.73214
2951.83407	15017.875
2954.29254	14980.16071
2956.74951	15007.01786
2959.20498	14960.58929
2961.65895	14953.875
2964.11142	14955.16071
2966.56239	14932.30357
2969.01186	14882.01786
2971.45984	14917.73214
2973.90632	14878.875
2976.35131	14802.58929
2978.7948	14809.875
2981.23681	14736.30357
2983.67732	14730.875
2986.11635	14698.44643
2988.55388	14691.875
2990.98993	14677.44643
2993.4245	14653.16071
2995.85758	14617.30357
2998.28917	14588.58929
3000.71928	14611.875
3003.14791	14526.58929
3005.57506	14570.44643
3008.00073	14516.875
3010.42493	14517.16071
3012.84764	14476.73214
3015.26888	14441.16071
3017.68865	14435.58929
3020.10694	14427.30357
3022.52376	14385.44643
3024.9391	14393.73214
3027.35298	14363.58929
3029.76539	14350.58929
3032.17632	14326.58929
3034.5858	14331.44643
3036.9938	14334.73214
3039.40034	14303.16071
3041.80542	14327.01786
3044.20903	14283.01786
3046.61118	14299.58929
3049.01187	14250.01786
3051.4111	14249.875
3053.80888	14223.44643
3056.20519	14177.01786
3058.60005	14190.16071
3060.99345	14164.875
3063.3854	14119.16071
3065.7759	14089.44643
3068.16494	14066.44643
3070.55254	14024.01786
3072.93868	14013.875
3075.32338	13961.875
3077.70662	13995.875
3080.08842	13931.01786
3082.46878	13913.01786
3084.84769	13925.875
3087.22515	13910.58929
3089.60118	13950.875
3091.97576	13974.16071
3094.3489	13932.73214
3096.72061	13952.16071
3099.09087	13984.16071
3101.4597	13919.73214
3103.82709	13937.30357
3106.19305	13931.30357
3108.55757	13922.58929
3110.92066	13917.58929
3113.28232	13903.44643
3115.64255	13851.58929
3118.00134	13824.16071
3120.35871	13803.01786
3122.71466	13790.01786
3125.06917	13785.875
3127.42226	13732.16071
3129.77393	13739.58929
3132.12417	13741.58929
3134.47299	13764.73214
3136.82039	13712.73214
3139.16636	13742.16071
3141.51092	13745.44643
3143.85406	13747.73214
3146.19579	13753.30357
3148.53609	13750.73214
3150.87499	13784.16071
3153.21246	13750.73214
3155.54853	13821.16071
3157.88318	13795.58929
3160.21642	13826.875
3162.54826	13811.16071
3164.87868	13822.44643
3167.2077	13832.01786
3169.5353	13819.58929
3171.86151	13848.875
3174.18631	13837.58929
3176.5097	13843.44643
3178.83169	13833.30357
3181.15228	13813.73214
3183.47147	13774.58929
3185.78926	13767.58929
3188.10565	13757.875
3190.42065	13715.30357
3192.73424	13764.73214
3195.04645	13725.875
3197.35725	13745.16071
3199.66667	13745.16071
3201.97469	13763.44643
3204.28132	13732.875
3206.58656	13771.58929
3208.8904	13768.01786
3211.19287	13805.875
3213.49394	13815.875
3215.79363	13796.73214
3218.09193	13830.30357
3220.38884	13835.16071
3222.68438	13868.875
3224.97853	13836.875
3227.2713	13790.01786
3229.56269	13783.30357
3231.8527	13821.875
3234.14133	13809.44643
3236.42858	13738.73214
3238.71446	13706.01786
3240.99896	13702.73214
3243.28209	13707.16071
3245.56384	13640.30357
3247.84423	13687.44643
3250.12324	13658.01786
3252.40088	13647.58929
3254.67715	13646.01786
3256.95205	13664.73214
3259.22558	13640.01786
3261.49775	13636.73214
3263.76855	13628.875
3266.03799	13605.44643
3268.30606	13634.01786
3270.57277	13575.30357
3272.83812	13570.58929
3275.10211	13566.30357
3277.36474	13574.30357
3279.62601	13517.73214
3281.88593	13482.16071
3284.14448	13505.16071
3286.40168	13490.58929
3288.65753	13442.73214
3290.91202	13471.875
3293.16516	13422.01786
3295.41695	13395.73214
3297.66738	13348.73214
3299.91647	13309.16071
3302.16421	13219.01786
3304.4106	13150.30357
3306.65564	13091.73214
3308.89933	12998.44643
3311.14169	12909.875
3313.38269	12821.58929
3315.62236	12728.58929
3317.86068	12662.01786
3320.09766	12545.73214
3322.3333	12469.73214
3324.5676	12404.875
3326.80056	12239.44643
3329.03219	12174.58929
3331.26248	2.30357
3333.49143	-0.55357
3335.71905	0.58929
