Data from AgNPs_FTO_APTES_UA_20uM_CRN_5uM_R6G_10uM_NaF_0.1M_Addition_RamanShift__15__13-49-22-151.txt Node

Date: Thu Feb 17 13:49:22 GMT 2022
User: TCL
Spectrometer: QEP01345
Trigger mode: 4
Integration Time (sec): 7.000000E0
Scans to average: 10
Electric dark correction enabled: true
Nonlinearity correction enabled: false
Boxcar width: 0
XAxis mode: Raman Shifts
Number of Pixels in Spectrum: 1044
>>>>>Begin Spectral Data<<<<<
46.04893	-0.8375
50.45542	-1.2375
54.85868	-2.9375
59.25871	-1.3375
63.6555	132.1625
68.04907	134.2625
72.43941	137.8625
76.82654	143.5625
81.21044	149.7625
85.59113	153.5625
89.96862	154.0625
94.34289	164.7625
98.71396	164.5625
103.08183	170.8625
107.4465	174.0625
111.80798	181.1625
116.16626	184.8625
120.52136	193.9625
124.87327	205.4625
129.222	221.0625
133.56755	239.4625
137.90993	255.4625
142.24913	283.3625
146.58517	327.6625
150.91804	380.2625
155.24774	456.4625
159.57429	579.1625
163.89768	752.3625
168.21792	1014.2625
172.53501	1390.3625
176.84895	1956.3625
181.15975	2773.6625
185.46741	3916.1625
189.77193	5421.3625
194.07331	7306.0625
198.37157	9453.6625
202.6667	11703.8625
206.9587	13951.3625
211.24758	16154.6625
215.53334	18295.7625
219.81599	20587.8625
224.09553	23098.0625
228.37195	25875.2625
232.64527	28944.6625
236.91549	32146.4625
241.18261	35498.6625
245.44663	38728.7625
249.70755	41696.7625
253.96539	44297.4625
258.22014	46527.7625
262.4718	48339.2625
266.72039	49724.6625
270.96589	50496.3625
275.20832	50654.3625
279.44768	50443.9625
283.68397	50104.7625
287.91719	49705.6625
292.14735	49407.5625
296.37445	49257.9625
300.59849	49247.0625
304.81948	49301.1625
309.03742	49150.9625
313.25231	48717.8625
317.46415	48098.4625
321.67296	47319.2625
325.87872	46726.9625
330.08145	46450.5625
334.28114	46544.2625
338.47781	46983.0625
342.67145	47473.3625
346.86207	48164.8625
351.04966	48976.5625
355.23424	49755.2625
359.4158	50434.0625
363.59435	51049.4625
367.76989	51492.0625
371.94243	51837.5625
376.11196	52149.6625
380.27849	52482.7625
384.44203	52859.7625
388.60257	53247.6625
392.76012	53653.2625
396.91468	54152.9625
401.06626	54809.6625
405.21485	55209.4625
409.36047	55234.1625
413.50311	54884.9625
417.64277	54473.1625
421.77947	54426.7625
425.9132	54580.2625
430.04396	54864.1625
434.17176	55268.8625
438.2966	55650.1625
442.41849	56383.9625
446.53742	57382.1625
450.6534	58510.3625
454.76644	59428.3625
458.87653	59950.1625
462.98368	59933.3625
467.08789	59644.2625
471.18916	59330.6625
475.2875	58871.4625
479.38291	58663.7625
483.4754	58437.4625
487.56496	57982.8625
491.6516	57544.6625
495.73531	57034.0625
499.81612	56726.5625
503.89401	56959.3625
507.96899	57125.8625
512.04106	57091.9625
516.11023	56954.8625
520.1765	56714.8625
524.23987	56563.5625
528.30034	56267.2625
532.35792	56074.8625
536.41261	55738.3625
540.46441	55511.4625
544.51333	55612.6625
548.55936	56107.6625
552.60252	56883.6625
556.64279	57831.2625
560.6802	58442.4625
564.71473	58914.1625
568.7464	59511.8625
572.7752	60490.0625
576.80114	61317.9625
580.82422	62145.6625
584.84444	62822.6625
588.86181	63374.2625
592.87633	63701.2625
596.888	63565.8625
600.89682	63228.7625
604.9028	64489.8625
608.90594	67873.8625
612.90624	71249.4625
616.90371	68088.3625
620.89834	61091.7625
624.89015	58093.3625
628.87913	57698.3625
632.86528	58021.4625
636.84862	58154.0625
640.82913	57741.1625
644.80683	56955.9625
648.78172	56297.8625
652.75379	56194.3625
656.72306	56700.3625
660.68952	57346.7625
664.65319	57286.1625
668.61405	56740.8625
672.57211	56742.3625
676.52738	56984.9625
680.47986	56961.3625
684.42955	56739.8625
688.37646	56707.6625
692.32058	56880.9625
696.26192	57422.3625
700.20048	57988.4625
704.13626	58323.8625
708.06928	58343.6625
711.99952	58114.4625
715.927	58025.6625
719.85171	58117.8625
723.77365	58050.9625
727.69284	57772.1625
731.60928	57384.9625
735.52295	57206.9625
739.43388	57279.9625
743.34206	57458.4625
747.24749	57611.2625
751.15017	57899.1625
755.05012	58464.7625
758.94733	59366.0625
762.8418	61220.0625
766.73354	64090.7625
770.62254	66749.9625
774.50882	67205.8625
778.39237	65249.2625
782.27321	62482.7625
786.15132	60014.7625
790.02671	58541.0625
793.89938	57739.9625
797.76935	57409.8625
801.6366	57272.3625
805.50115	57150.4625
809.36299	56965.9625
813.22213	56834.0625
817.07857	56737.5625
820.93231	56763.6625
824.78336	56670.8625
828.63172	56635.3625
832.47738	56540.3625
836.32036	56642.8625
840.16066	56614.3625
843.99827	56669.2625
847.8332	56720.2625
851.66546	56751.4625
855.49504	56770.2625
859.32195	56885.7625
863.1462	56826.2625
866.96777	56852.2625
870.78668	56895.6625
874.60293	56883.1625
878.41652	56977.9625
882.22745	57068.9625
886.03573	57191.5625
889.84136	57148.9625
893.64433	56957.7625
897.44466	56774.3625
901.24235	56693.5625
905.0374	56595.1625
908.8298	56512.9625
912.61957	56577.0625
916.40671	56804.6625
920.19121	57183.0625
923.97308	57494.0625
927.75233	57432.4625
931.52895	57091.8625
935.30295	56704.8625
939.07433	56241.3625
942.84309	55827.5625
946.60924	55634.1625
950.37278	55558.8625
954.13371	55666.4625
957.89203	55740.1625
961.64774	55635.6625
965.40086	55502.0625
969.15137	55367.3625
972.89929	55295.1625
976.64461	55238.7625
980.38733	55187.5625
984.12747	55251.4625
987.86502	55566.3625
991.59999	55900.3625
995.33237	56402.1625
999.06217	57011.6625
1002.78939	57820.5625
1006.51404	58439.1625
1010.23611	59050.7625
1013.95561	59476.7625
1017.67255	59551.2625
1021.38692	59244.6625
1025.09872	58745.1625
1028.80796	58389.3625
1032.51465	58522.5625
1036.21877	58729.3625
1039.92035	58786.5625
1043.61937	58750.3625
1047.31584	58626.9625
1051.00976	58388.8625
1054.70114	58486.8625
1058.38998	58700.9625
1062.07627	59064.7625
1065.76003	59550.8625
1069.44126	60079.8625
1073.11995	60706.9625
1076.79611	61278.5625
1080.46974	61651.1625
1084.14085	61927.2625
1087.80943	62318.4625
1091.47549	62627.6625
1095.13903	62598.4625
1098.80005	62155.8625
1102.45857	61517.8625
1106.11456	61077.3625
1109.76805	60751.5625
1113.41903	60790.8625
1117.06751	60846.3625
1120.71348	61199.6625
1124.35696	61604.6625
1127.99793	61920.6625
1131.63641	61952.0625
1135.2724	61762.0625
1138.90589	61469.9625
1142.5369	61462.7625
1146.16542	61477.0625
1149.79145	61676.1625
1153.415	62012.4625
1157.03607	62526.2625
1160.65467	63404.2625
1164.27079	64940.1625
1167.88443	66888.3625
1171.49561	69387.6625
1175.10432	72483.9625
1178.71056	76252.9625
1182.31434	79811.8625
1185.91565	81783.5625
1189.51451	82018.1625
1193.11091	80931.8625
1196.70485	78985.2625
1200.29634	76911.4625
1203.88538	75186.4625
1207.47197	74022.2625
1211.05612	72811.9625
1214.63782	71746.1625
1218.21708	70769.7625
1221.79391	69897.2625
1225.36829	69514.0625
1228.94024	68951.9625
1232.50976	68261.4625
1236.07685	67692.7625
1239.6415	67384.3625
1243.20374	67426.1625
1246.76355	67710.2625
1250.32093	68316.9625
1253.8759	69193.2625
1257.42845	70297.0625
1260.97859	71604.7625
1264.52631	72784.3625
1268.07163	74163.3625
1271.61453	75412.5625
1275.15503	76525.8625
1278.69312	77773.8625
1282.22882	78878.4625
1285.76211	80139.2625
1289.29301	81816.6625
1292.82151	83936.1625
1296.34761	86441.6625
1299.87133	89559.3625
1303.39266	92986.4625
1306.9116	96514.3625
1310.42815	99844.8625
1313.94233	101823.4625
1317.45412	102286.4625
1320.96354	101581.0625
1324.47058	100855.5625
1327.97525	99968.1625
1331.47754	99202.9625
1334.97747	98909.1625
1338.47502	98980.7625
1341.97022	99227.8625
1345.46305	99381.8625
1348.95352	98917.7625
1352.44163	98168.3625
1355.92738	98085.8625
1359.41078	99321.2625
1362.89183	100610.7625
1366.37053	98891.4625
1369.84688	93330.2625
1373.32088	86761.3625
1376.79254	82179.4625
1380.26186	80309.0625
1383.72883	79911.3625
1387.19347	79796.8625
1390.65578	79496.7625
1394.11575	79195.9625
1397.57339	79395.1625
1401.0287	80047.2625
1404.48168	80527.3625
1407.93234	80617.4625
1411.38068	79819.2625
1414.82669	78386.4625
1418.27039	76427.8625
1421.71177	74337.9625
1425.15083	72577.0625
1428.58758	71756.2625
1432.02203	71970.9625
1435.45416	72962.5625
1438.88399	74335.8625
1442.31151	75566.2625
1445.73673	76304.0625
1449.15965	77022.3625
1452.58027	77467.6625
1455.9986	77714.3625
1459.41463	78282.9625
1462.82837	79092.3625
1466.23982	80104.5625
1469.64898	81050.1625
1473.05586	81679.5625
1476.46045	81740.5625
1479.86276	81374.8625
1483.26279	80761.0625
1486.66054	80354.9625
1490.05602	80630.8625
1493.44922	81085.2625
1496.84016	81881.9625
1500.22882	83154.6625
1503.61521	85325.6625
1506.99934	87762.6625
1510.38121	89513.3625
1513.76081	89497.1625
1517.13816	87797.4625
1520.51324	85307.4625
1523.88607	83308.5625
1527.25665	82320.6625
1530.62498	82195.3625
1533.99105	82101.5625
1537.35488	81765.1625
1540.71647	80922.3625
1544.07581	79873.0625
1547.4329	78719.8625
1550.78776	77613.7625
1554.14038	76847.9625
1557.49077	76466.7625
1560.83892	76274.6625
1564.18484	76237.6625
1567.52853	76421.1625
1570.86999	76811.6625
1574.20922	77418.6625
1577.54624	77871.3625
1580.88103	77678.1625
1584.2136	77535.4625
1587.54395	78519.3625
1590.87208	80745.0625
1594.19801	83856.5625
1597.52172	87003.0625
1600.84321	88055.5625
1604.16251	85821.1625
1607.47959	82025.9625
1610.79447	77987.7625
1614.10715	73801.6625
1617.41763	70054.8625
1620.7259	67157.8625
1624.03199	65593.5625
1627.33587	65167.4625
1630.63757	66051.0625
1633.93707	68491.5625
1637.23439	72643.2625
1640.52951	78773.1625
1643.82246	85635.4625
1647.11321	90916.3625
1650.40179	91774.7625
1653.68819	87263.0625
1656.97241	79423.3625
1660.25446	71573.6625
1663.53433	65706.1625
1666.81203	61805.3625
1670.08756	59278.5625
1673.36092	57673.1625
1676.63211	56555.2625
1679.90115	55754.1625
1683.16801	55088.7625
1686.43272	54676.6625
1689.69527	54381.1625
1692.95567	54066.1625
1696.2139	53955.6625
1699.46999	53866.6625
1702.72392	53758.8625
1705.97571	53615.0625
1709.22535	53590.0625
1712.47284	53502.9625
1715.71819	53520.3625
1718.96139	53438.1625
1722.20246	53272.7625
1725.44139	53101.9625
1728.67818	52934.7625
1731.91284	52652.0625
1735.14537	52513.0625
1738.37576	52268.8625
1741.60403	52194.4625
1744.83017	51982.1625
1748.05418	51866.4625
1751.27607	51778.8625
1754.49584	51714.4625
1757.71349	51716.9625
1760.92903	51761.8625
1764.14244	51642.8625
1767.35375	51565.9625
1770.56294	51474.5625
1773.77002	51454.5625
1776.97499	51427.4625
1780.17785	51330.5625
1783.37861	51276.0625
1786.57727	51192.2625
1789.77382	51138.0625
1792.96828	51106.2625
1796.16064	51000.1625
1799.3509	50928.6625
1802.53907	50866.6625
1805.72514	50723.9625
1808.90913	50649.3625
1812.09102	50504.4625
1815.27083	50485.6625
1818.44856	50392.4625
1821.6242	50341.3625
1824.79776	50252.6625
1827.96924	50268.8625
1831.13864	50202.0625
1834.30597	50211.0625
1837.47122	50160.4625
1840.6344	50062.8625
1843.7955	50115.0625
1846.95454	50087.3625
1850.11151	50078.8625
1853.26642	50005.4625
1856.41926	49948.3625
1859.57004	49922.5625
1862.71876	49857.7625
1865.86542	49780.6625
1869.01003	49769.5625
1872.15258	49674.1625
1875.29308	49609.3625
1878.43152	49505.3625
1881.56792	49517.2625
1884.70227	49544.7625
1887.83457	49477.2625
1890.96482	49482.6625
1894.09304	49391.1625
1897.21921	49306.1625
1900.34335	49212.1625
1903.46544	49155.4625
1906.58551	49124.3625
1909.70353	49118.6625
1912.81953	49018.6625
1915.93349	48973.4625
1919.04543	48816.1625
1922.15534	48840.8625
1925.26322	48780.1625
1928.36908	48619.8625
1931.47292	48604.8625
1934.57473	48475.6625
1937.67453	48323.3625
1940.77232	48239.6625
1943.86808	48099.6625
1946.96184	47990.4625
1950.05358	47866.2625
1953.14331	47755.9625
1956.23103	47664.9625
1959.31675	47465.5625
1962.40046	47355.3625
1965.48217	47124.5625
1968.56188	47014.8625
1971.63959	46903.7625
1974.7153	46831.7625
1977.78901	46649.5625
1980.86073	46501.4625
1983.93046	46430.2625
1986.99819	46235.5625
1990.06394	46185.9625
1993.1277	46042.8625
1996.18947	45929.6625
1999.24925	45799.7625
2002.30706	45721.0625
2005.36288	45570.4625
2008.41672	45404.4625
2011.46859	45244.9625
2014.51848	45193.5625
2017.56639	44968.4625
2020.61233	44889.1625
2023.6563	44777.5625
2026.6983	44704.2625
2029.73833	44614.1625
2032.7764	44445.3625
2035.8125	44430.1625
2038.84664	44306.9625
2041.87881	44243.5625
2044.90903	44217.3625
2047.93729	44167.6625
2050.96359	44128.8625
2053.98794	44013.1625
2057.01034	44041.5625
2060.03078	44002.9625
2063.04927	43961.1625
2066.06582	43957.1625
2069.08042	43900.0625
2072.09307	43853.0625
2075.10378	43777.4625
2078.11255	43777.2625
2081.11938	43812.6625
2084.12426	43733.5625
2087.12722	43713.0625
2090.12824	43676.9625
2093.12732	43684.8625
2096.12447	43726.3625
2099.11969	43666.9625
2102.11299	43666.0625
2105.10435	43689.4625
2108.09379	43731.8625
2111.08131	43739.0625
2114.0669	43665.1625
2117.05057	43775.4625
2120.03233	43802.4625
2123.01216	43873.0625
2125.99008	43964.0625
2128.96609	44024.0625
2131.94018	44010.7625
2134.91236	44040.1625
2137.88263	44049.2625
2140.851	44048.9625
2143.81746	44123.3625
2146.78201	44150.4625
2149.74466	44191.6625
2152.7054	44116.5625
2155.66425	44121.4625
2158.6212	44131.8625
2161.57625	44122.3625
2164.52941	44060.9625
2167.48067	44039.0625
2170.43004	44009.2625
2173.37752	44025.4625
2176.32311	44046.9625
2179.26681	44088.0625
2182.20863	43976.7625
2185.14856	44055.7625
2188.08661	44022.4625
2191.02278	44000.2625
2193.95707	43915.4625
2196.88948	43899.9625
2199.82001	43901.1625
2202.74867	43815.2625
2205.67545	43823.1625
2208.60037	43746.9625
2211.52341	43709.0625
2214.44458	43699.4625
2217.36388	43594.6625
2220.28132	43494.5625
2223.1969	43411.6625
2226.11061	43335.5625
2229.02246	43158.9625
2231.93245	43068.9625
2234.84058	43029.6625
2237.74686	42966.7625
2240.65128	42974.1625
2243.55385	42869.0625
2246.45456	42886.6625
2249.35343	42848.3625
2252.25044	42788.5625
2255.14561	42700.3625
2258.03893	42624.9625
2260.93041	42518.5625
2263.82004	42437.2625
2266.70783	42374.4625
2269.59378	42224.6625
2272.4779	42205.6625
2275.36017	42094.1625
2278.24061	42075.7625
2281.11922	41963.1625
2283.996	41834.3625
2286.87094	41866.3625
2289.74405	41821.7625
2292.61534	41726.4625
2295.4848	41587.0625
2298.35243	41638.4625
2301.21824	41592.3625
2304.08223	41587.2625
2306.94439	41586.1625
2309.80474	41594.9625
2312.66327	41568.1625
2315.51999	41466.1625
2318.37489	41479.5625
2321.22797	41422.7625
2324.07925	41416.0625
2326.92871	41288.4625
2329.77637	41183.9625
2332.62222	41115.4625
2335.46626	41111.4625
2338.3085	41094.3625
2341.14893	41008.9625
2343.98756	40981.2625
2346.8244	40978.6625
2349.65943	40993.3625
2352.49267	40938.4625
2355.32411	40943.8625
2358.15376	40878.0625
2360.98161	40839.7625
2363.80768	40816.8625
2366.63195	40823.3625
2369.45444	40771.7625
2372.27514	40741.5625
2375.09405	40673.2625
2377.91118	40586.4625
2380.72652	40482.6625
2383.54009	40390.3625
2386.35187	40340.9625
2389.16188	40207.0625
2391.97011	40148.6625
2394.77657	40069.0625
2397.58125	40010.1625
2400.38416	39926.3625
2403.18529	39860.7625
2405.98466	39848.8625
2408.78226	39762.1625
2411.57809	39696.9625
2414.37216	39712.0625
2417.16446	39675.3625
2419.955	39623.6625
2422.74378	39575.0625
2425.5308	39517.2625
2428.31606	39485.4625
2431.09956	39528.5625
2433.88131	39441.4625
2436.6613	39475.2625
2439.43954	39396.7625
2442.21603	39441.2625
2444.99077	39309.3625
2447.76377	39328.6625
2450.53501	39302.4625
2453.30451	39259.1625
2456.07226	39273.0625
2458.83827	39216.9625
2461.60254	39123.6625
2464.36507	39135.7625
2467.12586	39085.0625
2469.88492	39117.2625
2472.64224	39048.4625
2475.39782	39007.5625
2478.15167	39053.0625
2480.90379	39090.2625
2483.65417	39073.0625
2486.40283	39053.7625
2489.14976	39005.0625
2491.89497	38962.2625
2494.63845	39003.2625
2497.3802	38930.4625
2500.12024	38912.9625
2502.85855	38838.3625
2505.59514	38852.6625
2508.33002	38732.0625
2511.06318	38691.2625
2513.79462	38734.1625
2516.52435	38668.2625
2519.25237	38626.1625
2521.97867	38572.9625
2524.70327	38581.5625
2527.42616	38520.1625
2530.14734	38470.3625
2532.86681	38391.8625
2535.58458	38366.6625
2538.30065	38349.6625
2541.01501	38340.4625
2543.72768	38325.3625
2546.43864	38290.2625
2549.14791	38217.9625
2551.85548	38154.8625
2554.56136	38030.6625
2557.26554	37949.9625
2559.96803	37892.1625
2562.66883	37782.2625
2565.36794	37854.7625
2568.06536	37756.3625
2570.7611	37642.2625
2573.45514	37571.6625
2576.14751	37586.6625
2578.83819	37513.2625
2581.52719	37485.2625
2584.21451	37350.8625
2586.90015	37381.2625
2589.58411	37291.9625
2592.2664	37328.1625
2594.94701	37239.6625
2597.62594	37219.8625
2600.30321	37175.7625
2602.9788	37151.4625
2605.65273	37059.8625
2608.32498	37087.2625
2610.99557	37037.3625
2613.66449	37011.8625
2616.33175	36968.9625
2618.99734	36950.1625
2621.66128	36811.7625
2624.32355	36792.5625
2626.98416	36764.0625
2629.64311	36748.7625
2632.30041	36710.3625
2634.95605	36684.2625
2637.61004	36671.6625
2640.26238	36591.2625
2642.91306	36576.7625
2645.56209	36507.2625
2648.20948	36505.1625
2650.85521	36470.3625
2653.4993	36498.8625
2656.14175	36435.1625
2658.78255	36504.7625
2661.42171	36481.8625
2664.05923	36552.1625
2666.6951	36532.5625
2669.32934	36487.6625
2671.96194	36489.1625
2674.59291	36542.7625
2677.22224	36559.9625
2679.84993	36562.6625
2682.476	36471.6625
2685.10043	36429.4625
2687.72324	36407.1625
2690.34441	36415.4625
2692.96396	36391.4625
2695.58188	36473.9625
2698.19818	36367.7625
2700.81285	36357.0625
2703.4259	36363.4625
2706.03733	36434.4625
2708.64714	36392.0625
2711.25533	36394.2625
2713.86191	36373.9625
2716.46687	36436.8625
2719.07021	36428.1625
2721.67194	36440.0625
2724.27206	36346.3625
2726.87057	36446.6625
2729.46747	36443.3625
2732.06276	36376.8625
2734.65644	36399.0625
2737.24852	36400.9625
2739.83899	36348.4625
2742.42786	36383.5625
2745.01513	36306.3625
2747.60079	36262.4625
2750.18486	36190.5625
2752.76733	36214.4625
2755.3482	36142.0625
2757.92747	36046.0625
2760.50515	36056.4625
2763.08123	36001.5625
2765.65573	36033.8625
2768.22863	36004.3625
2770.79994	35978.4625
2773.36967	36005.0625
2775.9378	35920.0625
2778.50435	35899.5625
2781.06932	35888.6625
2783.6327	35805.2625
2786.1945	35780.9625
2788.75471	35709.7625
2791.31335	35670.5625
2793.87041	35631.0625
2796.42589	35482.0625
2798.97979	35446.8625
2801.53212	35337.8625
2804.08288	35321.4625
2806.63206	35229.1625
2809.17967	35172.1625
2811.72571	35052.8625
2814.27018	34905.6625
2816.81308	34806.2625
2819.35442	34750.9625
2821.89419	34744.2625
2824.43239	34671.9625
2826.96904	34686.2625
2829.50412	34670.7625
2832.03763	34544.1625
2834.56959	34495.9625
2837.1	34454.7625
2839.62884	34359.7625
2842.15613	34319.4625
2844.68186	34323.1625
2847.20604	34277.6625
2849.72867	34283.6625
2852.24974	34249.6625
2854.76927	34178.9625
2857.28724	34151.3625
2859.80367	34129.4625
2862.31855	34079.7625
2864.83189	34019.1625
2867.34368	33945.0625
2869.85393	33910.2625
2872.36264	33894.3625
2874.8698	33873.7625
2877.37543	33846.7625
2879.87952	33758.8625
2882.38207	33791.4625
2884.88308	33737.8625
2887.38256	33790.9625
2889.88051	33788.5625
2892.37692	33805.6625
2894.8718	33772.2625
2897.36515	33849.2625
2899.85698	33776.8625
2902.34727	33877.4625
2904.83604	33795.1625
2907.32328	33885.5625
2909.809	33862.2625
2912.29319	33862.8625
2914.77587	33851.6625
2917.25702	33885.3625
2919.73665	33833.2625
2922.21476	33837.5625
2924.69136	33750.9625
2927.16644	33781.7625
2929.64	33689.2625
2932.11205	33681.0625
2934.58258	33601.0625
2937.05161	33676.6625
2939.51912	33634.0625
2941.98513	33613.7625
2944.44962	33571.6625
2946.91261	33444.8625
2949.37409	33577.8625
2951.83407	33485.2625
2954.29254	33460.7625
2956.74951	33454.5625
2959.20498	33457.3625
2961.65895	33406.4625
2964.11142	33434.4625
2966.56239	33412.5625
2969.01186	33385.0625
2971.45984	33240.2625
2973.90632	33258.4625
2976.35131	33208.2625
2978.7948	33158.2625
2981.23681	33088.4625
2983.67732	33075.8625
2986.11635	32987.1625
2988.55388	32924.7625
2990.98993	32839.8625
2993.4245	32837.4625
2995.85758	32713.4625
2998.28917	32648.4625
3000.71928	32566.5625
3003.14791	32481.2625
3005.57506	32470.8625
3008.00073	32350.2625
3010.42493	32380.5625
3012.84764	32231.0625
3015.26888	32211.7625
3017.68865	32172.0625
3020.10694	32092.5625
3022.52376	32064.0625
3024.9391	32045.0625
3027.35298	32062.2625
3029.76539	31988.1625
3032.17632	31926.8625
3034.5858	31894.7625
3036.9938	31818.8625
3039.40034	31801.2625
3041.80542	31861.1625
3044.20903	31710.7625
3046.61118	31670.2625
3049.01187	31564.4625
3051.4111	31507.1625
3053.80888	31422.7625
3056.20519	31392.3625
3058.60005	31311.8625
3060.99345	31267.6625
3063.3854	31158.0625
3065.7759	31087.6625
3068.16494	30985.2625
3070.55254	30893.4625
3072.93868	30821.2625
3075.32338	30716.4625
3077.70662	30690.2625
3080.08842	30591.3625
3082.46878	30537.7625
3084.84769	30521.4625
3087.22515	30527.2625
3089.60118	30476.8625
3091.97576	30420.6625
3094.3489	30416.7625
3096.72061	30413.3625
3099.09087	30436.7625
3101.4597	30410.3625
3103.82709	30372.3625
3106.19305	30286.0625
3108.55757	30373.5625
3110.92066	30250.7625
3113.28232	30251.6625
3115.64255	30124.8625
3118.00134	30037.0625
3120.35871	29949.8625
3122.71466	29813.2625
3125.06917	29786.2625
3127.42226	29752.5625
3129.77393	29753.3625
3132.12417	29659.6625
3134.47299	29640.1625
3136.82039	29597.7625
3139.16636	29633.0625
3141.51092	29549.7625
3143.85406	29578.4625
3146.19579	29549.8625
3148.53609	29524.9625
3150.87499	29616.0625
3153.21246	29546.7625
3155.54853	29588.6625
3157.88318	29586.7625
3160.21642	29587.8625
3162.54826	29510.2625
3164.87868	29507.1625
3167.2077	29458.6625
3169.5353	29451.8625
3171.86151	29394.9625
3174.18631	29359.5625
3176.5097	29353.2625
3178.83169	29297.3625
3181.15228	29261.1625
3183.47147	29152.1625
3185.78926	29144.3625
3188.10565	29146.1625
3190.42065	29071.0625
3192.73424	29072.2625
3195.04645	28943.2625
3197.35725	28929.2625
3199.66667	28916.2625
3201.97469	28921.7625
3204.28132	28872.4625
3206.58656	28877.2625
3208.8904	28852.3625
3211.19287	28880.7625
3213.49394	28854.6625
3215.79363	28929.0625
3218.09193	28930.5625
3220.38884	28909.3625
3222.68438	28878.0625
3224.97853	28826.8625
3227.2713	28779.3625
3229.56269	28740.8625
3231.8527	28736.2625
3234.14133	28690.3625
3236.42858	28645.8625
3238.71446	28556.1625
3240.99896	28498.0625
3243.28209	28515.4625
3245.56384	28431.7625
3247.84423	28373.3625
3250.12324	28362.4625
3252.40088	28348.3625
3254.67715	28345.0625
3256.95205	28292.0625
3259.22558	28253.8625
3261.49775	28231.1625
3263.76855	28168.8625
3266.03799	28093.5625
3268.30606	28058.8625
3270.57277	27988.7625
3272.83812	27953.4625
3275.10211	27915.7625
3277.36474	27864.2625
3279.62601	27839.9625
3281.88593	27754.0625
3284.14448	27797.4625
3286.40168	27785.9625
3288.65753	27714.0625
3290.91202	27715.2625
3293.16516	27653.0625
3295.41695	27636.8625
3297.66738	27413.8625
3299.91647	27289.8625
3302.16421	27107.1625
3304.4106	26989.1625
3306.65564	26761.5625
3308.89933	26616.6625
3311.14169	26490.7625
3313.38269	26250.5625
3315.62236	26122.7625
3317.86068	25871.2625
3320.09766	25623.4625
3322.3333	25491.2625
3324.5676	25376.5625
3326.80056	24979.9625
3329.03219	24844.3625
3331.26248	6.1625
3333.49143	1.2625
3335.71905	-0.1375
