Data from AgNPs_FTO_APTES_UA_20uM_CRN_200uM_R6G_10uM_NaF_0.1M_Addition_RamanShift__25__18-21-34-942.txt Node

Date: Thu Feb 17 18:21:34 GMT 2022
User: TCL
Spectrometer: QEP01345
Trigger mode: 4
Integration Time (sec): 1.000000E1
Scans to average: 7
Electric dark correction enabled: true
Nonlinearity correction enabled: false
Boxcar width: 0
XAxis mode: Raman Shifts
Number of Pixels in Spectrum: 1044
>>>>>Begin Spectral Data<<<<<
46.04893	0.23214
50.45542	-1.19643
54.85868	-0.05357
59.25871	-1.76786
63.6555	89.08929
68.04907	93.375
72.43941	99.23214
76.82654	103.51786
81.21044	106.80357
85.59113	110.80357
89.96862	118.51786
94.34289	114.66071
98.71396	122.51786
103.08183	121.23214
107.4465	129.08929
111.80798	129.23214
116.16626	136.66071
120.52136	138.08929
124.87327	146.375
129.222	155.08929
133.56755	166.94643
137.90993	175.66071
142.24913	195.51786
146.58517	214.80357
150.91804	253.23214
155.24774	301.375
159.57429	372.80357
163.89768	478.66071
168.21792	649.375
172.53501	872.08929
176.84895	1224.08929
181.15975	1732.66071
185.46741	2456.94643
189.77193	3406.66071
194.07331	4607.08929
198.37157	5975.66071
202.6667	7436.375
206.9587	8912.08929
211.24758	10399.80357
215.53334	11954.375
219.81599	13612.66071
224.09553	15487.23214
228.37195	17631.94643
232.64527	19942.51786
236.91549	22259.51786
241.18261	24426.375
245.44663	26230.80357
249.70755	27829.23214
253.96539	29207.51786
258.22014	30327.94643
262.4718	31212.80357
266.72039	31691.08929
270.96589	31745.66071
275.20832	31451.66071
279.44768	30806.375
283.68397	30098.08929
287.91719	29537.80357
292.14735	29513.51786
296.37445	29976.08929
300.59849	31107.66071
304.81948	32572.375
309.03742	33706.23214
313.25231	33820.51786
317.46415	32531.80357
321.67296	30333.23214
325.87872	28364.08929
330.08145	27484.375
334.28114	27473.375
338.47781	28023.80357
342.67145	28795.66071
346.86207	29894.66071
351.04966	31654.94643
355.23424	33705.66071
359.4158	35268.94643
363.59435	36084.66071
367.76989	36231.08929
371.94243	36192.51786
376.11196	36008.375
380.27849	35754.375
384.44203	35446.375
388.60257	35000.51786
392.76012	34698.375
396.91468	34858.375
401.06626	35505.23214
405.21485	36082.66071
409.36047	35484.375
413.50311	33922.08929
417.64277	32225.375
421.77947	31184.08929
425.9132	30725.51786
430.04396	30735.23214
434.17176	30856.51786
438.2966	31344.375
442.41849	32138.51786
446.53742	33048.23214
450.6534	33980.08929
454.76644	34539.51786
458.87653	34681.08929
462.98368	34391.375
467.08789	33890.08929
471.18916	33130.66071
475.2875	32404.375
479.38291	31690.94643
483.4754	31124.80357
487.56496	30735.66071
491.6516	30466.23214
495.73531	30326.23214
499.81612	30313.375
503.89401	30689.80357
507.96899	31136.23214
512.04106	31646.375
516.11023	32186.51786
520.1765	32651.66071
524.23987	32747.375
528.30034	32375.66071
532.35792	32027.80357
536.41261	31502.51786
540.46441	31015.94643
544.51333	30603.375
548.55936	30648.51786
552.60252	31076.94643
556.64279	31671.80357
560.6802	32013.08929
564.71473	32585.80357
568.7464	33688.08929
572.7752	34313.23214
576.80114	33229.51786
580.82422	31905.66071
584.84444	31456.375
588.86181	31605.51786
592.87633	32155.94643
596.888	32774.375
600.89682	33684.23214
604.9028	36901.23214
608.90594	46278.51786
612.90624	58935.94643
616.90371	57445.08929
620.89834	41663.375
624.89015	33897.08929
628.87913	32445.94643
632.86528	32599.375
636.84862	33027.23214
640.82913	32569.51786
644.80683	31159.80357
648.78172	30122.94643
652.75379	30111.08929
656.72306	31220.375
660.68952	32472.23214
664.65319	32279.51786
668.61405	30982.375
672.57211	30409.80357
676.52738	30378.51786
680.47986	30422.66071
684.42955	30196.23214
688.37646	29968.23214
692.32058	29925.80357
696.26192	30137.23214
700.20048	30519.08929
704.13626	30718.375
708.06928	30514.80357
711.99952	30238.23214
715.927	30093.23214
719.85171	30219.23214
723.77365	30368.51786
727.69284	30277.51786
731.60928	30090.66071
735.52295	30075.51786
739.43388	30193.94643
743.34206	30288.08929
747.24749	30386.94643
751.15017	30455.80357
755.05012	30811.51786
758.94733	32028.23214
762.8418	35090.23214
766.73354	40225.51786
770.62254	45553.375
774.50882	48376.80357
778.39237	47055.94643
782.27321	41492.94643
786.15132	35755.80357
790.02671	32319.80357
793.89938	30772.66071
797.76935	30182.375
801.6366	29942.94643
805.50115	29821.23214
809.36299	29688.80357
813.22213	29573.08929
817.07857	29543.08929
820.93231	29503.375
824.78336	29561.51786
828.63172	29754.23214
832.47738	29820.80357
836.32036	29742.51786
840.16066	29694.80357
843.99827	29617.94643
847.8332	29577.51786
851.66546	29557.375
855.49504	29579.94643
859.32195	29626.08929
863.1462	29531.51786
866.96777	29476.08929
870.78668	29451.08929
874.60293	29455.66071
878.41652	29540.94643
882.22745	29667.80357
886.03573	29793.08929
889.84136	29771.51786
893.64433	29597.375
897.44466	29516.08929
901.24235	29460.51786
905.0374	29344.66071
908.8298	29189.66071
912.61957	29016.51786
916.40671	29039.94643
920.19121	29221.08929
923.97308	29517.23214
927.75233	29984.66071
931.52895	30392.94643
935.30295	30267.80357
939.07433	29565.08929
942.84309	28853.375
946.60924	28552.66071
950.37278	28294.375
954.13371	28112.66071
957.89203	28028.51786
961.64774	27833.66071
965.40086	27768.23214
969.15137	27667.51786
972.89929	27622.375
976.64461	27570.23214
980.38733	27612.375
984.12747	27697.66071
987.86502	27821.94643
991.59999	28147.08929
995.33237	28614.23214
999.06217	29331.94643
1002.78939	30232.375
1006.51404	30870.51786
1010.23611	31257.08929
1013.95561	31515.80357
1017.67255	31553.94643
1021.38692	31278.23214
1025.09872	31011.94643
1028.80796	31162.375
1032.51465	31803.80357
1036.21877	32424.23214
1039.92035	32537.94643
1043.61937	32290.23214
1047.31584	31778.08929
1051.00976	31003.66071
1054.70114	30457.51786
1058.38998	30231.94643
1062.07627	30110.51786
1065.76003	30089.80357
1069.44126	30088.94643
1073.11995	30211.08929
1076.79611	30576.08929
1080.46974	31182.23214
1084.14085	31975.94643
1087.80943	32777.66071
1091.47549	32873.66071
1095.13903	32349.08929
1098.80005	31429.94643
1102.45857	30891.51786
1106.11456	30819.66071
1109.76805	31194.80357
1113.41903	31948.66071
1117.06751	33046.08929
1120.71348	34470.08929
1124.35696	36030.66071
1127.99793	37118.94643
1131.63641	36577.375
1135.2724	34880.51786
1138.90589	33348.23214
1142.5369	32386.375
1146.16542	31714.23214
1149.79145	31293.23214
1153.415	31172.375
1157.03607	31318.08929
1160.65467	31783.80357
1164.27079	32729.375
1167.88443	34193.51786
1171.49561	36432.66071
1175.10432	39971.375
1178.71056	44950.23214
1182.31434	49356.94643
1185.91565	50881.51786
1189.51451	49437.23214
1193.11091	46260.51786
1196.70485	42924.94643
1200.29634	40724.23214
1203.88538	39104.08929
1207.47197	37213.375
1211.05612	35447.66071
1214.63782	34487.80357
1218.21708	34236.80357
1221.79391	34222.94643
1225.36829	34330.375
1228.94024	34093.51786
1232.50976	33674.375
1236.07685	33466.375
1239.6415	33512.94643
1243.20374	33829.375
1246.76355	34063.51786
1250.32093	34570.08929
1253.8759	35334.66071
1257.42845	36362.51786
1260.97859	37311.80357
1264.52631	38293.08929
1268.07163	39241.375
1271.61453	40201.66071
1275.15503	41018.66071
1278.69312	41583.66071
1282.22882	42066.94643
1285.76211	42827.23214
1289.29301	43877.66071
1292.82151	45065.94643
1296.34761	46620.23214
1299.87133	49188.51786
1303.39266	53397.66071
1306.9116	59755.23214
1310.42815	66152.51786
1313.94233	68639.80357
1317.45412	65421.94643
1320.96354	59667.23214
1324.47058	54317.08929
1327.97525	50108.375
1331.47754	47774.51786
1334.97747	47047.08929
1338.47502	47846.94643
1341.97022	49614.375
1345.46305	52056.80357
1348.95352	55104.08929
1352.44163	58948.94643
1355.92738	64943.375
1359.41078	74210.08929
1362.89183	81999.08929
1366.37053	78124.66071
1369.84688	65332.80357
1373.32088	54356.08929
1376.79254	47607.66071
1380.26186	43969.23214
1383.72883	41760.94643
1387.19347	40305.375
1390.65578	39005.51786
1394.11575	38089.375
1397.57339	37781.94643
1401.0287	38070.375
1404.48168	38504.94643
1407.93234	39079.375
1411.38068	39722.08929
1414.82669	40078.66071
1418.27039	39946.94643
1421.71177	39339.66071
1425.15083	38595.66071
1428.58758	38251.23214
1432.02203	38453.375
1435.45416	38785.08929
1438.88399	38952.375
1442.31151	38882.51786
1445.73673	39101.08929
1449.15965	39268.08929
1452.58027	39152.80357
1455.9986	38836.66071
1459.41463	38637.94643
1462.82837	38999.94643
1466.23982	39848.08929
1469.64898	40716.23214
1473.05586	41330.08929
1476.46045	41668.80357
1479.86276	42169.80357
1483.26279	42853.23214
1486.66054	43809.08929
1490.05602	45081.375
1493.44922	46904.08929
1496.84016	49506.08929
1500.22882	53598.08929
1503.61521	60049.375
1506.99934	68045.94643
1510.38121	74347.23214
1513.76081	75337.51786
1517.13816	69668.66071
1520.51324	60455.80357
1523.88607	52383.375
1527.25665	47183.66071
1530.62498	44334.94643
1533.99105	42652.66071
1537.35488	41806.66071
1540.71647	41455.80357
1544.07581	41405.08929
1547.4329	41559.66071
1550.78776	41697.94643
1554.14038	41820.23214
1557.49077	42141.66071
1560.83892	42604.23214
1564.18484	43567.80357
1567.52853	44622.23214
1570.86999	45504.375
1574.20922	45835.375
1577.54624	45313.23214
1580.88103	43417.66071
1584.2136	40962.08929
1587.54395	39914.375
1590.87208	40630.80357
1594.19801	43008.80357
1597.52172	46100.08929
1600.84321	47508.23214
1604.16251	46399.23214
1607.47959	43663.66071
1610.79447	40559.08929
1614.10715	37637.23214
1617.41763	35402.08929
1620.7259	34003.08929
1624.03199	33297.08929
1627.33587	33442.375
1630.63757	34267.66071
1633.93707	35846.94643
1637.23439	38296.23214
1640.52951	41734.08929
1643.82246	46685.66071
1647.11321	52224.94643
1650.40179	55614.51786
1653.68819	53307.23214
1656.97241	46403.94643
1660.25446	39288.80357
1663.53433	34550.80357
1666.81203	31787.66071
1670.08756	30157.80357
1673.36092	29159.80357
1676.63211	28565.66071
1679.90115	28041.23214
1683.16801	27652.23214
1686.43272	27419.66071
1689.69527	27253.66071
1692.95567	27082.80357
1696.2139	26971.08929
1699.46999	26944.94643
1702.72392	26947.66071
1705.97571	26928.51786
1709.22535	26895.80357
1712.47284	26851.375
1715.71819	26883.94643
1718.96139	26771.51786
1722.20246	26715.94643
1725.44139	26562.23214
1728.67818	26424.66071
1731.91284	26270.51786
1735.14537	26205.08929
1738.37576	26106.66071
1741.60403	26027.23214
1744.83017	25955.80357
1748.05418	25901.51786
1751.27607	25880.80357
1754.49584	25773.08929
1757.71349	25728.94643
1760.92903	25692.08929
1764.14244	25697.51786
1767.35375	25607.94643
1770.56294	25516.94643
1773.77002	25509.08929
1776.97499	25367.08929
1780.17785	25368.23214
1783.37861	25338.08929
1786.57727	25252.66071
1789.77382	25204.51786
1792.96828	25241.23214
1796.16064	25167.375
1799.3509	25069.08929
1802.53907	25088.08929
1805.72514	25042.66071
1808.90913	25007.66071
1812.09102	24954.23214
1815.27083	24842.66071
1818.44856	24834.80357
1821.6242	24807.66071
1824.79776	24794.375
1827.96924	24740.08929
1831.13864	24703.375
1834.30597	24645.51786
1837.47122	24662.94643
1840.6344	24653.66071
1843.7955	24618.08929
1846.95454	24619.51786
1850.11151	24543.51786
1853.26642	24589.23214
1856.41926	24545.66071
1859.57004	24599.80357
1862.71876	24587.80357
1865.86542	24599.375
1869.01003	24620.94643
1872.15258	24536.80357
1875.29308	24590.66071
1878.43152	24573.08929
1881.56792	24585.80357
1884.70227	24537.80357
1887.83457	24522.51786
1890.96482	24520.23214
1894.09304	24453.375
1897.21921	24454.23214
1900.34335	24397.80357
1903.46544	24395.51786
1906.58551	24383.08929
1909.70353	24357.66071
1912.81953	24341.375
1915.93349	24273.23214
1919.04543	24311.375
1922.15534	24295.51786
1925.26322	24246.375
1928.36908	24205.66071
1931.47292	24203.375
1934.57473	24139.80357
1937.67453	24117.51786
1940.77232	23937.08929
1943.86808	23852.80357
1946.96184	23791.51786
1950.05358	23730.51786
1953.14331	23664.23214
1956.23103	23610.08929
1959.31675	23586.375
1962.40046	23486.08929
1965.48217	23482.375
1968.56188	23437.375
1971.63959	23366.51786
1974.7153	23316.51786
1977.78901	23248.80357
1980.86073	23180.94643
1983.93046	23069.23214
1986.99819	22988.66071
1990.06394	22932.23214
1993.1277	22906.375
1996.18947	22753.08929
1999.24925	22676.80357
2002.30706	22618.375
2005.36288	22531.94643
2008.41672	22491.80357
2011.46859	22468.51786
2014.51848	22333.375
2017.56639	22333.23214
2020.61233	22255.66071
2023.6563	22204.23214
2026.6983	22131.66071
2029.73833	22118.94643
2032.7764	22067.23214
2035.8125	22051.94643
2038.84664	22047.08929
2041.87881	21993.94643
2044.90903	21984.08929
2047.93729	21937.08929
2050.96359	21884.94643
2053.98794	21857.80357
2057.01034	21832.94643
2060.03078	21795.94643
2063.04927	21766.94643
2066.06582	21781.08929
2069.08042	21761.51786
2072.09307	21726.51786
2075.10378	21733.66071
2078.11255	21687.23214
2081.11938	21689.23214
2084.12426	21699.80357
2087.12722	21676.66071
2090.12824	21679.66071
2093.12732	21676.94643
2096.12447	21722.375
2099.11969	21650.80357
2102.11299	21676.80357
2105.10435	21661.66071
2108.09379	21671.66071
2111.08131	21662.08929
2114.0669	21750.375
2117.05057	21758.08929
2120.03233	21737.375
2123.01216	21811.08929
2125.99008	21855.375
2128.96609	21884.08929
2131.94018	21864.375
2134.91236	21868.08929
2137.88263	21847.08929
2140.851	21826.66071
2143.81746	21876.08929
2146.78201	21874.80357
2149.74466	21900.08929
2152.7054	21855.66071
2155.66425	21833.08929
2158.6212	21843.94643
2161.57625	21789.66071
2164.52941	21824.08929
2167.48067	21843.08929
2170.43004	21790.94643
2173.37752	21813.23214
2176.32311	21841.51786
2179.26681	21818.66071
2182.20863	21828.375
2185.14856	21892.80357
2188.08661	21864.51786
2191.02278	21838.66071
2193.95707	21826.08929
2196.88948	21794.94643
2199.82001	21790.66071
2202.74867	21761.94643
2205.67545	21771.80357
2208.60037	21795.51786
2211.52341	21738.80357
2214.44458	21698.66071
2217.36388	21688.23214
2220.28132	21691.66071
2223.1969	21618.51786
2226.11061	21598.80357
2229.02246	21504.94643
2231.93245	21463.23214
2234.84058	21382.08929
2237.74686	21391.66071
2240.65128	21400.94643
2243.55385	21372.66071
2246.45456	21379.51786
2249.35343	21321.08929
2252.25044	21336.80357
2255.14561	21334.51786
2258.03893	21348.08929
2260.93041	21343.08929
2263.82004	21245.51786
2266.70783	21199.375
2269.59378	21137.66071
2272.4779	21081.94643
2275.36017	21047.80357
2278.24061	21006.94643
2281.11922	20966.375
2283.996	20942.23214
2286.87094	20931.80357
2289.74405	20888.94643
2292.61534	20875.51786
2295.4848	20827.66071
2298.35243	20892.08929
2301.21824	20853.94643
2304.08223	20814.94643
2306.94439	20821.08929
2309.80474	20846.94643
2312.66327	20832.51786
2315.51999	20840.51786
2318.37489	20877.80357
2321.22797	20782.51786
2324.07925	20804.80357
2326.92871	20728.80357
2329.77637	20735.94643
2332.62222	20686.94643
2335.46626	20703.51786
2338.3085	20729.94643
2341.14893	20755.80357
2343.98756	20724.08929
2346.8244	20740.66071
2349.65943	20742.08929
2352.49267	20723.51786
2355.32411	20735.66071
2358.15376	20741.08929
2360.98161	20744.51786
2363.80768	20752.51786
2366.63195	20738.23214
2369.45444	20668.80357
2372.27514	20670.51786
2375.09405	20583.94643
2377.91118	20544.51786
2380.72652	20522.66071
2383.54009	20449.94643
2386.35187	20351.80357
2389.16188	20328.08929
2391.97011	20274.23214
2394.77657	20254.94643
2397.58125	20207.66071
2400.38416	20203.23214
2403.18529	20129.66071
2405.98466	20105.80357
2408.78226	20042.23214
2411.57809	19999.23214
2414.37216	19958.51786
2417.16446	19950.08929
2419.955	19941.23214
2422.74378	19904.375
2425.5308	19930.51786
2428.31606	19921.51786
2431.09956	19902.375
2433.88131	19863.66071
2436.6613	19858.66071
2439.43954	19878.375
2442.21603	19872.66071
2444.99077	19850.66071
2447.76377	19855.08929
2450.53501	19833.94643
2453.30451	19858.51786
2456.07226	19818.08929
2458.83827	19831.51786
2461.60254	19795.23214
2464.36507	19802.23214
2467.12586	19753.08929
2469.88492	19723.51786
2472.64224	19771.23214
2475.39782	19789.51786
2478.15167	19777.51786
2480.90379	19834.23214
2483.65417	19904.23214
2486.40283	19900.66071
2489.14976	19937.66071
2491.89497	19983.375
2494.63845	20007.80357
2497.3802	19923.80357
2500.12024	19901.08929
2502.85855	19881.23214
2505.59514	19817.08929
2508.33002	19762.23214
2511.06318	19675.66071
2513.79462	19675.23214
2516.52435	19612.80357
2519.25237	19613.23214
2521.97867	19529.80357
2524.70327	19499.23214
2527.42616	19494.51786
2530.14734	19445.375
2532.86681	19474.80357
2535.58458	19461.66071
2538.30065	19434.51786
2541.01501	19462.51786
2543.72768	19421.23214
2546.43864	19429.80357
2549.14791	19393.08929
2551.85548	19406.08929
2554.56136	19343.80357
2557.26554	19350.23214
2559.96803	19315.80357
2562.66883	19291.23214
2565.36794	19240.51786
2568.06536	19226.51786
2570.7611	19182.66071
2573.45514	19203.23214
2576.14751	19172.94643
2578.83819	19128.66071
2581.52719	19149.80357
2584.21451	19097.51786
2586.90015	19065.66071
2589.58411	19098.08929
2592.2664	19076.375
2594.94701	19025.80357
2597.62594	19030.375
2600.30321	19004.375
2602.9788	18966.94643
2605.65273	18955.08929
2608.32498	18962.23214
2610.99557	18960.23214
2613.66449	18986.08929
2616.33175	18943.66071
2618.99734	19003.66071
2621.66128	18957.375
2624.32355	18975.94643
2626.98416	18965.375
2629.64311	18940.08929
2632.30041	18911.375
2634.95605	18843.80357
2637.61004	18820.94643
2640.26238	18771.23214
2642.91306	18748.51786
2645.56209	18763.80357
2648.20948	18739.375
2650.85521	18724.94643
2653.4993	18734.66071
2656.14175	18747.80357
2658.78255	18772.23214
2661.42171	18734.94643
2664.05923	18818.66071
2666.6951	18816.08929
2669.32934	18795.23214
2671.96194	18836.08929
2674.59291	18855.08929
2677.22224	18816.08929
2679.84993	18793.66071
2682.476	18807.80357
2685.10043	18799.94643
2687.72324	18764.23214
2690.34441	18781.94643
2692.96396	18757.23214
2695.58188	18730.375
2698.19818	18739.51786
2700.81285	18752.94643
2703.4259	18745.08929
2706.03733	18750.80357
2708.64714	18756.23214
2711.25533	18792.66071
2713.86191	18733.51786
2716.46687	18812.66071
2719.07021	18786.08929
2721.67194	18793.51786
2724.27206	18760.51786
2726.87057	18761.375
2729.46747	18782.51786
2732.06276	18744.66071
2734.65644	18747.51786
2737.24852	18714.94643
2739.83899	18715.66071
2742.42786	18744.23214
2745.01513	18708.375
2747.60079	18658.51786
2750.18486	18661.08929
2752.76733	18613.08929
2755.3482	18622.375
2757.92747	18654.66071
2760.50515	18643.94643
2763.08123	18583.375
2765.65573	18537.66071
2768.22863	18524.51786
2770.79994	18548.23214
2773.36967	18556.08929
2775.9378	18534.08929
2778.50435	18517.375
2781.06932	18511.51786
2783.6327	18530.80357
2786.1945	18516.51786
2788.75471	18480.66071
2791.31335	18436.94643
2793.87041	18413.23214
2796.42589	18381.08929
2798.97979	18407.80357
2801.53212	18378.51786
2804.08288	18356.80357
2806.63206	18336.66071
2809.17967	18343.51786
2811.72571	18315.94643
2814.27018	18307.23214
2816.81308	18303.23214
2819.35442	18248.08929
2821.89419	18227.66071
2824.43239	18271.375
2826.96904	18261.66071
2829.50412	18237.51786
2832.03763	18215.66071
2834.56959	18244.80357
2837.1	18171.08929
2839.62884	18183.23214
2842.15613	18156.51786
2844.68186	18189.94643
2847.20604	18149.51786
2849.72867	18183.66071
2852.24974	18153.08929
2854.76927	18098.51786
2857.28724	18146.08929
2859.80367	18124.08929
2862.31855	18121.51786
2864.83189	18086.66071
2867.34368	18061.51786
2869.85393	18135.375
2872.36264	18099.08929
2874.8698	18085.23214
2877.37543	18078.51786
2879.87952	18125.66071
2882.38207	18091.94643
2884.88308	18043.66071
2887.38256	18055.08929
2889.88051	18063.94643
2892.37692	18080.375
2894.8718	18021.94643
2897.36515	18082.51786
2899.85698	18071.51786
2902.34727	18097.375
2904.83604	18127.80357
2907.32328	18127.80357
2909.809	18087.23214
2912.29319	18158.375
2914.77587	18167.51786
2917.25702	18096.51786
2919.73665	18091.23214
2922.21476	18063.23214
2924.69136	18061.08929
2927.16644	18066.80357
2929.64	18016.375
2932.11205	17976.94643
2934.58258	17923.08929
2937.05161	17966.80357
2939.51912	17942.94643
2941.98513	17987.94643
2944.44962	17922.23214
2946.91261	17866.08929
2949.37409	17907.94643
2951.83407	17893.23214
2954.29254	17866.94643
2956.74951	17863.80357
2959.20498	17807.66071
2961.65895	17838.08929
2964.11142	17819.375
2966.56239	17713.08929
2969.01186	17748.23214
2971.45984	17672.51786
2973.90632	17680.66071
2976.35131	17631.08929
2978.7948	17583.23214
2981.23681	17580.375
2983.67732	17541.51786
2986.11635	17452.51786
2988.55388	17468.23214
2990.98993	17426.94643
2993.4245	17393.08929
2995.85758	17374.66071
2998.28917	17321.23214
3000.71928	17339.51786
3003.14791	17278.51786
3005.57506	17329.80357
3008.00073	17293.51786
3010.42493	17247.80357
3012.84764	17232.23214
3015.26888	17220.375
3017.68865	17166.51786
3020.10694	17140.375
3022.52376	17079.80357
3024.9391	17065.80357
3027.35298	17055.08929
3029.76539	17024.94643
3032.17632	17034.08929
3034.5858	16942.23214
3036.9938	16986.66071
3039.40034	16963.51786
3041.80542	16931.23214
3044.20903	16899.23214
3046.61118	16901.51786
3049.01187	16865.94643
3051.4111	16851.66071
3053.80888	16792.66071
3056.20519	16771.66071
3058.60005	16733.51786
3060.99345	16701.80357
3063.3854	16631.51786
3065.7759	16591.94643
3068.16494	16544.80357
3070.55254	16510.66071
3072.93868	16480.23214
3075.32338	16453.23214
3077.70662	16425.375
3080.08842	16338.94643
3082.46878	16325.08929
3084.84769	16306.80357
3087.22515	16292.375
3089.60118	16336.80357
3091.97576	16346.23214
3094.3489	16333.94643
3096.72061	16316.80357
3099.09087	16308.66071
3101.4597	16269.375
3103.82709	16287.08929
3106.19305	16257.51786
3108.55757	16313.80357
3110.92066	16224.23214
3113.28232	16181.66071
3115.64255	16192.08929
3118.00134	16104.51786
3120.35871	16121.66071
3122.71466	16080.94643
3125.06917	16043.66071
3127.42226	16028.66071
3129.77393	16050.23214
3132.12417	16000.80357
3134.47299	15993.94643
3136.82039	16034.66071
3139.16636	15977.08929
3141.51092	16014.08929
3143.85406	15998.08929
3146.19579	15996.08929
3148.53609	16002.51786
3150.87499	16019.375
3153.21246	16017.23214
3155.54853	16049.23214
3157.88318	16036.80357
3160.21642	16059.08929
3162.54826	16088.51786
3164.87868	16092.66071
3167.2077	16021.08929
3169.5353	16044.66071
3171.86151	16046.23214
3174.18631	16051.80357
3176.5097	16056.66071
3178.83169	16023.23214
3181.15228	16008.66071
3183.47147	15961.80357
3185.78926	15923.375
3188.10565	15935.375
3190.42065	15916.66071
3192.73424	15935.375
3195.04645	15955.23214
3197.35725	15955.23214
3199.66667	15937.51786
3201.97469	15958.66071
3204.28132	15947.375
3206.58656	15947.375
3208.8904	15990.94643
3211.19287	16021.375
3213.49394	16018.08929
3215.79363	16035.80357
3218.09193	16067.51786
3220.38884	16075.66071
3222.68438	16073.94643
3224.97853	16036.66071
3227.2713	16065.51786
3229.56269	16026.08929
3231.8527	16083.375
3234.14133	16016.94643
3236.42858	15950.94643
3238.71446	15950.375
3240.99896	15895.23214
3243.28209	15908.66071
3245.56384	15855.51786
3247.84423	15858.23214
3250.12324	15854.08929
3252.40088	15842.08929
3254.67715	15861.51786
3256.95205	15811.80357
3259.22558	15839.08929
3261.49775	15828.375
3263.76855	15791.80357
3266.03799	15795.08929
3268.30606	15820.80357
3270.57277	15779.80357
3272.83812	15766.23214
3275.10211	15714.80357
3277.36474	15703.23214
3279.62601	15689.80357
3281.88593	15670.80357
3284.14448	15667.375
3286.40168	15691.23214
3288.65753	15664.08929
3290.91202	15659.23214
3293.16516	15601.08929
3295.41695	15597.375
3297.66738	15536.08929
3299.91647	15465.51786
3302.16421	15326.23214
3304.4106	15293.94643
3306.65564	15191.51786
3308.89933	15116.80357
3311.14169	15009.51786
3313.38269	14813.08929
3315.62236	14786.51786
3317.86068	14622.08929
3320.09766	14525.23214
3322.3333	14452.80357
3324.5676	14373.51786
3326.80056	14167.08929
3329.03219	14082.51786
3331.26248	2.66071
3333.49143	-1.19643
3335.71905	0.66071
