Data from AgNPs_FTO_APTES_UA_20uM_CRN_500uM_R6G_10uM_NaF_0.1M_Addition_RamanShift__4__18-36-44-958.txt Node

Date: Thu Feb 17 18:36:44 GMT 2022
User: TCL
Spectrometer: QEP01345
Trigger mode: 4
Integration Time (sec): 1.000000E1
Scans to average: 7
Electric dark correction enabled: true
Nonlinearity correction enabled: false
Boxcar width: 0
XAxis mode: Raman Shifts
Number of Pixels in Spectrum: 1044
>>>>>Begin Spectral Data<<<<<
46.04893	-0.28571
50.45542	0.14286
54.85868	-0.85714
59.25871	-1.71429
63.6555	97.28571
68.04907	94.42857
72.43941	99.57143
76.82654	103.42857
81.21044	103.71429
85.59113	109.57143
89.96862	112.85714
94.34289	113.57143
98.71396	120.57143
103.08183	123.85714
107.4465	130.28571
111.80798	130.85714
116.16626	130
120.52136	136.28571
124.87327	143
129.222	150.57143
133.56755	154.42857
137.90993	175.57143
142.24913	189.57143
146.58517	207.85714
150.91804	243.57143
155.24774	292.42857
159.57429	361.85714
163.89768	458.85714
168.21792	614.14286
172.53501	835.57143
176.84895	1179.57143
181.15975	1674.57143
185.46741	2354.85714
189.77193	3267.57143
194.07331	4377.42857
198.37157	5692
202.6667	7058.57143
206.9587	8439.71429
211.24758	9780.85714
215.53334	11109.14286
219.81599	12529.85714
224.09553	14091.28571
228.37195	15826.71429
232.64527	17761
236.91549	19757.71429
241.18261	21765.85714
245.44663	23569
249.70755	25143.57143
253.96539	26448.14286
258.22014	27571.42857
262.4718	28514.42857
266.72039	29161.14286
270.96589	29437.14286
275.20832	29359.42857
279.44768	29063.28571
283.68397	28670.42857
287.91719	28272.71429
292.14735	28061.71429
296.37445	28096.42857
300.59849	28290
304.81948	28665
309.03742	29056.28571
313.25231	29174.57143
317.46415	28961.57143
321.67296	28392.14286
325.87872	27825.14286
330.08145	27550.71429
334.28114	27520.57143
338.47781	27773.42857
342.67145	28099.28571
346.86207	28575.85714
351.04966	29317
355.23424	29989.14286
359.4158	30517.42857
363.59435	30827.14286
367.76989	31066.28571
371.94243	31128.42857
376.11196	31199.42857
380.27849	31296
384.44203	31463.71429
388.60257	31574.28571
392.76012	31761.28571
396.91468	32026.14286
401.06626	32375.57143
405.21485	32681.28571
409.36047	32487.71429
413.50311	31919.42857
417.64277	31440.57143
421.77947	31257
425.9132	31239.71429
430.04396	31427.42857
434.17176	31615.85714
438.2966	32008.57143
442.41849	32698
446.53742	33703.57143
450.6534	34663.71429
454.76644	35214.42857
458.87653	35198
462.98368	34819.14286
467.08789	34291.85714
471.18916	33668.28571
475.2875	32963.85714
479.38291	32397.42857
483.4754	31955.42857
487.56496	31605.28571
491.6516	31487.57143
495.73531	31374.28571
499.81612	31373.14286
503.89401	31582
507.96899	31779.14286
512.04106	31780.14286
516.11023	31831.42857
520.1765	31929.71429
524.23987	32006
528.30034	32008.57143
532.35792	32049.85714
536.41261	31834.57143
540.46441	31467.14286
544.51333	31242.28571
548.55936	31297.28571
552.60252	31802
556.64279	32441.85714
560.6802	32907.71429
564.71473	32996.28571
568.7464	33084.57143
572.7752	33481.57143
576.80114	33624.14286
580.82422	33859.85714
584.84444	34576.71429
588.86181	36052.57143
592.87633	37904.85714
596.888	38971.71429
600.89682	38279.85714
604.9028	38148.85714
608.90594	40960.28571
612.90624	45160.42857
616.90371	43513.71429
620.89834	36502.57143
624.89015	33004.14286
628.87913	32455
632.86528	32584
636.84862	32711
640.82913	32410.28571
644.80683	31717.57143
648.78172	31275.57143
652.75379	31266.57143
656.72306	31712.85714
660.68952	32268.14286
664.65319	32035.57143
668.61405	31380.57143
672.57211	31248.42857
676.52738	31409.85714
680.47986	31476.85714
684.42955	31280.28571
688.37646	31053.57143
692.32058	31131.57143
696.26192	31385
700.20048	31784.42857
704.13626	31920.42857
708.06928	31917.85714
711.99952	31673.71429
715.927	31639
719.85171	31743.57143
723.77365	31800.14286
727.69284	31558.14286
731.60928	31304.85714
735.52295	31320.28571
739.43388	31342.42857
743.34206	31455.28571
747.24749	31517.85714
751.15017	31636.57143
755.05012	31941.57143
758.94733	32660
762.8418	34169
766.73354	36863.28571
770.62254	39468
774.50882	40384.14286
778.39237	39100.42857
782.27321	36483.14286
786.15132	34036.71429
790.02671	32550
793.89938	31724.71429
797.76935	31329
801.6366	31205.28571
805.50115	31077.28571
809.36299	30913.85714
813.22213	30805.28571
817.07857	30683.14286
820.93231	30658.28571
824.78336	30608
828.63172	30601.42857
832.47738	30669.14286
836.32036	30709.28571
840.16066	30748
843.99827	30788.71429
847.8332	30797.71429
851.66546	30755.85714
855.49504	30766.85714
859.32195	30814.14286
863.1462	30736.85714
866.96777	30716.57143
870.78668	30748.85714
874.60293	30744.85714
878.41652	30843.71429
882.22745	30928.14286
886.03573	31021
889.84136	30977.71429
893.64433	30842.14286
897.44466	30761.71429
901.24235	30698.28571
905.0374	30602.14286
908.8298	30474.28571
912.61957	30429
916.40671	30486.28571
920.19121	30729.42857
923.97308	31036.14286
927.75233	31177.85714
931.52895	31171.71429
935.30295	30945.42857
939.07433	30483.57143
942.84309	30155.57143
946.60924	29990.71429
950.37278	29830
954.13371	29751.42857
957.89203	29637.14286
961.64774	29629.42857
965.40086	29572.85714
969.15137	29582.71429
972.89929	29535
976.64461	29534
980.38733	29583.28571
984.12747	29657.14286
987.86502	29851.28571
991.59999	30098
995.33237	30430.28571
999.06217	30993.14286
1002.78939	31649.14286
1006.51404	32108
1010.23611	32510.14286
1013.95561	32834.28571
1017.67255	32970.57143
1021.38692	32777.85714
1025.09872	32344.57143
1028.80796	32124.57143
1032.51465	32343.14286
1036.21877	32681.71429
1039.92035	32934
1043.61937	32765.42857
1047.31584	32433.85714
1051.00976	32056.85714
1054.70114	31800.57143
1058.38998	31664.57143
1062.07627	31723.57143
1065.76003	31810.85714
1069.44126	31965.57143
1073.11995	32254.57143
1076.79611	32585.42857
1080.46974	32923.42857
1084.14085	33268.85714
1087.80943	33570.71429
1091.47549	33749.42857
1095.13903	33606
1098.80005	33120
1102.45857	32635.14286
1106.11456	32478.71429
1109.76805	32474.42857
1113.41903	32727.42857
1117.06751	33064.57143
1120.71348	33603.28571
1124.35696	34025.42857
1127.99793	34518.71429
1131.63641	34566.14286
1135.2724	34183.28571
1138.90589	33690
1142.5369	33411.14286
1146.16542	33340.85714
1149.79145	33282
1153.415	33267.71429
1157.03607	33401.57143
1160.65467	33945.71429
1164.27079	34879.85714
1167.88443	36244.85714
1171.49561	38192
1175.10432	40791.71429
1178.71056	44093.85714
1182.31434	47273.14286
1185.91565	48592.42857
1189.51451	48026.14286
1193.11091	46292.28571
1196.70485	44344.14286
1200.29634	42640
1203.88538	41082.28571
1207.47197	39769.57143
1211.05612	38496.57143
1214.63782	37653.14286
1218.21708	37232.14286
1221.79391	37380
1225.36829	37599.85714
1228.94024	37627.57143
1232.50976	37184.71429
1236.07685	36468.85714
1239.6415	36067.28571
1243.20374	35951.28571
1246.76355	36003.42857
1250.32093	36333.42857
1253.8759	36845.42857
1257.42845	37654.42857
1260.97859	38452.42857
1264.52631	39395.42857
1268.07163	40276.42857
1271.61453	41291.85714
1275.15503	41970.42857
1278.69312	42717.71429
1282.22882	43414.42857
1285.76211	44296.42857
1289.29301	45480.42857
1292.82151	47013
1296.34761	48801.71429
1299.87133	51148.71429
1303.39266	54149
1306.9116	57707.85714
1310.42815	61515.42857
1313.94233	63606.57143
1317.45412	62896
1320.96354	60174.14286
1324.47058	57061.28571
1327.97525	54176.14286
1331.47754	52202.85714
1334.97747	51067.14286
1338.47502	50606.42857
1341.97022	50793.42857
1345.46305	51393.57143
1348.95352	52615.42857
1352.44163	54785.71429
1355.92738	57879.42857
1359.41078	62165.71429
1362.89183	65761.14286
1366.37053	64680
1369.84688	58341.71429
1373.32088	51073.57143
1376.79254	46387
1380.26186	44279
1383.72883	43564.42857
1387.19347	43030.57143
1390.65578	42143.71429
1394.11575	41525.42857
1397.57339	41643.14286
1401.0287	41846.42857
1404.48168	42033.85714
1407.93234	41983.28571
1411.38068	41744.85714
1414.82669	41383.14286
1418.27039	40858.57143
1421.71177	40169.57143
1425.15083	39424.14286
1428.58758	38976.42857
1432.02203	39199.85714
1435.45416	39871.85714
1438.88399	40534.14286
1442.31151	40843.42857
1445.73673	40877.71429
1449.15965	40889
1452.58027	40641.57143
1455.9986	40344.57143
1459.41463	40317.71429
1462.82837	40637.57143
1466.23982	41416.71429
1469.64898	42145.57143
1473.05586	42894.14286
1476.46045	43289.57143
1479.86276	43526.28571
1483.26279	43621
1486.66054	43897.42857
1490.05602	44535.14286
1493.44922	45454.57143
1496.84016	46538.14286
1500.22882	48270.14286
1503.61521	50662
1506.99934	53399.85714
1510.38121	55544.57143
1513.76081	55715.42857
1517.13816	53321.14286
1520.51324	49863
1523.88607	46849.71429
1527.25665	45127.42857
1530.62498	44456.14286
1533.99105	44066.42857
1537.35488	43759.14286
1540.71647	43162.57143
1544.07581	42484.71429
1547.4329	41764.85714
1550.78776	41088.57143
1554.14038	40627.42857
1557.49077	40344.57143
1560.83892	40354.85714
1564.18484	40615
1567.52853	41159.42857
1570.86999	41674.14286
1574.20922	42170
1577.54624	42308.85714
1580.88103	41643.71429
1584.2136	40875.28571
1587.54395	40866.14286
1590.87208	42072.85714
1594.19801	44292.85714
1597.52172	47055.42857
1600.84321	48487.28571
1604.16251	47652
1607.47959	45102.42857
1610.79447	41974.71429
1614.10715	39011.28571
1617.41763	36774.57143
1620.7259	35217.71429
1624.03199	34395.28571
1627.33587	34338.14286
1630.63757	35032.28571
1633.93707	36492.14286
1637.23439	39112.71429
1640.52951	43213
1643.82246	48354.14286
1647.11321	52896.42857
1650.40179	54219.71429
1653.68819	51016
1656.97241	44886.14286
1660.25446	39051.71429
1663.53433	35133
1666.81203	32760.28571
1670.08756	31360.42857
1673.36092	30429.14286
1676.63211	29881.85714
1679.90115	29492.42857
1683.16801	29058.14286
1686.43272	28806.85714
1689.69527	28618.42857
1692.95567	28484.85714
1696.2139	28365.57143
1699.46999	28284.42857
1702.72392	28191.57143
1705.97571	28207.42857
1709.22535	28152
1712.47284	28176.14286
1715.71819	28163.42857
1718.96139	28074.28571
1722.20246	28011.28571
1725.44139	27871.71429
1728.67818	27760.14286
1731.91284	27658
1735.14537	27546.71429
1738.37576	27494.28571
1741.60403	27367
1744.83017	27274.57143
1748.05418	27198.71429
1751.27607	27234.28571
1754.49584	27114
1757.71349	27117
1760.92903	27059
1764.14244	27045.28571
1767.35375	27042.14286
1770.56294	26974
1773.77002	26934.57143
1776.97499	26898.57143
1780.17785	26853.42857
1783.37861	26791.42857
1786.57727	26731.28571
1789.77382	26713.28571
1792.96828	26676.71429
1796.16064	26637.57143
1799.3509	26553.42857
1802.53907	26491.85714
1805.72514	26452.85714
1808.90913	26369.28571
1812.09102	26402.85714
1815.27083	26271.85714
1818.44856	26282.71429
1821.6242	26231.85714
1824.79776	26251.28571
1827.96924	26213.71429
1831.13864	26194.28571
1834.30597	26140.28571
1837.47122	26114.42857
1840.6344	26100.14286
1843.7955	26136.28571
1846.95454	26081.85714
1850.11151	26056.57143
1853.26642	26008.14286
1856.41926	26049.14286
1859.57004	26011.71429
1862.71876	26005.85714
1865.86542	25989.85714
1869.01003	26004.85714
1872.15258	25927.42857
1875.29308	25924.71429
1878.43152	25867.57143
1881.56792	25865.85714
1884.70227	25892.57143
1887.83457	25867.14286
1890.96482	25786.85714
1894.09304	25749.57143
1897.21921	25746.71429
1900.34335	25726.42857
1903.46544	25695
1906.58551	25679.85714
1909.70353	25638.57143
1912.81953	25611.14286
1915.93349	25549.42857
1919.04543	25516.42857
1922.15534	25518.42857
1925.26322	25434.14286
1928.36908	25404.14286
1931.47292	25378.71429
1934.57473	25354.28571
1937.67453	25298.14286
1940.77232	25234.71429
1943.86808	25140
1946.96184	25080.14286
1950.05358	25029.85714
1953.14331	25023.28571
1956.23103	24927.57143
1959.31675	24865.42857
1962.40046	24831.28571
1965.48217	24687.14286
1968.56188	24674
1971.63959	24579.28571
1974.7153	24500.57143
1977.78901	24461.85714
1980.86073	24418.71429
1983.93046	24316
1986.99819	24209
1990.06394	24193.42857
1993.1277	24126.85714
1996.18947	24036.85714
1999.24925	23962.42857
2002.30706	23882.71429
2005.36288	23796.57143
2008.41672	23745.14286
2011.46859	23688.71429
2014.51848	23599.28571
2017.56639	23512
2020.61233	23470.28571
2023.6563	23392
2026.6983	23393
2029.73833	23312.28571
2032.7764	23281.85714
2035.8125	23236.14286
2038.84664	23223
2041.87881	23170.71429
2044.90903	23085.71429
2047.93729	23071.42857
2050.96359	23104.71429
2053.98794	23070.57143
2057.01034	23051.28571
2060.03078	23059.28571
2063.04927	23015.28571
2066.06582	22986.57143
2069.08042	22954.71429
2072.09307	22907.42857
2075.10378	22975
2078.11255	22971
2081.11938	22952.14286
2084.12426	22951.28571
2087.12722	22946.42857
2090.12824	22895.57143
2093.12732	23005.42857
2096.12447	22938.71429
2099.11969	22916.85714
2102.11299	22923.85714
2105.10435	22941
2108.09379	22985.42857
2111.08131	22981.28571
2114.0669	23004
2117.05057	23004
2120.03233	23037.71429
2123.01216	23086.28571
2125.99008	23087
2128.96609	23157.14286
2131.94018	23165.42857
2134.91236	23168.14286
2137.88263	23129.85714
2140.851	23183.85714
2143.81746	23165.57143
2146.78201	23171
2149.74466	23197.85714
2152.7054	23204
2155.66425	23182.57143
2158.6212	23179
2161.57625	23182.42857
2164.52941	23141.28571
2167.48067	23146.42857
2170.43004	23111.28571
2173.37752	23154.71429
2176.32311	23132
2179.26681	23145
2182.20863	23146.42857
2185.14856	23153
2188.08661	23156.14286
2191.02278	23127.85714
2193.95707	23140
2196.88948	23106
2199.82001	23098
2202.74867	23097.57143
2205.67545	23099.14286
2208.60037	23114.85714
2211.52341	23005.28571
2214.44458	22982.42857
2217.36388	22970.71429
2220.28132	22909.42857
2223.1969	22864.28571
2226.11061	22864.85714
2229.02246	22811
2231.93245	22757.85714
2234.84058	22684
2237.74686	22679.14286
2240.65128	22708.28571
2243.55385	22700.42857
2246.45456	22680.57143
2249.35343	22617
2252.25044	22579.28571
2255.14561	22532.28571
2258.03893	22555.28571
2260.93041	22508.42857
2263.82004	22448.28571
2266.70783	22388
2269.59378	22286.14286
2272.4779	22313.14286
2275.36017	22249.14286
2278.24061	22162.28571
2281.11922	22166.57143
2283.996	22121.85714
2286.87094	22157.42857
2289.74405	22108.42857
2292.61534	22049
2295.4848	22060.14286
2298.35243	22142.71429
2301.21824	22067.85714
2304.08223	22064.42857
2306.94439	22045
2309.80474	22066.28571
2312.66327	22001.42857
2315.51999	22006.28571
2318.37489	22000.14286
2321.22797	21963.14286
2324.07925	21978.42857
2326.92871	21875.14286
2329.77637	21864.85714
2332.62222	21826.14286
2335.46626	21823.71429
2338.3085	21823.14286
2341.14893	21774.42857
2343.98756	21805.85714
2346.8244	21834
2349.65943	21783.57143
2352.49267	21761.57143
2355.32411	21775.14286
2358.15376	21724.42857
2360.98161	21768.14286
2363.80768	21780.42857
2366.63195	21748
2369.45444	21687.42857
2372.27514	21652.42857
2375.09405	21607
2377.91118	21612.14286
2380.72652	21554.14286
2383.54009	21499
2386.35187	21479.14286
2389.16188	21382.14286
2391.97011	21352.71429
2394.77657	21353.28571
2397.58125	21334.85714
2400.38416	21318.14286
2403.18529	21271.71429
2405.98466	21204.85714
2408.78226	21186.85714
2411.57809	21160.57143
2414.37216	21110.14286
2417.16446	21126.28571
2419.955	21114.71429
2422.74378	21073.42857
2425.5308	21129.14286
2428.31606	21078
2431.09956	21088.28571
2433.88131	21029.14286
2436.6613	21010.42857
2439.43954	21014.71429
2442.21603	21022.14286
2444.99077	21002.28571
2447.76377	20941.71429
2450.53501	20933
2453.30451	20994.28571
2456.07226	20966.42857
2458.83827	20939.85714
2461.60254	20951
2464.36507	20915.85714
2467.12586	20894.85714
2469.88492	20868.14286
2472.64224	20912.42857
2475.39782	20900.57143
2478.15167	20886.14286
2480.90379	20914.28571
2483.65417	20969.85714
2486.40283	20936.57143
2489.14976	20929.42857
2491.89497	20964
2494.63845	20963.28571
2497.3802	20903.28571
2500.12024	20923
2502.85855	20858.85714
2505.59514	20843.85714
2508.33002	20769.71429
2511.06318	20744.28571
2513.79462	20747.28571
2516.52435	20708.57143
2519.25237	20746.85714
2521.97867	20636.71429
2524.70327	20622
2527.42616	20635.71429
2530.14734	20645.42857
2532.86681	20640.57143
2535.58458	20618.85714
2538.30065	20549.42857
2541.01501	20546.71429
2543.72768	20557.42857
2546.43864	20490.28571
2549.14791	20534.42857
2551.85548	20460.57143
2554.56136	20434.57143
2557.26554	20436.85714
2559.96803	20408
2562.66883	20387
2565.36794	20320.85714
2568.06536	20310.85714
2570.7611	20307.14286
2573.45514	20284.71429
2576.14751	20221.42857
2578.83819	20169.57143
2581.52719	20202.85714
2584.21451	20185.85714
2586.90015	20193.85714
2589.58411	20119.85714
2592.2664	20112.28571
2594.94701	20037.71429
2597.62594	20062.28571
2600.30321	20022.71429
2602.9788	20032.57143
2605.65273	19982.85714
2608.32498	19958.42857
2610.99557	19963.85714
2613.66449	19982.28571
2616.33175	19934.71429
2618.99734	19903.42857
2621.66128	19910.57143
2624.32355	19874.71429
2626.98416	19880
2629.64311	19869.28571
2632.30041	19830.42857
2634.95605	19795
2637.61004	19736.42857
2640.26238	19754.71429
2642.91306	19775.42857
2645.56209	19722
2648.20948	19772.71429
2650.85521	19720.42857
2653.4993	19739
2656.14175	19712.57143
2658.78255	19757.71429
2661.42171	19765.42857
2664.05923	19773.14286
2666.6951	19782.42857
2669.32934	19800.42857
2671.96194	19779.28571
2674.59291	19829.14286
2677.22224	19784.42857
2679.84993	19758.85714
2682.476	19712.71429
2685.10043	19734.42857
2687.72324	19722.85714
2690.34441	19697.14286
2692.96396	19722.28571
2695.58188	19723.85714
2698.19818	19679.71429
2700.81285	19715.14286
2703.4259	19713
2706.03733	19734.71429
2708.64714	19691.57143
2711.25533	19762.71429
2713.86191	19711.42857
2716.46687	19743.14286
2719.07021	19746.85714
2721.67194	19798.57143
2724.27206	19732.85714
2726.87057	19746.71429
2729.46747	19752.71429
2732.06276	19770
2734.65644	19733
2737.24852	19735.14286
2739.83899	19717
2742.42786	19770.28571
2745.01513	19666
2747.60079	19671.71429
2750.18486	19654.42857
2752.76733	19647
2755.3482	19633.14286
2757.92747	19609
2760.50515	19601.85714
2763.08123	19591.14286
2765.65573	19487.85714
2768.22863	19521.42857
2770.79994	19533.28571
2773.36967	19507.14286
2775.9378	19507.57143
2778.50435	19494.85714
2781.06932	19449.85714
2783.6327	19490.42857
2786.1945	19472.71429
2788.75471	19410.57143
2791.31335	19391.42857
2793.87041	19371.14286
2796.42589	19341.71429
2798.97979	19344.71429
2801.53212	19264.42857
2804.08288	19244.42857
2806.63206	19172.71429
2809.17967	19185.85714
2811.72571	19160.71429
2814.27018	19122.14286
2816.81308	19074.57143
2819.35442	19083.28571
2821.89419	19025.71429
2824.43239	19014.57143
2826.96904	19013.42857
2829.50412	19010.57143
2832.03763	18966.42857
2834.56959	18995.57143
2837.1	18953.28571
2839.62884	18963.28571
2842.15613	18918.71429
2844.68186	18891
2847.20604	18915.57143
2849.72867	18932.28571
2852.24974	18863
2854.76927	18882.85714
2857.28724	18869.14286
2859.80367	18818.28571
2862.31855	18782.42857
2864.83189	18757.14286
2867.34368	18757.71429
2869.85393	18734.42857
2872.36264	18730.42857
2874.8698	18716.71429
2877.37543	18719
2879.87952	18758.28571
2882.38207	18691.14286
2884.88308	18662.71429
2887.38256	18668
2889.88051	18700.57143
2892.37692	18740.14286
2894.8718	18740.57143
2897.36515	18743.14286
2899.85698	18727.57143
2902.34727	18770.85714
2904.83604	18799.57143
2907.32328	18821
2909.809	18840.14286
2912.29319	18862.71429
2914.77587	18830.85714
2917.25702	18861.57143
2919.73665	18838.71429
2922.21476	18859.57143
2924.69136	18856.14286
2927.16644	18846.71429
2929.64	18831.14286
2932.11205	18774.14286
2934.58258	18710
2937.05161	18732.42857
2939.51912	18736.71429
2941.98513	18712
2944.44962	18717.71429
2946.91261	18652.71429
2949.37409	18667.14286
2951.83407	18667.14286
2954.29254	18627.85714
2956.74951	18637.42857
2959.20498	18605.85714
2961.65895	18642.14286
2964.11142	18647.57143
2966.56239	18593.85714
2969.01186	18580.71429
2971.45984	18539.85714
2973.90632	18529.85714
2976.35131	18471.85714
2978.7948	18481.85714
2981.23681	18445.28571
2983.67732	18388.71429
2986.11635	18352.85714
2988.55388	18351.14286
2990.98993	18274.85714
2993.4245	18258.85714
2995.85758	18241.57143
2998.28917	18243.28571
3000.71928	18209
3003.14791	18146.85714
3005.57506	18195.71429
3008.00073	18099.85714
3010.42493	18084.42857
3012.84764	18047.14286
3015.26888	18025.85714
3017.68865	17969
3020.10694	17988.42857
3022.52376	17927.14286
3024.9391	17925.14286
3027.35298	17874.28571
3029.76539	17919.28571
3032.17632	17881.85714
3034.5858	17828.42857
3036.9938	17823.42857
3039.40034	17847.71429
3041.80542	17827.42857
3044.20903	17811.28571
3046.61118	17786.85714
3049.01187	17759.57143
3051.4111	17754.42857
3053.80888	17700.57143
3056.20519	17654.14286
3058.60005	17647.85714
3060.99345	17624
3063.3854	17616.85714
3065.7759	17522.42857
3068.16494	17486
3070.55254	17445.42857
3072.93868	17435.85714
3075.32338	17379
3077.70662	17352.85714
3080.08842	17324.85714
3082.46878	17274
3084.84769	17279.42857
3087.22515	17313.42857
3089.60118	17328.85714
3091.97576	17298.85714
3094.3489	17303
3096.72061	17306
3099.09087	17283
3101.4597	17257.71429
3103.82709	17283.28571
3106.19305	17289.14286
3108.55757	17268.14286
3110.92066	17213
3113.28232	17208.71429
3115.64255	17174.71429
3118.00134	17115.28571
3120.35871	17117.57143
3122.71466	17086.85714
3125.06917	17068.71429
3127.42226	17004.42857
3129.77393	17059.28571
3132.12417	17053.71429
3134.47299	17029.14286
3136.82039	16972.14286
3139.16636	17024.85714
3141.51092	17006.28571
3143.85406	16998
3146.19579	17029.28571
3148.53609	16998.42857
3150.87499	17001.28571
3153.21246	17005.71429
3155.54853	17042.57143
3157.88318	17050.14286
3160.21642	17064.14286
3162.54826	17082.14286
3164.87868	17071.85714
3167.2077	17037.71429
3169.5353	17037.28571
3171.86151	17058.42857
3174.18631	17051.42857
3176.5097	17022.85714
3178.83169	16990.14286
3181.15228	16968.42857
3183.47147	16969.28571
3185.78926	16955.85714
3188.10565	16886.28571
3190.42065	16897.71429
3192.73424	16936.71429
3195.04645	16883.85714
3197.35725	16874.14286
3199.66667	16884
3201.97469	16917.57143
3204.28132	16870.57143
3206.58656	16906.57143
3208.8904	16929.71429
3211.19287	16951.42857
3213.49394	16920.14286
3215.79363	16976.71429
3218.09193	16953.71429
3220.38884	16967.42857
3222.68438	16946
3224.97853	16944.42857
3227.2713	16940.71429
3229.56269	16951.28571
3231.8527	16919.42857
3234.14133	16898.14286
3236.42858	16840.57143
3238.71446	16841.28571
3240.99896	16801.14286
3243.28209	16775.85714
3245.56384	16736.71429
3247.84423	16744.85714
3250.12324	16724.71429
3252.40088	16716
3254.67715	16719.42857
3256.95205	16707.85714
3259.22558	16722.14286
3261.49775	16680.71429
3263.76855	16641.14286
3266.03799	16662.85714
3268.30606	16618.71429
3270.57277	16617.42857
3272.83812	16545
3275.10211	16534.42857
3277.36474	16517.71429
3279.62601	16505.28571
3281.88593	16494.28571
3284.14448	16509.42857
3286.40168	16499.57143
3288.65753	16481
3290.91202	16463.42857
3293.16516	16436.71429
3295.41695	16432.57143
3297.66738	16362
3299.91647	16273.14286
3302.16421	16148.85714
3304.4106	16082
3306.65564	16033.71429
3308.89933	15910.42857
3311.14169	15807
3313.38269	15673.28571
3315.62236	15640
3317.86068	15443.57143
3320.09766	15336
3322.3333	15256.42857
3324.5676	15165.85714
3326.80056	14975.57143
3329.03219	14865.57143
3331.26248	2.71429
3333.49143	0.85714
3335.71905	-1
