Data from AgNPs_FTO_APTES_UA_20uM_CRN_0uM_R6G_10uM_NaF_0.1M_Addition_RamanShift__40__11-36-21-978.txt Node

Date: Thu Feb 17 11:36:21 GMT 2022
User: TCL
Spectrometer: QEP01345
Trigger mode: 4
Integration Time (sec): 7.000000E0
Scans to average: 10
Electric dark correction enabled: true
Nonlinearity correction enabled: false
Boxcar width: 0
XAxis mode: Raman Shifts
Number of Pixels in Spectrum: 1044
>>>>>Begin Spectral Data<<<<<
46.04893	-0.0375
50.45542	-1.7375
54.85868	-2.9375
59.25871	-1.0375
63.6555	104.9625
68.04907	106.0625
72.43941	111.7625
76.82654	113.6625
81.21044	115.9625
85.59113	121.6625
89.96862	128.2625
94.34289	128.7625
98.71396	132.0625
103.08183	135.5625
107.4465	141.9625
111.80798	142.6625
116.16626	147.1625
120.52136	155.0625
124.87327	160.9625
129.222	168.5625
133.56755	185.4625
137.90993	195.4625
142.24913	218.7625
146.58517	245.5625
150.91804	290.9625
155.24774	346.3625
159.57429	435.2625
163.89768	566.4625
168.21792	755.3625
172.53501	1039.0625
176.84895	1456.0625
181.15975	2054.5625
185.46741	2900.4625
189.77193	3994.7625
194.07331	5360.1625
198.37157	6911.2625
202.6667	8542.1625
206.9587	10202.2625
211.24758	11766.6625
215.53334	13336.1625
219.81599	14938.2625
224.09553	16755.4625
228.37195	18720.4625
232.64527	20872.9625
236.91549	23226.5625
241.18261	25619.7625
245.44663	27973.4625
249.70755	30102.3625
253.96539	31945.2625
258.22014	33439.2625
262.4718	34611.8625
266.72039	35421.7625
270.96589	35842.3625
275.20832	35795.1625
279.44768	35547.6625
283.68397	35249.6625
287.91719	34859.2625
292.14735	34648.3625
296.37445	34419.8625
300.59849	34295.6625
304.81948	34373.7625
309.03742	34363.5625
313.25231	34425.9625
317.46415	34295.8625
321.67296	34116.6625
325.87872	33973.5625
330.08145	33908.3625
334.28114	33931.4625
338.47781	34169.7625
342.67145	34589.3625
346.86207	35125.3625
351.04966	35650.3625
355.23424	36166.8625
359.4158	36624.9625
363.59435	36948.4625
367.76989	37112.9625
371.94243	37181.4625
376.11196	37388.6625
380.27849	37452.5625
384.44203	37639.7625
388.60257	37944.6625
392.76012	38395.7625
396.91468	38937.9625
401.06626	39489.3625
405.21485	39879.2625
409.36047	39914.5625
413.50311	39655.7625
417.64277	39722.1625
421.77947	40092.5625
425.9132	40528.3625
430.04396	40875.8625
434.17176	41165.0625
438.2966	41391.3625
442.41849	41911.2625
446.53742	42762.0625
450.6534	43664.1625
454.76644	44259.9625
458.87653	44398.9625
462.98368	44244.8625
467.08789	43846.9625
471.18916	43356.5625
475.2875	42723.5625
479.38291	42296.7625
483.4754	41969.7625
487.56496	41684.5625
491.6516	41474.2625
495.73531	41264.4625
499.81612	41061.5625
503.89401	41270.0625
507.96899	41502.1625
512.04106	41553.9625
516.11023	41465.4625
520.1765	41135.1625
524.23987	40947.4625
528.30034	40867.1625
532.35792	40703.5625
536.41261	40341.6625
540.46441	39981.4625
544.51333	39896.8625
548.55936	40061.1625
552.60252	40531.1625
556.64279	41332.5625
560.6802	42032.3625
564.71473	42510.6625
568.7464	43078.2625
572.7752	44384.8625
576.80114	46166.3625
580.82422	48161.8625
584.84444	50348.1625
588.86181	53553.7625
592.87633	57293.4625
596.888	58300.9625
600.89682	55187.6625
604.9028	51662.9625
608.90594	50920.0625
612.90624	51115.8625
616.90371	48421.6625
620.89834	44323.0625
624.89015	42698.4625
628.87913	42751.5625
632.86528	43147.6625
636.84862	43024.1625
640.82913	42238.7625
644.80683	41400.9625
648.78172	40927.0625
652.75379	40899.2625
656.72306	41232.0625
660.68952	41623.7625
664.65319	41541.3625
668.61405	41186.3625
672.57211	41145.4625
676.52738	41409.3625
680.47986	41425.5625
684.42955	41219.4625
688.37646	41131.1625
692.32058	41330.6625
696.26192	41778.6625
700.20048	42292.3625
704.13626	42639.4625
708.06928	42880.7625
711.99952	42915.0625
715.927	42852.7625
719.85171	42955.4625
723.77365	42702.9625
727.69284	42179.8625
731.60928	41712.2625
735.52295	41538.8625
739.43388	41601.4625
743.34206	41789.6625
747.24749	42009.5625
751.15017	42460.9625
755.05012	43073.5625
758.94733	43938.3625
762.8418	45184.8625
766.73354	46977.3625
770.62254	48541.6625
774.50882	48451.0625
778.39237	46975.8625
782.27321	45187.1625
786.15132	43822.1625
790.02671	42907.5625
793.89938	42335.9625
797.76935	42082.1625
801.6366	41945.7625
805.50115	41812.6625
809.36299	41727.0625
813.22213	41651.3625
817.07857	41528.9625
820.93231	41412.4625
824.78336	41316.6625
828.63172	41231.6625
832.47738	41134.2625
836.32036	41139.3625
840.16066	41173.4625
843.99827	41225.4625
847.8332	41365.6625
851.66546	41491.0625
855.49504	41585.8625
859.32195	41644.2625
863.1462	41624.5625
866.96777	41575.9625
870.78668	41626.1625
874.60293	41683.6625
878.41652	41775.5625
882.22745	41924.5625
886.03573	42052.5625
889.84136	42039.0625
893.64433	41892.6625
897.44466	41828.3625
901.24235	41766.2625
905.0374	41700.1625
908.8298	41668.7625
912.61957	41678.5625
916.40671	41942.9625
920.19121	42435.4625
923.97308	42894.0625
927.75233	43070.5625
931.52895	42647.0625
935.30295	41977.4625
939.07433	41416.3625
942.84309	41026.0625
946.60924	40853.4625
950.37278	40739.4625
954.13371	40850.3625
957.89203	40819.4625
961.64774	40822.5625
965.40086	40808.0625
969.15137	40882.5625
972.89929	40713.8625
976.64461	40582.9625
980.38733	40539.9625
984.12747	40603.4625
987.86502	40664.6625
991.59999	40862.0625
995.33237	41160.8625
999.06217	41640.3625
1002.78939	42261.4625
1006.51404	43155.3625
1010.23611	43973.9625
1013.95561	44524.2625
1017.67255	44565.4625
1021.38692	44105.8625
1025.09872	43336.7625
1028.80796	42705.3625
1032.51465	42411.7625
1036.21877	42370.8625
1039.92035	42451.8625
1043.61937	42588.8625
1047.31584	42698.8625
1051.00976	42801.5625
1054.70114	42989.4625
1058.38998	43168.5625
1062.07627	43469.9625
1065.76003	43978.8625
1069.44126	44548.9625
1073.11995	45295.0625
1076.79611	45912.5625
1080.46974	46102.3625
1084.14085	46410.0625
1087.80943	46835.7625
1091.47549	47205.4625
1095.13903	47287.0625
1098.80005	46769.3625
1102.45857	45862.6625
1106.11456	45141.1625
1109.76805	44782.5625
1113.41903	44758.0625
1117.06751	44855.6625
1120.71348	45146.4625
1124.35696	45429.5625
1127.99793	45693.3625
1131.63641	45883.5625
1135.2724	45989.2625
1138.90589	46077.7625
1142.5369	46254.5625
1146.16542	46591.1625
1149.79145	47083.4625
1153.415	47499.3625
1157.03607	47941.7625
1160.65467	48808.5625
1164.27079	50208.3625
1167.88443	51992.1625
1171.49561	53886.4625
1175.10432	56078.3625
1178.71056	58733.0625
1182.31434	61109.6625
1185.91565	62223.1625
1189.51451	61800.6625
1193.11091	60879.8625
1196.70485	59670.2625
1200.29634	58350.5625
1203.88538	57487.8625
1207.47197	57379.0625
1211.05612	57565.0625
1214.63782	57116.8625
1218.21708	56090.1625
1221.79391	54916.9625
1225.36829	54121.5625
1228.94024	53683.0625
1232.50976	53189.9625
1236.07685	52362.9625
1239.6415	51789.3625
1243.20374	51534.8625
1246.76355	51696.1625
1250.32093	52210.3625
1253.8759	52973.9625
1257.42845	54081.6625
1260.97859	55273.9625
1264.52631	56593.3625
1268.07163	58049.5625
1271.61453	59436.2625
1275.15503	60746.1625
1278.69312	62197.4625
1282.22882	63905.3625
1285.76211	65979.5625
1289.29301	68367.5625
1292.82151	70793.6625
1296.34761	73679.8625
1299.87133	77165.2625
1303.39266	80510.0625
1306.9116	83252.2625
1310.42815	85101.4625
1313.94233	85852.8625
1317.45412	85057.7625
1320.96354	83318.5625
1324.47058	82048.1625
1327.97525	81366.3625
1331.47754	80854.3625
1334.97747	80249.1625
1338.47502	79677.0625
1341.97022	79172.7625
1345.46305	78455.5625
1348.95352	77674.8625
1352.44163	77281.7625
1355.92738	77870.7625
1359.41078	79773.7625
1362.89183	81473.7625
1366.37053	81134.3625
1369.84688	77215.0625
1373.32088	71192.4625
1376.79254	66472.4625
1380.26186	64663.9625
1383.72883	64700.2625
1387.19347	64769.4625
1390.65578	64220.7625
1394.11575	64003.2625
1397.57339	64480.5625
1401.0287	65492.7625
1404.48168	66313.5625
1407.93234	66183.5625
1411.38068	65150.8625
1414.82669	63487.9625
1418.27039	61539.8625
1421.71177	59733.5625
1425.15083	58346.6625
1428.58758	57815.0625
1432.02203	58427.2625
1435.45416	59655.6625
1438.88399	61106.1625
1442.31151	62005.7625
1445.73673	62501.6625
1449.15965	62685.4625
1452.58027	62757.3625
1455.9986	62681.1625
1459.41463	63132.7625
1462.82837	63942.1625
1466.23982	65016.0625
1469.64898	65943.8625
1473.05586	66717.4625
1476.46045	67004.9625
1479.86276	66970.3625
1483.26279	66686.8625
1486.66054	66548.9625
1490.05602	66879.8625
1493.44922	67494.2625
1496.84016	67988.6625
1500.22882	68214.3625
1503.61521	68309.8625
1506.99934	68359.3625
1510.38121	68095.3625
1513.76081	67645.8625
1517.13816	67121.5625
1520.51324	66762.1625
1523.88607	67083.1625
1527.25665	67794.0625
1530.62498	68357.2625
1533.99105	68068.2625
1537.35488	67034.5625
1540.71647	65460.2625
1544.07581	63805.0625
1547.4329	62264.5625
1550.78776	60961.6625
1554.14038	60130.6625
1557.49077	59657.4625
1560.83892	59329.8625
1564.18484	59185.6625
1567.52853	59137.0625
1570.86999	59374.2625
1574.20922	60148.1625
1577.54624	60798.9625
1580.88103	61105.2625
1584.2136	61921.1625
1587.54395	63881.6625
1590.87208	67193.2625
1594.19801	71060.6625
1597.52172	74405.0625
1600.84321	75239.0625
1604.16251	72321.4625
1607.47959	67294.6625
1610.79447	62193.3625
1614.10715	57764.2625
1617.41763	54265.9625
1620.7259	51986.9625
1624.03199	50869.7625
1627.33587	50951.0625
1630.63757	52155.1625
1633.93707	54922.3625
1637.23439	59806.0625
1640.52951	67273.4625
1643.82246	76263.7625
1647.11321	83311.6625
1650.40179	84074.6625
1653.68819	77729.0625
1656.97241	67898.8625
1660.25446	59091.8625
1663.53433	52807.5625
1666.81203	49010.3625
1670.08756	46644.9625
1673.36092	45200.4625
1676.63211	44219.1625
1679.90115	43592.9625
1683.16801	42961.3625
1686.43272	42613.1625
1689.69527	42291.8625
1692.95567	42039.7625
1696.2139	41915.7625
1699.46999	41827.0625
1702.72392	41720.7625
1705.97571	41665.6625
1709.22535	41553.0625
1712.47284	41529.5625
1715.71819	41489.0625
1718.96139	41472.6625
1722.20246	41377.6625
1725.44139	41167.9625
1728.67818	41062.2625
1731.91284	40832.9625
1735.14537	40697.5625
1738.37576	40498.5625
1741.60403	40485.4625
1744.83017	40310.9625
1748.05418	40260.5625
1751.27607	40157.8625
1754.49584	40108.1625
1757.71349	40128.6625
1760.92903	40110.6625
1764.14244	40066.9625
1767.35375	40054.6625
1770.56294	40004.4625
1773.77002	40001.6625
1776.97499	39960.8625
1780.17785	39906.2625
1783.37861	39840.0625
1786.57727	39750.7625
1789.77382	39685.9625
1792.96828	39710.3625
1796.16064	39602.8625
1799.3509	39549.7625
1802.53907	39484.3625
1805.72514	39411.5625
1808.90913	39308.7625
1812.09102	39223.6625
1815.27083	39196.9625
1818.44856	39148.6625
1821.6242	39041.6625
1824.79776	38951.2625
1827.96924	38973.4625
1831.13864	38946.9625
1834.30597	38936.0625
1837.47122	38925.9625
1840.6344	38844.5625
1843.7955	38906.7625
1846.95454	38889.8625
1850.11151	38993.3625
1853.26642	38926.1625
1856.41926	38893.2625
1859.57004	38913.4625
1862.71876	38869.0625
1865.86542	38824.7625
1869.01003	38737.2625
1872.15258	38787.0625
1875.29308	38716.2625
1878.43152	38605.0625
1881.56792	38605.3625
1884.70227	38620.4625
1887.83457	38585.0625
1890.96482	38545.2625
1894.09304	38478.2625
1897.21921	38410.2625
1900.34335	38380.1625
1903.46544	38314.7625
1906.58551	38299.2625
1909.70353	38296.0625
1912.81953	38225.4625
1915.93349	38185.7625
1919.04543	38104.9625
1922.15534	38040.6625
1925.26322	37924.4625
1928.36908	37928.2625
1931.47292	37806.8625
1934.57473	37710.2625
1937.67453	37641.5625
1940.77232	37544.5625
1943.86808	37427.8625
1946.96184	37305.0625
1950.05358	37226.0625
1953.14331	37083.4625
1956.23103	37022.8625
1959.31675	36947.0625
1962.40046	36780.3625
1965.48217	36694.0625
1968.56188	36580.9625
1971.63959	36525.5625
1974.7153	36395.6625
1977.78901	36246.2625
1980.86073	36117.4625
1983.93046	36057.0625
1986.99819	35956.2625
1990.06394	35863.5625
1993.1277	35784.8625
1996.18947	35678.9625
1999.24925	35622.2625
2002.30706	35517.7625
2005.36288	35415.2625
2008.41672	35313.6625
2011.46859	35203.7625
2014.51848	35127.2625
2017.56639	35004.2625
2020.61233	34946.6625
2023.6563	34863.9625
2026.6983	34707.9625
2029.73833	34646.9625
2032.7764	34571.2625
2035.8125	34501.1625
2038.84664	34503.0625
2041.87881	34438.4625
2044.90903	34331.1625
2047.93729	34293.8625
2050.96359	34247.9625
2053.98794	34223.6625
2057.01034	34212.4625
2060.03078	34212.5625
2063.04927	34190.1625
2066.06582	34192.5625
2069.08042	34187.9625
2072.09307	34163.7625
2075.10378	34099.1625
2078.11255	34090.3625
2081.11938	34036.8625
2084.12426	34051.6625
2087.12722	33990.6625
2090.12824	34017.0625
2093.12732	34071.2625
2096.12447	34039.6625
2099.11969	34015.7625
2102.11299	33967.3625
2105.10435	34041.5625
2108.09379	34031.6625
2111.08131	34163.3625
2114.0669	34072.4625
2117.05057	34093.0625
2120.03233	34038.5625
2123.01216	34100.4625
2125.99008	34149.1625
2128.96609	34203.7625
2131.94018	34269.3625
2134.91236	34285.1625
2137.88263	34314.5625
2140.851	34332.9625
2143.81746	34293.8625
2146.78201	34324.9625
2149.74466	34352.7625
2152.7054	34373.8625
2155.66425	34364.3625
2158.6212	34378.0625
2161.57625	34304.1625
2164.52941	34363.8625
2167.48067	34259.6625
2170.43004	34264.5625
2173.37752	34301.9625
2176.32311	34308.7625
2179.26681	34326.3625
2182.20863	34315.9625
2185.14856	34354.3625
2188.08661	34360.4625
2191.02278	34275.1625
2193.95707	34229.4625
2196.88948	34223.3625
2199.82001	34199.8625
2202.74867	34161.5625
2205.67545	34142.8625
2208.60037	34066.9625
2211.52341	33992.6625
2214.44458	33935.2625
2217.36388	33907.9625
2220.28132	33856.2625
2223.1969	33760.8625
2226.11061	33738.6625
2229.02246	33652.2625
2231.93245	33629.9625
2234.84058	33595.2625
2237.74686	33645.9625
2240.65128	33611.4625
2243.55385	33511.1625
2246.45456	33485.9625
2249.35343	33407.7625
2252.25044	33400.8625
2255.14561	33292.5625
2258.03893	33234.7625
2260.93041	33163.9625
2263.82004	33070.6625
2266.70783	33032.2625
2269.59378	32904.0625
2272.4779	32842.1625
2275.36017	32718.0625
2278.24061	32787.3625
2281.11922	32662.1625
2283.996	32579.4625
2286.87094	32579.7625
2289.74405	32524.3625
2292.61534	32509.3625
2295.4848	32438.6625
2298.35243	32469.7625
2301.21824	32387.6625
2304.08223	32409.9625
2306.94439	32344.5625
2309.80474	32373.9625
2312.66327	32338.2625
2315.51999	32288.2625
2318.37489	32199.2625
2321.22797	32196.7625
2324.07925	32196.1625
2326.92871	32105.6625
2329.77637	32070.2625
2332.62222	31984.4625
2335.46626	32005.6625
2338.3085	31991.3625
2341.14893	31920.1625
2343.98756	31893.5625
2346.8244	31874.7625
2349.65943	31845.8625
2352.49267	31856.7625
2355.32411	31854.5625
2358.15376	31819.2625
2360.98161	31864.5625
2363.80768	31799.3625
2366.63195	31800.7625
2369.45444	31770.7625
2372.27514	31730.9625
2375.09405	31644.1625
2377.91118	31641.6625
2380.72652	31515.2625
2383.54009	31468.4625
2386.35187	31413.1625
2389.16188	31347.3625
2391.97011	31265.1625
2394.77657	31240.2625
2397.58125	31208.6625
2400.38416	31134.2625
2403.18529	31081.0625
2405.98466	31090.6625
2408.78226	31037.9625
2411.57809	31038.9625
2414.37216	30965.9625
2417.16446	30983.2625
2419.955	30950.6625
2422.74378	30965.7625
2425.5308	30914.4625
2428.31606	30908.9625
2431.09956	30871.6625
2433.88131	30916.5625
2436.6613	30842.8625
2439.43954	30821.8625
2442.21603	30813.1625
2444.99077	30770.2625
2447.76377	30731.0625
2450.53501	30705.0625
2453.30451	30744.5625
2456.07226	30674.6625
2458.83827	30674.0625
2461.60254	30579.1625
2464.36507	30597.7625
2467.12586	30582.3625
2469.88492	30597.7625
2472.64224	30586.2625
2475.39782	30532.4625
2478.15167	30546.2625
2480.90379	30528.9625
2483.65417	30515.4625
2486.40283	30569.2625
2489.14976	30484.5625
2491.89497	30497.6625
2494.63845	30509.2625
2497.3802	30413.2625
2500.12024	30456.5625
2502.85855	30373.8625
2505.59514	30409.7625
2508.33002	30349.5625
2511.06318	30334.4625
2513.79462	30322.3625
2516.52435	30297.4625
2519.25237	30308.4625
2521.97867	30256.2625
2524.70327	30233.1625
2527.42616	30156.1625
2530.14734	30139.4625
2532.86681	30100.6625
2535.58458	30137.4625
2538.30065	30092.7625
2541.01501	30079.6625
2543.72768	30021.2625
2546.43864	30032.0625
2549.14791	29944.7625
2551.85548	29935.7625
2554.56136	29846.3625
2557.26554	29813.7625
2559.96803	29757.1625
2562.66883	29755.1625
2565.36794	29703.7625
2568.06536	29675.0625
2570.7611	29664.1625
2573.45514	29607.3625
2576.14751	29558.7625
2578.83819	29481.4625
2581.52719	29541.2625
2584.21451	29473.5625
2586.90015	29396.7625
2589.58411	29321.1625
2592.2664	29355.8625
2594.94701	29340.7625
2597.62594	29318.8625
2600.30321	29301.9625
2602.9788	29261.8625
2605.65273	29221.6625
2608.32498	29217.6625
2610.99557	29166.6625
2613.66449	29218.5625
2616.33175	29128.7625
2618.99734	29101.9625
2621.66128	29045.7625
2624.32355	29016.1625
2626.98416	29000.2625
2629.64311	28959.8625
2632.30041	28889.0625
2634.95605	28897.5625
2637.61004	28869.8625
2640.26238	28892.1625
2642.91306	28864.5625
2645.56209	28805.4625
2648.20948	28799.1625
2650.85521	28829.2625
2653.4993	28887.4625
2656.14175	28829.3625
2658.78255	28880.5625
2661.42171	28897.1625
2664.05923	28889.2625
2666.6951	28897.5625
2669.32934	28867.1625
2671.96194	28917.1625
2674.59291	28916.1625
2677.22224	28896.2625
2679.84993	28911.9625
2682.476	28906.1625
2685.10043	28873.8625
2687.72324	28835.5625
2690.34441	28847.6625
2692.96396	28786.6625
2695.58188	28875.9625
2698.19818	28804.6625
2700.81285	28847.5625
2703.4259	28782.5625
2706.03733	28878.3625
2708.64714	28828.9625
2711.25533	28856.1625
2713.86191	28860.7625
2716.46687	28952.4625
2719.07021	28922.6625
2721.67194	28964.3625
2724.27206	28887.6625
2726.87057	28924.2625
2729.46747	28936.3625
2732.06276	28932.2625
2734.65644	28925.3625
2737.24852	28990.2625
2739.83899	28911.3625
2742.42786	28960.6625
2745.01513	28885.1625
2747.60079	28859.9625
2750.18486	28811.8625
2752.76733	28842.0625
2755.3482	28788.6625
2757.92747	28783.3625
2760.50515	28673.1625
2763.08123	28676.1625
2765.65573	28644.5625
2768.22863	28593.5625
2770.79994	28568.3625
2773.36967	28619.7625
2775.9378	28585.6625
2778.50435	28587.7625
2781.06932	28573.3625
2783.6327	28562.5625
2786.1945	28550.5625
2788.75471	28461.2625
2791.31335	28350.7625
2793.87041	28342.0625
2796.42589	28268.6625
2798.97979	28265.4625
2801.53212	28216.4625
2804.08288	28152.7625
2806.63206	28109.3625
2809.17967	28083.9625
2811.72571	27951.7625
2814.27018	27849.3625
2816.81308	27788.9625
2819.35442	27755.7625
2821.89419	27673.9625
2824.43239	27682.8625
2826.96904	27627.5625
2829.50412	27645.2625
2832.03763	27566.1625
2834.56959	27543.0625
2837.1	27516.4625
2839.62884	27439.2625
2842.15613	27424.5625
2844.68186	27491.6625
2847.20604	27424.0625
2849.72867	27429.6625
2852.24974	27341.9625
2854.76927	27306.6625
2857.28724	27239.2625
2859.80367	27230.6625
2862.31855	27201.1625
2864.83189	27183.0625
2867.34368	27114.7625
2869.85393	27108.7625
2872.36264	27040.2625
2874.8698	27002.7625
2877.37543	26950.2625
2879.87952	26947.1625
2882.38207	26990.3625
2884.88308	27000.4625
2887.38256	26987.7625
2889.88051	26974.1625
2892.37692	26973.7625
2894.8718	26984.8625
2897.36515	26970.5625
2899.85698	26992.8625
2902.34727	27043.7625
2904.83604	27006.8625
2907.32328	27013.6625
2909.809	27014.4625
2912.29319	27027.0625
2914.77587	27069.6625
2917.25702	27014.0625
2919.73665	26958.6625
2922.21476	26962.4625
2924.69136	26949.8625
2927.16644	26931.5625
2929.64	26944.6625
2932.11205	26887.8625
2934.58258	26841.9625
2937.05161	26888.9625
2939.51912	26930.1625
2941.98513	26888.0625
2944.44962	26831.2625
2946.91261	26786.2625
2949.37409	26848.2625
2951.83407	26779.1625
2954.29254	26774.6625
2956.74951	26728.6625
2959.20498	26795.2625
2961.65895	26732.6625
2964.11142	26748.1625
2966.56239	26705.3625
2969.01186	26679.5625
2971.45984	26565.7625
2973.90632	26544.3625
2976.35131	26494.2625
2978.7948	26472.1625
2981.23681	26409.0625
2983.67732	26339.1625
2986.11635	26277.3625
2988.55388	26213.7625
2990.98993	26176.3625
2993.4245	26176.6625
2995.85758	26045.2625
2998.28917	25977.0625
3000.71928	25922.2625
3003.14791	25864.2625
3005.57506	25856.1625
3008.00073	25768.8625
3010.42493	25770.0625
3012.84764	25715.5625
3015.26888	25695.3625
3017.68865	25616.4625
3020.10694	25592.3625
3022.52376	25547.5625
3024.9391	25498.7625
3027.35298	25464.8625
3029.76539	25428.4625
3032.17632	25425.6625
3034.5858	25342.0625
3036.9938	25343.0625
3039.40034	25333.2625
3041.80542	25289.9625
3044.20903	25259.6625
3046.61118	25203.9625
3049.01187	25181.6625
3051.4111	25116.7625
3053.80888	25081.8625
3056.20519	25043.3625
3058.60005	24982.6625
3060.99345	24928.8625
3063.3854	24825.5625
3065.7759	24771.5625
3068.16494	24742.8625
3070.55254	24605.6625
3072.93868	24550.9625
3075.32338	24464.1625
3077.70662	24457.4625
3080.08842	24407.9625
3082.46878	24313.0625
3084.84769	24274.8625
3087.22515	24279.0625
3089.60118	24250.0625
3091.97576	24207.2625
3094.3489	24204.7625
3096.72061	24194.6625
3099.09087	24218.0625
3101.4597	24163.9625
3103.82709	24237.9625
3106.19305	24125.4625
3108.55757	24134.2625
3110.92066	24093.0625
3113.28232	24059.9625
3115.64255	23990.4625
3118.00134	23894.2625
3120.35871	23837.8625
3122.71466	23739.4625
3125.06917	23731.0625
3127.42226	23679.4625
3129.77393	23660.0625
3132.12417	23582.6625
3134.47299	23585.0625
3136.82039	23544.7625
3139.16636	23553.9625
3141.51092	23522.8625
3143.85406	23498.9625
3146.19579	23514.1625
3148.53609	23479.5625
3150.87499	23483.2625
3153.21246	23507.5625
3155.54853	23513.0625
3157.88318	23483.1625
3160.21642	23485.8625
3162.54826	23399.5625
3164.87868	23414.2625
3167.2077	23360.1625
3169.5353	23354.6625
3171.86151	23345.9625
3174.18631	23361.1625
3176.5097	23404.4625
3178.83169	23306.8625
3181.15228	23236.9625
3183.47147	23169.6625
3185.78926	23157.0625
3188.10565	23100.2625
3190.42065	23081.6625
3192.73424	23024.4625
3195.04645	22954.7625
3197.35725	22950.3625
3199.66667	22918.6625
3201.97469	22969.8625
3204.28132	22876.8625
3206.58656	22909.2625
3208.8904	22898.8625
3211.19287	22879.2625
3213.49394	22894.9625
3215.79363	22908.1625
3218.09193	22901.6625
3220.38884	22942.6625
3222.68438	22897.9625
3224.97853	22823.7625
3227.2713	22764.4625
3229.56269	22775.9625
3231.8527	22767.3625
3234.14133	22729.1625
3236.42858	22637.4625
3238.71446	22617.3625
3240.99896	22587.6625
3243.28209	22599.8625
3245.56384	22485.8625
3247.84423	22477.8625
3250.12324	22453.9625
3252.40088	22447.9625
3254.67715	22406.3625
3256.95205	22370.9625
3259.22558	22353.7625
3261.49775	22300.4625
3263.76855	22287.3625
3266.03799	22221.9625
3268.30606	22172.9625
3270.57277	22132.4625
3272.83812	22120.4625
3275.10211	22090.6625
3277.36474	22047.1625
3279.62601	22006.8625
3281.88593	22000.0625
3284.14448	21959.9625
3286.40168	21917.7625
3288.65753	21960.8625
3290.91202	21914.2625
3293.16516	21867.5625
3295.41695	21885.1625
3297.66738	21725.3625
3299.91647	21590.6625
3302.16421	21424.6625
3304.4106	21350.7625
3306.65564	21171.7625
3308.89933	21031.1625
3311.14169	20854.2625
3313.38269	20680.7625
3315.62236	20573.2625
3317.86068	20386.2625
3320.09766	20206.9625
3322.3333	20076.4625
3324.5676	19937.5625
3326.80056	19649.2625
3329.03219	19513.7625
3331.26248	5.9625
3333.49143	-0.2375
3335.71905	-0.2375
