Data from AgNPs_FTO_APTES_UA_20uM_CRN_200uM_R6G_10uM_NaF_0.1M_Addition_RamanShift__8__18-01-44-915.txt Node

Date: Thu Feb 17 18:01:44 GMT 2022
User: TCL
Spectrometer: QEP01345
Trigger mode: 4
Integration Time (sec): 1.000000E1
Scans to average: 7
Electric dark correction enabled: true
Nonlinearity correction enabled: false
Boxcar width: 0
XAxis mode: Raman Shifts
Number of Pixels in Spectrum: 1044
>>>>>Begin Spectral Data<<<<<
46.04893	-0.875
50.45542	-0.875
54.85868	0.26786
59.25871	-3.44643
63.6555	103.125
68.04907	105.26786
72.43941	109.41071
76.82654	110.98214
81.21044	123.26786
85.59113	120.98214
89.96862	124.125
94.34289	123.98214
98.71396	135.83929
103.08183	137.26786
107.4465	143.125
111.80798	144.125
116.16626	148.55357
120.52136	149.41071
124.87327	163.69643
129.222	160.83929
133.56755	175.41071
137.90993	188.125
142.24913	202.26786
146.58517	229.98214
150.91804	273.55357
155.24774	323.69643
159.57429	397.41071
163.89768	513.69643
168.21792	672.55357
172.53501	924.41071
176.84895	1296.55357
181.15975	1837.125
185.46741	2594.83929
189.77193	3595.83929
194.07331	4839.83929
198.37157	6274.55357
202.6667	7774.83929
206.9587	9286.69643
211.24758	10751.69643
215.53334	12200.69643
219.81599	13677.98214
224.09553	15294.83929
228.37195	17152.41071
232.64527	19145.55357
236.91549	21313.98214
241.18261	23562.98214
245.44663	25621.98214
249.70755	27563.83929
253.96539	29268.26786
258.22014	30685.55357
262.4718	31800.26786
266.72039	32554.98214
270.96589	32934.41071
275.20832	33040.55357
279.44768	32782.41071
283.68397	32350.125
287.91719	32009.55357
292.14735	31647.83929
296.37445	31494.41071
300.59849	31455.55357
304.81948	31591.41071
309.03742	31679.55357
313.25231	31666.98214
317.46415	31534.55357
321.67296	31230.83929
325.87872	30940.41071
330.08145	30851.26786
334.28114	30954.41071
338.47781	31163.83929
342.67145	31581.125
346.86207	32059.83929
351.04966	32588.55357
355.23424	33153.125
359.4158	33582.41071
363.59435	33911.83929
367.76989	34189.69643
371.94243	34417.125
376.11196	34602.55357
380.27849	34746.98214
384.44203	35026.98214
388.60257	35256.41071
392.76012	35558.55357
396.91468	35895.55357
401.06626	36286.55357
405.21485	36575.26786
409.36047	36515.125
413.50311	36240.55357
417.64277	36137.125
421.77947	36184.69643
425.9132	36352.26786
430.04396	36545.98214
434.17176	36762.83929
438.2966	37068.41071
442.41849	37575.125
446.53742	38369.26786
450.6534	39162.41071
454.76644	39581.55357
458.87653	39681.55357
462.98368	39538.83929
467.08789	39226.125
471.18916	38834.125
475.2875	38262.55357
479.38291	37779.98214
483.4754	37455.98214
487.56496	37207.98214
491.6516	37074.98214
495.73531	36982.26786
499.81612	37052.98214
503.89401	37342.41071
507.96899	37483.125
512.04106	37609.41071
516.11023	37556.55357
520.1765	37536.83929
524.23987	37537.98214
528.30034	37591.69643
532.35792	37536.55357
536.41261	37361.125
540.46441	37056.125
544.51333	36978.55357
548.55936	37130.98214
552.60252	37533.98214
556.64279	38037.55357
560.6802	38461.98214
564.71473	38543.125
568.7464	38562.26786
572.7752	38908.41071
576.80114	39429.26786
580.82422	40149.98214
584.84444	41185.26786
588.86181	42784.125
592.87633	44615.55357
596.888	45444.125
600.89682	44428.41071
604.9028	43446.26786
608.90594	44845.69643
612.90624	47041.26786
616.90371	45446.98214
620.89834	40820.125
624.89015	38624.125
628.87913	38393.41071
632.86528	38562.26786
636.84862	38728.55357
640.82913	38454.55357
644.80683	37899.83929
648.78172	37549.125
652.75379	37631.69643
656.72306	37993.125
660.68952	38385.69643
664.65319	38289.26786
668.61405	37882.69643
672.57211	37950.69643
676.52738	38153.55357
680.47986	38271.98214
684.42955	38089.98214
688.37646	37951.69643
692.32058	38051.55357
696.26192	38332.41071
700.20048	38634.125
704.13626	38890.125
708.06928	38940.69643
711.99952	38822.69643
715.927	38700.69643
719.85171	38831.41071
723.77365	38799.69643
727.69284	38512.41071
731.60928	38273.125
735.52295	38248.69643
739.43388	38360.55357
743.34206	38461.83929
747.24749	38590.41071
751.15017	38730.26786
755.05012	38995.41071
758.94733	39592.55357
762.8418	40684.125
766.73354	42458.83929
770.62254	44232.55357
774.50882	44785.69643
778.39237	43790.41071
782.27321	42003.125
786.15132	40395.125
790.02671	39344.83929
793.89938	38699.69643
797.76935	38485.98214
801.6366	38387.26786
805.50115	38237.55357
809.36299	38193.26786
813.22213	38022.98214
817.07857	37960.41071
820.93231	37959.125
824.78336	37899.125
828.63172	37915.41071
832.47738	37864.98214
836.32036	37873.69643
840.16066	37886.41071
843.99827	37942.26786
847.8332	38018.26786
851.66546	38114.98214
855.49504	38217.83929
859.32195	38197.55357
863.1462	38175.69643
866.96777	38210.69643
870.78668	38214.55357
874.60293	38268.83929
878.41652	38348.41071
882.22745	38422.125
886.03573	38456.26786
889.84136	38493.41071
893.64433	38369.55357
897.44466	38240.83929
901.24235	38282.125
905.0374	38118.41071
908.8298	38030.125
912.61957	37979.98214
916.40671	38148.26786
920.19121	38342.83929
923.97308	38511.83929
927.75233	38610.83929
931.52895	38529.26786
935.30295	38251.83929
939.07433	37885.83929
942.84309	37665.83929
946.60924	37522.98214
950.37278	37455.41071
954.13371	37397.55357
957.89203	37293.98214
961.64774	37306.83929
965.40086	37300.69643
969.15137	37275.69643
972.89929	37268.26786
976.64461	37208.125
980.38733	37321.69643
984.12747	37361.41071
987.86502	37472.41071
991.59999	37641.125
995.33237	37821.69643
999.06217	38180.83929
1002.78939	38566.83929
1006.51404	39013.69643
1010.23611	39492.98214
1013.95561	39843.55357
1017.67255	39988.83929
1021.38692	39810.83929
1025.09872	39348.41071
1028.80796	38991.41071
1032.51465	38870.98214
1036.21877	38989.26786
1039.92035	39030.26786
1043.61937	39064.26786
1047.31584	39068.55357
1051.00976	39005.69643
1054.70114	39120.55357
1058.38998	39176.98214
1062.07627	39270.98214
1065.76003	39511.41071
1069.44126	39808.98214
1073.11995	40122.83929
1076.79611	40544.83929
1080.46974	40734.83929
1084.14085	40930.69643
1087.80943	41167.41071
1091.47549	41395.41071
1095.13903	41216.26786
1098.80005	40897.98214
1102.45857	40505.98214
1106.11456	40211.26786
1109.76805	40120.98214
1113.41903	40187.55357
1117.06751	40323.83929
1120.71348	40576.69643
1124.35696	40848.26786
1127.99793	41161.26786
1131.63641	41341.98214
1135.2724	41148.125
1138.90589	41004.125
1142.5369	40941.26786
1146.16542	40963.41071
1149.79145	40981.26786
1153.415	40956.125
1157.03607	41108.125
1160.65467	41578.125
1164.27079	42472.83929
1167.88443	43604.125
1171.49561	45118.125
1175.10432	46931.41071
1178.71056	49395.69643
1182.31434	51605.26786
1185.91565	52710.55357
1189.51451	52514.69643
1193.11091	51555.83929
1196.70485	50272.83929
1200.29634	49050.98214
1203.88538	47927.26786
1207.47197	46866.55357
1211.05612	46208.83929
1214.63782	45480.41071
1218.21708	44947.41071
1221.79391	44661.83929
1225.36829	44662.55357
1228.94024	44692.98214
1232.50976	44487.26786
1236.07685	44058.83929
1239.6415	43731.83929
1243.20374	43530.41071
1246.76355	43637.55357
1250.32093	43876.98214
1253.8759	44315.26786
1257.42845	45007.26786
1260.97859	45719.55357
1264.52631	46456.69643
1268.07163	47264.98214
1271.61453	47955.83929
1275.15503	48601.69643
1278.69312	49244.26786
1282.22882	50012.69643
1285.76211	50905.41071
1289.29301	52148.83929
1292.82151	53503.55357
1296.34761	55139.41071
1299.87133	57128.98214
1303.39266	59297.55357
1306.9116	61561.55357
1310.42815	63722.83929
1313.94233	64902.41071
1317.45412	64250.41071
1320.96354	62571.55357
1324.47058	60872.41071
1327.97525	59463.125
1331.47754	58537.98214
1334.97747	57987.41071
1338.47502	57805.98214
1341.97022	57800.98214
1345.46305	58021.69643
1348.95352	58639.83929
1352.44163	59847.69643
1355.92738	61566.26786
1359.41078	63979.83929
1362.89183	65792.125
1366.37053	64988.98214
1369.84688	60887.41071
1373.32088	55699.98214
1376.79254	52047.55357
1380.26186	50465.55357
1383.72883	49947.83929
1387.19347	49577.26786
1390.65578	48874.125
1394.11575	48412.98214
1397.57339	48410.26786
1401.0287	48590.69643
1404.48168	48757.41071
1407.93234	48743.26786
1411.38068	48582.41071
1414.82669	48135.98214
1418.27039	47498.41071
1421.71177	46804.98214
1425.15083	46140.55357
1428.58758	45786.98214
1432.02203	45941.69643
1435.45416	46434.125
1438.88399	47079.55357
1442.31151	47377.26786
1445.73673	47447.41071
1449.15965	47448.98214
1452.58027	47249.26786
1455.9986	47039.26786
1459.41463	47095.69643
1462.82837	47537.125
1466.23982	48299.55357
1469.64898	49035.26786
1473.05586	49696.83929
1476.46045	50139.55357
1479.86276	50301.41071
1483.26279	50376.69643
1486.66054	50593.125
1490.05602	50950.83929
1493.44922	51586.98214
1496.84016	52296.26786
1500.22882	53301.98214
1503.61521	54705.69643
1506.99934	56097.69643
1510.38121	56984.41071
1513.76081	56795.41071
1517.13816	55351.69643
1520.51324	53547.26786
1523.88607	52085.41071
1527.25665	51518.26786
1530.62498	51202.41071
1533.99105	50961.98214
1537.35488	50526.125
1540.71647	50026.69643
1544.07581	49354.98214
1547.4329	48688.69643
1550.78776	48012.26786
1554.14038	47480.69643
1557.49077	47282.98214
1560.83892	47197.69643
1564.18484	47279.83929
1567.52853	47551.26786
1570.86999	47882.125
1574.20922	48303.55357
1577.54624	48497.26786
1580.88103	48207.83929
1584.2136	47784.83929
1587.54395	48149.69643
1590.87208	49366.26786
1594.19801	51248.26786
1597.52172	53486.41071
1600.84321	54504.55357
1604.16251	53632.26786
1607.47959	51352.98214
1610.79447	48692.41071
1614.10715	46111.98214
1617.41763	44142.26786
1620.7259	42609.98214
1624.03199	41833.26786
1627.33587	41778.98214
1630.63757	42281.83929
1633.93707	43594.69643
1637.23439	46109.125
1640.52951	49822.26786
1643.82246	54464.26786
1647.11321	58300.41071
1650.40179	59023.98214
1653.68819	55942.41071
1656.97241	50687.55357
1660.25446	45743.125
1663.53433	42366.41071
1666.81203	40240.69643
1670.08756	39018.41071
1673.36092	38158.83929
1676.63211	37680.41071
1679.90115	37255.55357
1683.16801	36899.98214
1686.43272	36647.26786
1689.69527	36492.83929
1692.95567	36314.83929
1696.2139	36212.98214
1699.46999	36213.83929
1702.72392	36095.83929
1705.97571	36072.55357
1709.22535	36035.26786
1712.47284	36039.98214
1715.71819	35970.69643
1718.96139	35921.125
1722.20246	35868.69643
1725.44139	35775.55357
1728.67818	35701.125
1731.91284	35537.41071
1735.14537	35458.26786
1738.37576	35406.55357
1741.60403	35243.26786
1744.83017	35113.26786
1748.05418	35082.125
1751.27607	35084.125
1754.49584	35004.69643
1757.71349	35014.98214
1760.92903	35002.26786
1764.14244	34974.41071
1767.35375	34986.69643
1770.56294	34927.125
1773.77002	34873.55357
1776.97499	34811.26786
1780.17785	34787.69643
1783.37861	34736.41071
1786.57727	34682.125
1789.77382	34644.125
1792.96828	34588.69643
1796.16064	34483.55357
1799.3509	34468.55357
1802.53907	34415.41071
1805.72514	34326.55357
1808.90913	34261.83929
1812.09102	34234.83929
1815.27083	34138.41071
1818.44856	34171.98214
1821.6242	34130.41071
1824.79776	34140.83929
1827.96924	34071.125
1831.13864	34039.26786
1834.30597	34051.41071
1837.47122	34031.26786
1840.6344	33999.26786
1843.7955	34013.55357
1846.95454	33990.41071
1850.11151	33942.125
1853.26642	33880.26786
1856.41926	33891.41071
1859.57004	33937.26786
1862.71876	33855.98214
1865.86542	33885.83929
1869.01003	33827.125
1872.15258	33694.55357
1875.29308	33755.125
1878.43152	33718.125
1881.56792	33634.26786
1884.70227	33670.26786
1887.83457	33653.55357
1890.96482	33591.55357
1894.09304	33490.41071
1897.21921	33477.83929
1900.34335	33462.41071
1903.46544	33429.83929
1906.58551	33400.83929
1909.70353	33298.55357
1912.81953	33256.125
1915.93349	33224.125
1919.04543	33202.69643
1922.15534	33152.98214
1925.26322	33090.125
1928.36908	33073.41071
1931.47292	33052.83929
1934.57473	32989.41071
1937.67453	32874.83929
1940.77232	32787.83929
1943.86808	32731.41071
1946.96184	32621.83929
1950.05358	32462.41071
1953.14331	32416.125
1956.23103	32410.55357
1959.31675	32359.83929
1962.40046	32197.69643
1965.48217	32136.55357
1968.56188	32107.83929
1971.63959	31959.26786
1974.7153	31888.125
1977.78901	31801.26786
1980.86073	31702.55357
1983.93046	31581.26786
1986.99819	31519.98214
1990.06394	31510.55357
1993.1277	31388.26786
1996.18947	31307.83929
1999.24925	31172.69643
2002.30706	31062.41071
2005.36288	31006.125
2008.41672	30869.26786
2011.46859	30835.41071
2014.51848	30726.125
2017.56639	30623.69643
2020.61233	30569.98214
2023.6563	30498.26786
2026.6983	30428.41071
2029.73833	30392.125
2032.7764	30289.26786
2035.8125	30238.26786
2038.84664	30182.26786
2041.87881	30180.98214
2044.90903	30073.98214
2047.93729	30049.98214
2050.96359	30070.83929
2053.98794	29962.26786
2057.01034	29951.69643
2060.03078	29952.69643
2063.04927	29955.125
2066.06582	29943.41071
2069.08042	29900.55357
2072.09307	29978.69643
2075.10378	29901.26786
2078.11255	29871.55357
2081.11938	29815.55357
2084.12426	29838.26786
2087.12722	29868.125
2090.12824	29849.98214
2093.12732	29872.55357
2096.12447	29855.83929
2099.11969	29897.55357
2102.11299	29879.98214
2105.10435	29858.83929
2108.09379	29851.69643
2111.08131	29978.83929
2114.0669	29943.125
2117.05057	29981.55357
2120.03233	30002.55357
2123.01216	30006.26786
2125.99008	30091.26786
2128.96609	30138.69643
2131.94018	30143.98214
2134.91236	30138.98214
2137.88263	30107.26786
2140.851	30192.98214
2143.81746	30207.98214
2146.78201	30185.125
2149.74466	30177.69643
2152.7054	30210.26786
2155.66425	30130.41071
2158.6212	30180.125
2161.57625	30188.41071
2164.52941	30179.83929
2167.48067	30147.83929
2170.43004	30117.69643
2173.37752	30132.41071
2176.32311	30147.55357
2179.26681	30142.83929
2182.20863	30133.69643
2185.14856	30126.26786
2188.08661	30140.41071
2191.02278	30173.55357
2193.95707	30177.98214
2196.88948	30121.26786
2199.82001	30068.98214
2202.74867	30041.55357
2205.67545	30006.41071
2208.60037	30009.98214
2211.52341	29944.83929
2214.44458	29845.41071
2217.36388	29845.26786
2220.28132	29822.69643
2223.1969	29744.26786
2226.11061	29664.41071
2229.02246	29642.41071
2231.93245	29528.98214
2234.84058	29493.41071
2237.74686	29459.55357
2240.65128	29487.55357
2243.55385	29542.98214
2246.45456	29482.26786
2249.35343	29396.41071
2252.25044	29350.69643
2255.14561	29318.26786
2258.03893	29289.83929
2260.93041	29275.41071
2263.82004	29151.55357
2266.70783	29126.98214
2269.59378	28997.55357
2272.4779	28935.41071
2275.36017	28935.55357
2278.24061	28885.125
2281.11922	28779.41071
2283.996	28790.83929
2286.87094	28763.55357
2289.74405	28721.41071
2292.61534	28685.26786
2295.4848	28624.69643
2298.35243	28681.55357
2301.21824	28588.26786
2304.08223	28590.69643
2306.94439	28532.55357
2309.80474	28519.69643
2312.66327	28593.98214
2315.51999	28494.125
2318.37489	28463.69643
2321.22797	28420.26786
2324.07925	28366.26786
2326.92871	28303.83929
2329.77637	28265.83929
2332.62222	28202.69643
2335.46626	28230.125
2338.3085	28201.83929
2341.14893	28158.26786
2343.98756	28137.26786
2346.8244	28149.69643
2349.65943	28077.98214
2352.49267	28058.26786
2355.32411	28086.83929
2358.15376	28041.98214
2360.98161	27985.26786
2363.80768	28055.41071
2366.63195	27966.98214
2369.45444	27927.41071
2372.27514	27909.83929
2375.09405	27835.55357
2377.91118	27833.83929
2380.72652	27781.69643
2383.54009	27721.26786
2386.35187	27705.125
2389.16188	27619.55357
2391.97011	27555.55357
2394.77657	27556.69643
2397.58125	27523.83929
2400.38416	27496.69643
2403.18529	27432.125
2405.98466	27410.41071
2408.78226	27370.83929
2411.57809	27343.69643
2414.37216	27286.55357
2417.16446	27321.55357
2419.955	27211.125
2422.74378	27199.26786
2425.5308	27180.83929
2428.31606	27185.98214
2431.09956	27193.69643
2433.88131	27098.98214
2436.6613	27066.41071
2439.43954	27111.26786
2442.21603	27091.41071
2444.99077	27068.83929
2447.76377	27049.26786
2450.53501	27018.41071
2453.30451	26980.26786
2456.07226	26941.83929
2458.83827	26959.41071
2461.60254	26912.83929
2464.36507	26860.98214
2467.12586	26848.98214
2469.88492	26831.69643
2472.64224	26844.69643
2475.39782	26785.125
2478.15167	26796.41071
2480.90379	26810.26786
2483.65417	26812.41071
2486.40283	26790.69643
2489.14976	26789.98214
2491.89497	26801.69643
2494.63845	26824.41071
2497.3802	26759.26786
2500.12024	26769.41071
2502.85855	26698.69643
2505.59514	26648.98214
2508.33002	26597.125
2511.06318	26579.41071
2513.79462	26562.55357
2516.52435	26564.69643
2519.25237	26500.41071
2521.97867	26462.83929
2524.70327	26458.41071
2527.42616	26382.98214
2530.14734	26385.98214
2532.86681	26352.98214
2535.58458	26319.41071
2538.30065	26308.98214
2541.01501	26330.41071
2543.72768	26226.83929
2546.43864	26188.55357
2549.14791	26174.98214
2551.85548	26114.125
2554.56136	26058.98214
2557.26554	26034.69643
2559.96803	25994.69643
2562.66883	25945.26786
2565.36794	25946.125
2568.06536	25857.69643
2570.7611	25828.125
2573.45514	25827.98214
2576.14751	25765.125
2578.83819	25712.98214
2581.52719	25610.41071
2584.21451	25634.41071
2586.90015	25604.26786
2589.58411	25582.125
2592.2664	25566.98214
2594.94701	25521.55357
2597.62594	25398.83929
2600.30321	25388.26786
2602.9788	25374.125
2605.65273	25304.69643
2608.32498	25322.69643
2610.99557	25303.69643
2613.66449	25275.55357
2616.33175	25248.98214
2618.99734	25294.125
2621.66128	25200.55357
2624.32355	25192.98214
2626.98416	25141.125
2629.64311	25061.69643
2632.30041	25077.55357
2634.95605	25019.26786
2637.61004	24972.98214
2640.26238	24975.98214
2642.91306	24954.125
2645.56209	24934.26786
2648.20948	24919.26786
2650.85521	24928.98214
2653.4993	24913.125
2656.14175	24898.69643
2658.78255	24973.55357
2661.42171	24945.69643
2664.05923	24946.41071
2666.6951	24938.69643
2669.32934	24951.98214
2671.96194	24948.98214
2674.59291	24975.98214
2677.22224	24912.55357
2679.84993	24916.69643
2682.476	24897.55357
2685.10043	24897.69643
2687.72324	24848.26786
2690.34441	24841.41071
2692.96396	24879.125
2695.58188	24889.55357
2698.19818	24842.26786
2700.81285	24899.69643
2703.4259	24888.98214
2706.03733	24888.125
2708.64714	24884.41071
2711.25533	24879.98214
2713.86191	24896.83929
2716.46687	24957.83929
2719.07021	24877.83929
2721.67194	24945.26786
2724.27206	24888.125
2726.87057	24892.125
2729.46747	24907.69643
2732.06276	24867.98214
2734.65644	24884.55357
2737.24852	24861.98214
2739.83899	24831.55357
2742.42786	24889.125
2745.01513	24815.98214
2747.60079	24717.69643
2750.18486	24685.26786
2752.76733	24660.83929
2755.3482	24701.83929
2757.92747	24677.125
2760.50515	24648.98214
2763.08123	24648.69643
2765.65573	24547.26786
2768.22863	24528.69643
2770.79994	24478.55357
2773.36967	24502.26786
2775.9378	24464.98214
2778.50435	24472.98214
2781.06932	24373.69643
2783.6327	24413.98214
2786.1945	24364.83929
2788.75471	24310.98214
2791.31335	24221.26786
2793.87041	24236.26786
2796.42589	24245.83929
2798.97979	24136.98214
2801.53212	24143.98214
2804.08288	24100.55357
2806.63206	23987.41071
2809.17967	23973.83929
2811.72571	23923.26786
2814.27018	23896.83929
2816.81308	23838.83929
2819.35442	23777.98214
2821.89419	23703.83929
2824.43239	23722.83929
2826.96904	23708.83929
2829.50412	23636.125
2832.03763	23579.41071
2834.56959	23638.125
2837.1	23584.125
2839.62884	23576.26786
2842.15613	23485.69643
2844.68186	23496.26786
2847.20604	23494.55357
2849.72867	23445.55357
2852.24974	23477.69643
2854.76927	23399.98214
2857.28724	23379.98214
2859.80367	23321.26786
2862.31855	23284.98214
2864.83189	23206.41071
2867.34368	23225.26786
2869.85393	23220.125
2872.36264	23201.98214
2874.8698	23213.98214
2877.37543	23093.26786
2879.87952	23145.55357
2882.38207	23101.41071
2884.88308	23091.125
2887.38256	23079.98214
2889.88051	23108.83929
2892.37692	23073.26786
2894.8718	23077.125
2897.36515	23123.41071
2899.85698	23089.41071
2902.34727	23173.26786
2904.83604	23094.55357
2907.32328	23138.41071
2909.809	23135.83929
2912.29319	23128.125
2914.77587	23172.41071
2917.25702	23123.69643
2919.73665	23112.26786
2922.21476	23067.41071
2924.69136	23128.55357
2927.16644	23074.41071
2929.64	23101.41071
2932.11205	23041.83929
2934.58258	22943.125
2937.05161	23031.55357
2939.51912	23012.41071
2941.98513	23020.41071
2944.44962	22956.125
2946.91261	22933.83929
2949.37409	22991.98214
2951.83407	22983.69643
2954.29254	22906.125
2956.74951	22948.125
2959.20498	22922.83929
2961.65895	22879.55357
2964.11142	22893.83929
2966.56239	22826.83929
2969.01186	22849.26786
2971.45984	22787.55357
2973.90632	22799.55357
2976.35131	22725.125
2978.7948	22710.41071
2981.23681	22675.26786
2983.67732	22635.125
2986.11635	22599.83929
2988.55388	22525.125
2990.98993	22468.83929
2993.4245	22436.55357
2995.85758	22406.41071
2998.28917	22361.125
3000.71928	22319.69643
3003.14791	22312.55357
3005.57506	22292.125
3008.00073	22196.83929
3010.42493	22216.55357
3012.84764	22156.26786
3015.26888	22106.55357
3017.68865	22090.41071
3020.10694	22028.55357
3022.52376	22016.55357
3024.9391	21962.55357
3027.35298	21948.26786
3029.76539	21916.83929
3032.17632	21914.41071
3034.5858	21897.69643
3036.9938	21901.69643
3039.40034	21882.83929
3041.80542	21860.69643
3044.20903	21810.26786
3046.61118	21777.125
3049.01187	21749.69643
3051.4111	21728.98214
3053.80888	21677.98214
3056.20519	21644.98214
3058.60005	21555.55357
3060.99345	21595.98214
3063.3854	21494.98214
3065.7759	21408.98214
3068.16494	21361.26786
3070.55254	21361.125
3072.93868	21306.69643
3075.32338	21207.41071
3077.70662	21243.83929
3080.08842	21184.98214
3082.46878	21142.26786
3084.84769	21055.26786
3087.22515	21115.98214
3089.60118	21075.55357
3091.97576	21112.41071
3094.3489	21128.55357
3096.72061	21122.26786
3099.09087	21099.41071
3101.4597	21078.55357
3103.82709	21100.55357
3106.19305	21017.55357
3108.55757	21025.26786
3110.92066	20976.69643
3113.28232	20982.41071
3115.64255	20881.41071
3118.00134	20850.83929
3120.35871	20824.125
3122.71466	20774.98214
3125.06917	20723.55357
3127.42226	20681.125
3129.77393	20729.83929
3132.12417	20655.41071
3134.47299	20641.55357
3136.82039	20620.55357
3139.16636	20615.98214
3141.51092	20600.98214
3143.85406	20640.41071
3146.19579	20591.41071
3148.53609	20602.98214
3150.87499	20611.41071
3153.21246	20659.41071
3155.54853	20651.83929
3157.88318	20623.98214
3160.21642	20629.41071
3162.54826	20673.69643
3164.87868	20663.26786
3167.2077	20596.26786
3169.5353	20598.125
3171.86151	20603.125
3174.18631	20646.98214
3176.5097	20547.83929
3178.83169	20541.83929
3181.15228	20559.26786
3183.47147	20468.41071
3185.78926	20416.69643
3188.10565	20410.41071
3190.42065	20394.41071
3192.73424	20332.55357
3195.04645	20315.125
3197.35725	20336.26786
3199.66667	20318.41071
3201.97469	20351.26786
3204.28132	20255.98214
3206.58656	20316.69643
3208.8904	20324.83929
3211.19287	20342.26786
3213.49394	20354.98214
3215.79363	20336.26786
3218.09193	20358.55357
3220.38884	20370.55357
3222.68438	20365.55357
3224.97853	20354.125
3227.2713	20332.98214
3229.56269	20302.83929
3231.8527	20269.125
3234.14133	20246.125
3236.42858	20191.26786
3238.71446	20155.69643
3240.99896	20110.69643
3243.28209	20094.55357
3245.56384	20061.55357
3247.84423	20042.98214
3250.12324	20037.26786
3252.40088	20023.26786
3254.67715	20000.125
3256.95205	19980.83929
3259.22558	19976.125
3261.49775	19915.83929
3263.76855	19916.55357
3266.03799	19904.69643
3268.30606	19883.83929
3270.57277	19830.83929
3272.83812	19806.98214
3275.10211	19783.83929
3277.36474	19741.98214
3279.62601	19729.26786
3281.88593	19679.69643
3284.14448	19689.55357
3286.40168	19661.69643
3288.65753	19621.41071
3290.91202	19634.98214
3293.16516	19568.98214
3295.41695	19552.83929
3297.66738	19434.83929
3299.91647	19327.69643
3302.16421	19239.26786
3304.4106	19112.83929
3306.65564	18992.98214
3308.89933	18878.55357
3311.14169	18769.55357
3313.38269	18627.69643
3315.62236	18461.69643
3317.86068	18330.69643
3320.09766	18204.55357
3322.3333	18074.55357
3324.5676	17966.69643
3326.80056	17729.69643
3329.03219	17642.125
3331.26248	3.125
3333.49143	0.125
3335.71905	-0.16071
