Data from AgNPs_FTO_APTES_UA_20uM_CRN_200uM_R6G_10uM_NaF_0.1M_Addition_RamanShift__13__18-07-34-922.txt Node

Date: Thu Feb 17 18:07:34 GMT 2022
User: TCL
Spectrometer: QEP01345
Trigger mode: 4
Integration Time (sec): 1.000000E1
Scans to average: 7
Electric dark correction enabled: true
Nonlinearity correction enabled: false
Boxcar width: 0
XAxis mode: Raman Shifts
Number of Pixels in Spectrum: 1044
>>>>>Begin Spectral Data<<<<<
46.04893	1.73214
50.45542	-0.55357
54.85868	-0.55357
59.25871	-0.55357
63.6555	61.44643
68.04907	64.875
72.43941	69.875
76.82654	75.44643
81.21044	79.01786
85.59113	84.16071
89.96862	84.16071
94.34289	85.30357
98.71396	88.44643
103.08183	90.30357
107.4465	94.875
111.80798	90.73214
116.16626	97.58929
120.52136	95.01786
124.87327	104.30357
129.222	103.44643
133.56755	105.875
137.90993	117.73214
142.24913	127.44643
146.58517	139.30357
150.91804	158.16071
155.24774	179.01786
159.57429	219.58929
163.89768	272.16071
168.21792	363.58929
172.53501	491.16071
176.84895	686.30357
181.15975	960.30357
185.46741	1353.875
189.77193	1878.44643
194.07331	2539.30357
198.37157	3294.01786
202.6667	4102.44643
206.9587	4876.01786
211.24758	5667.16071
215.53334	6430.875
219.81599	7237.30357
224.09553	8077.01786
228.37195	9029.16071
232.64527	10064.16071
236.91549	11203.73214
241.18261	12392.44643
245.44663	13511.58929
249.70755	14610.58929
253.96539	15593.73214
258.22014	16406.01786
262.4718	17012.30357
266.72039	17404.875
270.96589	17630.73214
275.20832	17687.30357
279.44768	17532.875
283.68397	17295.58929
287.91719	17069.30357
292.14735	16841.58929
296.37445	16698.01786
300.59849	16582.44643
304.81948	16565.58929
309.03742	16538.30357
313.25231	16478.44643
317.46415	16403.30357
321.67296	16277.16071
325.87872	16215.16071
330.08145	16212.30357
334.28114	16316.58929
338.47781	16496.30357
342.67145	16638.01786
346.86207	16884.30357
351.04966	17106.73214
355.23424	17395.875
359.4158	17625.30357
363.59435	17848.58929
367.76989	18021.58929
371.94243	18248.73214
376.11196	18389.875
380.27849	18535.58929
384.44203	18688.875
388.60257	18814.44643
392.76012	18995.73214
396.91468	19200.44643
401.06626	19378.16071
405.21485	19539.58929
409.36047	19595.73214
413.50311	19560.73214
417.64277	19546.73214
421.77947	19528.30357
425.9132	19584.01786
430.04396	19712.58929
434.17176	19849.875
438.2966	20006.44643
442.41849	20178.01786
446.53742	20386.01786
450.6534	20647.01786
454.76644	20844.44643
458.87653	20950.16071
462.98368	21009.30357
467.08789	21052.875
471.18916	21046.875
475.2875	21006.16071
479.38291	20900.875
483.4754	20893.73214
487.56496	20838.875
491.6516	20881.01786
495.73531	20903.875
499.81612	20895.30357
503.89401	20986.01786
507.96899	21050.73214
512.04106	21171.30357
516.11023	21231.73214
520.1765	21257.44643
524.23987	21241.58929
528.30034	21304.16071
532.35792	21282.58929
536.41261	21270.73214
540.46441	21224.875
544.51333	21249.58929
548.55936	21303.875
552.60252	21453.16071
556.64279	21558.01786
560.6802	21699.30357
564.71473	21728.01786
568.7464	21752.30357
572.7752	21830.44643
576.80114	21915.01786
580.82422	21998.875
584.84444	22164.01786
588.86181	22294.73214
592.87633	22419.58929
596.888	22563.01786
600.89682	22736.875
604.9028	23171.58929
608.90594	23977.875
612.90624	25009.44643
616.90371	24610.73214
620.89834	23056.01786
624.89015	22337.01786
628.87913	22259.44643
632.86528	22352.44643
636.84862	22485.30357
640.82913	22498.30357
644.80683	22376.44643
648.78172	22269.16071
652.75379	22304.16071
656.72306	22451.73214
660.68952	22604.875
664.65319	22644.875
668.61405	22614.58929
672.57211	22688.16071
676.52738	22815.58929
680.47986	22930.875
684.42955	22922.16071
688.37646	22967.875
692.32058	23005.44643
696.26192	23068.875
700.20048	23202.16071
704.13626	23232.16071
708.06928	23266.73214
711.99952	23176.875
715.927	23146.30357
719.85171	23113.30357
723.77365	23108.875
727.69284	23110.875
731.60928	23033.875
735.52295	23022.30357
739.43388	23038.44643
743.34206	23107.73214
747.24749	23127.30357
751.15017	23115.875
755.05012	23225.30357
758.94733	23436.73214
762.8418	23756.73214
766.73354	24278.01786
770.62254	24906.875
774.50882	25236.30357
778.39237	25045.875
782.27321	24518.16071
786.15132	23976.16071
790.02671	23613.58929
793.89938	23343.16071
797.76935	23259.30357
801.6366	23247.44643
805.50115	23183.44643
809.36299	23167.16071
813.22213	23139.44643
817.07857	23196.01786
820.93231	23210.16071
824.78336	23194.58929
828.63172	23240.01786
832.47738	23232.875
836.32036	23271.30357
840.16066	23323.01786
843.99827	23334.73214
847.8332	23387.875
851.66546	23390.58929
855.49504	23462.875
859.32195	23462.44643
863.1462	23504.16071
866.96777	23553.73214
870.78668	23576.58929
874.60293	23643.01786
878.41652	23646.44643
882.22745	23686.01786
886.03573	23743.01786
889.84136	23743.01786
893.64433	23689.44643
897.44466	23734.44643
901.24235	23687.875
905.0374	23653.30357
908.8298	23662.01786
912.61957	23585.73214
916.40671	23651.58929
920.19121	23671.875
923.97308	23702.73214
927.75233	23693.58929
931.52895	23702.73214
935.30295	23647.58929
939.07433	23594.01786
942.84309	23500.44643
946.60924	23411.58929
950.37278	23408.58929
954.13371	23323.58929
957.89203	23354.01786
961.64774	23341.875
965.40086	23319.16071
969.15137	23278.01786
972.89929	23304.44643
976.64461	23294.44643
980.38733	23311.16071
984.12747	23321.875
987.86502	23325.16071
991.59999	23367.16071
995.33237	23452.01786
999.06217	23557.30357
1002.78939	23629.875
1006.51404	23765.01786
1010.23611	23985.73214
1013.95561	24055.875
1017.67255	24121.44643
1021.38692	24073.73214
1025.09872	24004.58929
1028.80796	23908.44643
1032.51465	23903.58929
1036.21877	23861.73214
1039.92035	23873.44643
1043.61937	23899.875
1047.31584	23987.44643
1051.00976	24038.875
1054.70114	24099.58929
1058.38998	24167.01786
1062.07627	24225.875
1065.76003	24246.01786
1069.44126	24417.01786
1073.11995	24504.16071
1076.79611	24649.16071
1080.46974	24766.44643
1084.14085	24772.44643
1087.80943	24784.58929
1091.47549	24790.01786
1095.13903	24787.875
1098.80005	24772.73214
1102.45857	24738.73214
1106.11456	24636.01786
1109.76805	24564.01786
1113.41903	24525.875
1117.06751	24520.16071
1120.71348	24575.875
1124.35696	24681.01786
1127.99793	24731.16071
1131.63641	24825.16071
1135.2724	24796.875
1138.90589	24719.73214
1142.5369	24685.30357
1146.16542	24625.875
1149.79145	24559.875
1153.415	24527.30357
1157.03607	24452.875
1160.65467	24589.16071
1164.27079	24715.44643
1167.88443	24956.73214
1171.49561	25374.30357
1175.10432	25830.01786
1178.71056	26402.73214
1182.31434	27006.30357
1185.91565	27464.73214
1189.51451	27630.44643
1193.11091	27620.875
1196.70485	27404.73214
1200.29634	27214.30357
1203.88538	26801.30357
1207.47197	26432.875
1211.05612	26073.73214
1214.63782	25808.58929
1218.21708	25650.01786
1221.79391	25416.01786
1225.36829	25374.875
1228.94024	25408.16071
1232.50976	25364.01786
1236.07685	25371.73214
1239.6415	25350.44643
1243.20374	25464.44643
1246.76355	25493.01786
1250.32093	25577.73214
1253.8759	25744.73214
1257.42845	25890.01786
1260.97859	26058.73214
1264.52631	26282.58929
1268.07163	26410.16071
1271.61453	26550.01786
1275.15503	26698.875
1278.69312	26806.875
1282.22882	26819.73214
1285.76211	26928.44643
1289.29301	27040.01786
1292.82151	27219.44643
1296.34761	27459.73214
1299.87133	27719.58929
1303.39266	28095.875
1306.9116	28548.01786
1310.42815	29069.30357
1313.94233	29376.875
1317.45412	29344.30357
1320.96354	29090.875
1324.47058	28835.73214
1327.97525	28565.73214
1331.47754	28443.30357
1334.97747	28426.73214
1338.47502	28551.58929
1341.97022	28827.58929
1345.46305	29280.01786
1348.95352	29704.58929
1352.44163	30113.01786
1355.92738	30362.30357
1359.41078	30709.01786
1362.89183	30902.16071
1366.37053	30533.58929
1369.84688	29425.44643
1373.32088	28201.44643
1376.79254	27171.30357
1380.26186	26662.875
1383.72883	26258.30357
1387.19347	25994.44643
1390.65578	25701.73214
1394.11575	25455.58929
1397.57339	25271.58929
1401.0287	25106.875
1404.48168	25100.01786
1407.93234	25135.44643
1411.38068	25185.58929
1414.82669	25128.58929
1418.27039	25064.58929
1421.71177	24937.01786
1425.15083	24777.01786
1428.58758	24675.16071
1432.02203	24555.58929
1435.45416	24565.875
1438.88399	24679.30357
1442.31151	24671.30357
1445.73673	24701.58929
1449.15965	24727.44643
1452.58027	24792.01786
1455.9986	24758.44643
1459.41463	24833.44643
1462.82837	24949.30357
1466.23982	25157.30357
1469.64898	25387.875
1473.05586	25622.875
1476.46045	25832.73214
1479.86276	25954.58929
1483.26279	26048.16071
1486.66054	26106.01786
1490.05602	26245.16071
1493.44922	26553.73214
1496.84016	26879.44643
1500.22882	27381.73214
1503.61521	28018.73214
1506.99934	28638.58929
1510.38121	28953.44643
1513.76081	28905.875
1517.13816	28367.875
1520.51324	27646.875
1523.88607	27038.01786
1527.25665	26672.875
1530.62498	26466.58929
1533.99105	26352.58929
1537.35488	26221.875
1540.71647	26208.58929
1544.07581	26184.875
1547.4329	26064.01786
1550.78776	26003.01786
1554.14038	25906.16071
1557.49077	25880.73214
1560.83892	25916.58929
1564.18484	25985.73214
1567.52853	26023.44643
1570.86999	26098.58929
1574.20922	26175.01786
1577.54624	26180.875
1580.88103	26037.73214
1584.2136	25757.01786
1587.54395	25621.875
1590.87208	25691.01786
1594.19801	25928.44643
1597.52172	26363.875
1600.84321	26638.73214
1604.16251	26585.875
1607.47959	26374.58929
1610.79447	25998.16071
1614.10715	25475.44643
1617.41763	24986.01786
1620.7259	24561.875
1624.03199	24215.16071
1627.33587	24074.73214
1630.63757	24043.58929
1633.93707	24237.01786
1637.23439	24584.01786
1640.52951	25147.73214
1643.82246	25893.30357
1647.11321	26590.875
1650.40179	27034.44643
1653.68819	26788.44643
1656.97241	25930.30357
1660.25446	24919.16071
1663.53433	24080.73214
1666.81203	23560.73214
1670.08756	23185.30357
1673.36092	22911.875
1676.63211	22765.30357
1679.90115	22624.58929
1683.16801	22527.44643
1686.43272	22385.875
1689.69527	22356.01786
1692.95567	22282.16071
1696.2139	22223.58929
1699.46999	22246.44643
1702.72392	22232.16071
1705.97571	22196.58929
1709.22535	22236.875
1712.47284	22254.16071
1715.71819	22202.58929
1718.96139	22156.30357
1722.20246	22106.58929
1725.44139	22090.16071
1728.67818	22045.44643
1731.91284	21963.16071
1735.14537	21942.01786
1738.37576	21897.73214
1741.60403	21807.01786
1744.83017	21763.44643
1748.05418	21732.01786
1751.27607	21734.875
1754.49584	21671.16071
1757.71349	21692.16071
1760.92903	21706.58929
1764.14244	21672.58929
1767.35375	21686.16071
1770.56294	21634.58929
1773.77002	21593.44643
1776.97499	21508.875
1780.17785	21554.73214
1783.37861	21519.44643
1786.57727	21495.44643
1789.77382	21385.01786
1792.96828	21431.44643
1796.16064	21317.44643
1799.3509	21292.01786
1802.53907	21296.875
1805.72514	21203.30357
1808.90913	21211.01786
1812.09102	21177.73214
1815.27083	21134.875
1818.44856	21091.01786
1821.6242	21132.16071
1824.79776	21126.44643
1827.96924	21045.30357
1831.13864	21004.30357
1834.30597	21001.16071
1837.47122	20947.73214
1840.6344	20942.875
1843.7955	21039.44643
1846.95454	20967.58929
1850.11151	20924.30357
1853.26642	20872.44643
1856.41926	20880.30357
1859.57004	20889.30357
1862.71876	20855.73214
1865.86542	20868.73214
1869.01003	20841.44643
1872.15258	20818.44643
1875.29308	20781.875
1878.43152	20729.16071
1881.56792	20743.58929
1884.70227	20723.01786
1887.83457	20729.16071
1890.96482	20668.01786
1894.09304	20635.16071
1897.21921	20585.16071
1900.34335	20569.875
1903.46544	20567.01786
1906.58551	20543.58929
1909.70353	20448.58929
1912.81953	20443.16071
1915.93349	20399.16071
1919.04543	20399.875
1922.15534	20363.01786
1925.26322	20327.73214
1928.36908	20324.58929
1931.47292	20303.875
1934.57473	20271.44643
1937.67453	20249.73214
1940.77232	20092.73214
1943.86808	20102.73214
1946.96184	20031.58929
1950.05358	20013.73214
1953.14331	19892.16071
1956.23103	19908.44643
1959.31675	19842.73214
1962.40046	19789.44643
1965.48217	19712.16071
1968.56188	19693.16071
1971.63959	19594.58929
1974.7153	19541.44643
1977.78901	19492.875
1980.86073	19470.73214
1983.93046	19381.73214
1986.99819	19323.58929
1990.06394	19263.44643
1993.1277	19214.16071
1996.18947	19178.30357
1999.24925	19075.16071
2002.30706	19011.73214
2005.36288	18963.01786
2008.41672	18935.73214
2011.46859	18869.16071
2014.51848	18808.44643
2017.56639	18788.16071
2020.61233	18697.44643
2023.6563	18663.58929
2026.6983	18596.875
2029.73833	18603.875
2032.7764	18510.875
2035.8125	18456.44643
2038.84664	18424.58929
2041.87881	18412.73214
2044.90903	18414.01786
2047.93729	18326.58929
2050.96359	18322.30357
2053.98794	18292.875
2057.01034	18277.44643
2060.03078	18290.16071
2063.04927	18256.44643
2066.06582	18240.01786
2069.08042	18248.30357
2072.09307	18245.01786
2075.10378	18206.16071
2078.11255	18224.30357
2081.11938	18165.16071
2084.12426	18185.30357
2087.12722	18211.30357
2090.12824	18183.73214
2093.12732	18170.73214
2096.12447	18203.16071
2099.11969	18162.875
2102.11299	18160.58929
2105.10435	18171.44643
2108.09379	18200.58929
2111.08131	18189.30357
2114.0669	18228.44643
2117.05057	18225.16071
2120.03233	18232.73214
2123.01216	18241.58929
2125.99008	18294.44643
2128.96609	18329.16071
2131.94018	18295.73214
2134.91236	18323.44643
2137.88263	18329.73214
2140.851	18279.73214
2143.81746	18339.16071
2146.78201	18301.73214
2149.74466	18321.73214
2152.7054	18351.01786
2155.66425	18316.58929
2158.6212	18349.30357
2161.57625	18314.01786
2164.52941	18316.875
2167.48067	18299.16071
2170.43004	18275.875
2173.37752	18271.16071
2176.32311	18238.73214
2179.26681	18241.875
2182.20863	18266.16071
2185.14856	18308.01786
2188.08661	18234.44643
2191.02278	18240.16071
2193.95707	18232.875
2196.88948	18243.16071
2199.82001	18204.16071
2202.74867	18144.73214
2205.67545	18175.58929
2208.60037	18118.30357
2211.52341	18094.44643
2214.44458	18052.58929
2217.36388	18036.44643
2220.28132	17989.73214
2223.1969	17925.73214
2226.11061	17947.44643
2229.02246	17874.875
2231.93245	17842.875
2234.84058	17783.875
2237.74686	17749.16071
2240.65128	17769.01786
2243.55385	17777.30357
2246.45456	17758.44643
2249.35343	17702.73214
2252.25044	17666.30357
2255.14561	17641.44643
2258.03893	17613.16071
2260.93041	17603.16071
2263.82004	17565.30357
2266.70783	17519.73214
2269.59378	17467.58929
2272.4779	17387.30357
2275.36017	17408.30357
2278.24061	17375.58929
2281.11922	17325.58929
2283.996	17311.30357
2286.87094	17307.58929
2289.74405	17245.875
2292.61534	17234.30357
2295.4848	17254.30357
2298.35243	17219.44643
2301.21824	17187.16071
2304.08223	17153.30357
2306.94439	17173.875
2309.80474	17159.875
2312.66327	17097.44643
2315.51999	17073.875
2318.37489	17050.30357
2321.22797	17023.44643
2324.07925	16964.01786
2326.92871	16965.01786
2329.77637	16895.875
2332.62222	16873.73214
2335.46626	16858.16071
2338.3085	16840.73214
2341.14893	16816.73214
2343.98756	16816.01786
2346.8244	16796.58929
2349.65943	16746.16071
2352.49267	16691.16071
2355.32411	16698.44643
2358.15376	16707.30357
2360.98161	16691.30357
2363.80768	16670.01786
2366.63195	16664.58929
2369.45444	16647.30357
2372.27514	16603.30357
2375.09405	16536.16071
2377.91118	16548.875
2380.72652	16536.58929
2383.54009	16497.58929
2386.35187	16460.875
2389.16188	16363.875
2391.97011	16397.58929
2394.77657	16348.73214
2397.58125	16335.30357
2400.38416	16331.16071
2403.18529	16290.58929
2405.98466	16265.58929
2408.78226	16199.875
2411.57809	16203.16071
2414.37216	16187.44643
2417.16446	16162.58929
2419.955	16145.01786
2422.74378	16137.875
2425.5308	16082.01786
2428.31606	16094.01786
2431.09956	16065.44643
2433.88131	15997.58929
2436.6613	16036.58929
2439.43954	16039.73214
2442.21603	16000.01786
2444.99077	16007.16071
2447.76377	15930.16071
2450.53501	15912.44643
2453.30451	15924.30357
2456.07226	15864.16071
2458.83827	15901.01786
2461.60254	15881.875
2464.36507	15814.875
2467.12586	15822.875
2469.88492	15795.30357
2472.64224	15778.16071
2475.39782	15799.01786
2478.15167	15764.44643
2480.90379	15722.73214
2483.65417	15754.01786
2486.40283	15731.01786
2489.14976	15728.73214
2491.89497	15717.16071
2494.63845	15683.01786
2497.3802	15675.875
2500.12024	15668.73214
2502.85855	15604.16071
2505.59514	15576.16071
2508.33002	15566.16071
2511.06318	15549.30357
2513.79462	15519.16071
2516.52435	15514.875
2519.25237	15469.73214
2521.97867	15442.875
2524.70327	15458.73214
2527.42616	15458.44643
2530.14734	15382.58929
2532.86681	15333.30357
2535.58458	15358.73214
2538.30065	15343.73214
2541.01501	15289.875
2543.72768	15274.30357
2546.43864	15232.875
2549.14791	15257.01786
2551.85548	15201.01786
2554.56136	15185.875
2557.26554	15122.58929
2559.96803	15109.875
2562.66883	15090.44643
2565.36794	15038.01786
2568.06536	15005.16071
2570.7611	14944.30357
2573.45514	14942.16071
2576.14751	14925.01786
2578.83819	14878.73214
2581.52719	14853.875
2584.21451	14809.58929
2586.90015	14810.30357
2589.58411	14773.16071
2592.2664	14757.16071
2594.94701	14728.875
2597.62594	14706.875
2600.30321	14629.44643
2602.9788	14598.01786
2605.65273	14598.44643
2608.32498	14587.875
2610.99557	14558.875
2613.66449	14520.73214
2616.33175	14521.58929
2618.99734	14512.16071
2621.66128	14503.01786
2624.32355	14454.58929
2626.98416	14437.58929
2629.64311	14366.01786
2632.30041	14385.875
2634.95605	14324.73214
2637.61004	14308.73214
2640.26238	14284.58929
2642.91306	14237.73214
2645.56209	14278.44643
2648.20948	14274.44643
2650.85521	14270.16071
2653.4993	14246.73214
2656.14175	14240.16071
2658.78255	14229.16071
2661.42171	14242.58929
2664.05923	14244.58929
2666.6951	14221.44643
2669.32934	14202.30357
2671.96194	14189.73214
2674.59291	14190.16071
2677.22224	14150.16071
2679.84993	14165.16071
2682.476	14149.73214
2685.10043	14142.58929
2687.72324	14137.73214
2690.34441	14144.73214
2692.96396	14130.875
2695.58188	14138.30357
2698.19818	14115.875
2700.81285	14118.875
2703.4259	14109.30357
2706.03733	14125.01786
2708.64714	14111.44643
2711.25533	14127.16071
2713.86191	14115.875
2716.46687	14139.58929
2719.07021	14103.875
2721.67194	14117.58929
2724.27206	14064.30357
2726.87057	14082.73214
2729.46747	14099.01786
2732.06276	14084.30357
2734.65644	14028.16071
2737.24852	14034.875
2739.83899	14017.73214
2742.42786	14058.01786
2745.01513	13985.73214
2747.60079	13956.44643
2750.18486	13908.58929
2752.76733	13931.01786
2755.3482	13899.30357
2757.92747	13926.30357
2760.50515	13874.30357
2763.08123	13834.875
2765.65573	13801.30357
2768.22863	13785.16071
2770.79994	13774.58929
2773.36967	13733.16071
2775.9378	13731.01786
2778.50435	13715.73214
2781.06932	13715.875
2783.6327	13647.58929
2786.1945	13630.58929
2788.75471	13597.01786
2791.31335	13564.73214
2793.87041	13538.16071
2796.42589	13521.73214
2798.97979	13475.875
2801.53212	13466.73214
2804.08288	13481.58929
2806.63206	13413.58929
2809.17967	13364.30357
2811.72571	13312.875
2814.27018	13351.16071
2816.81308	13289.16071
2819.35442	13228.73214
2821.89419	13209.58929
2824.43239	13177.16071
2826.96904	13159.16071
2829.50412	13148.01786
2832.03763	13132.58929
2834.56959	13122.30357
2837.1	13135.44643
2839.62884	13083.73214
2842.15613	13049.73214
2844.68186	13043.30357
2847.20604	13037.44643
2849.72867	13040.58929
2852.24974	13024.16071
2854.76927	12998.73214
2857.28724	12961.30357
2859.80367	12961.44643
2862.31855	12893.73214
2864.83189	12904.16071
2867.34368	12853.16071
2869.85393	12847.73214
2872.36264	12848.73214
2874.8698	12836.01786
2877.37543	12786.30357
2879.87952	12820.16071
2882.38207	12762.30357
2884.88308	12751.875
2887.38256	12736.875
2889.88051	12786.44643
2892.37692	12777.30357
2894.8718	12764.30357
2897.36515	12750.44643
2899.85698	12767.73214
2902.34727	12815.58929
2904.83604	12771.16071
2907.32328	12767.16071
2909.809	12782.16071
2912.29319	12770.16071
2914.77587	12764.01786
2917.25702	12780.01786
2919.73665	12753.01786
2922.21476	12726.73214
2924.69136	12730.30357
2927.16644	12725.58929
2929.64	12748.58929
2932.11205	12698.16071
2934.58258	12657.16071
2937.05161	12688.875
2939.51912	12694.73214
2941.98513	12674.01786
2944.44962	12656.73214
2946.91261	12633.30357
2949.37409	12641.58929
2951.83407	12651.73214
2954.29254	12650.16071
2956.74951	12598.73214
2959.20498	12594.58929
2961.65895	12587.16071
2964.11142	12612.01786
2966.56239	12567.30357
2969.01186	12579.73214
2971.45984	12536.875
2973.90632	12526.30357
2976.35131	12518.01786
2978.7948	12466.58929
2981.23681	12453.30357
2983.67732	12398.30357
2986.11635	12368.30357
2988.55388	12354.73214
2990.98993	12378.16071
2993.4245	12339.30357
2995.85758	12302.73214
2998.28917	12327.01786
3000.71928	12300.44643
3003.14791	12254.73214
3005.57506	12246.30357
3008.00073	12180.875
3010.42493	12225.58929
3012.84764	12179.73214
3015.26888	12174.44643
3017.68865	12121.30357
3020.10694	12127.875
3022.52376	12100.16071
3024.9391	12073.58929
3027.35298	12052.16071
3029.76539	12048.44643
3032.17632	12028.875
3034.5858	12024.58929
3036.9938	11995.16071
3039.40034	12017.73214
3041.80542	12007.58929
3044.20903	11930.73214
3046.61118	11939.30357
3049.01187	11925.73214
3051.4111	11912.58929
3053.80888	11865.01786
3056.20519	11873.44643
3058.60005	11843.16071
3060.99345	11842.58929
3063.3854	11820.01786
3065.7759	11757.30357
3068.16494	11732.875
3070.55254	11751.73214
3072.93868	11699.44643
3075.32338	11650.30357
3077.70662	11666.44643
3080.08842	11642.16071
3082.46878	11590.44643
3084.84769	11604.44643
3087.22515	11627.30357
3089.60118	11614.875
3091.97576	11633.01786
3094.3489	11599.16071
3096.72061	11590.01786
3099.09087	11617.16071
3101.4597	11567.58929
3103.82709	11577.16071
3106.19305	11590.875
3108.55757	11577.73214
3110.92066	11561.01786
3113.28232	11552.44643
3115.64255	11499.73214
3118.00134	11462.73214
3120.35871	11434.01786
3122.71466	11438.58929
3125.06917	11409.58929
3127.42226	11412.44643
3129.77393	11422.01786
3132.12417	11388.875
3134.47299	11393.16071
3136.82039	11379.44643
3139.16636	11376.16071
3141.51092	11343.875
3143.85406	11389.58929
3146.19579	11363.30357
3148.53609	11379.875
3150.87499	11434.30357
3153.21246	11433.30357
3155.54853	11414.01786
3157.88318	11430.44643
3160.21642	11397.30357
3162.54826	11426.16071
3164.87868	11405.44643
3167.2077	11408.30357
3169.5353	11414.01786
3171.86151	11424.16071
3174.18631	11417.30357
3176.5097	11387.16071
3178.83169	11382.73214
3181.15228	11369.875
3183.47147	11351.875
3185.78926	11321.73214
3188.10565	11312.58929
3190.42065	11313.30357
3192.73424	11291.44643
3195.04645	11304.01786
3197.35725	11273.16071
3199.66667	11261.875
3201.97469	11267.875
3204.28132	11266.01786
3206.58656	11300.01786
3208.8904	11301.30357
3211.19287	11271.73214
3213.49394	11304.16071
3215.79363	11291.16071
3218.09193	11330.30357
3220.38884	11292.30357
3222.68438	11306.73214
3224.97853	11308.16071
3227.2713	11292.73214
3229.56269	11249.01786
3231.8527	11252.58929
3234.14133	11212.58929
3236.42858	11188.58929
3238.71446	11175.30357
3240.99896	11178.16071
3243.28209	11126.16071
3245.56384	11087.30357
3247.84423	11111.875
3250.12324	11084.58929
3252.40088	11100.01786
3254.67715	11111.01786
3256.95205	11111.01786
3259.22558	11062.01786
3261.49775	11052.30357
3263.76855	11021.16071
3266.03799	11028.30357
3268.30606	11012.44643
3270.57277	10980.30357
3272.83812	10967.16071
3275.10211	10973.73214
3277.36474	10939.16071
3279.62601	10937.875
3281.88593	10910.73214
3284.14448	10899.16071
3286.40168	10857.73214
3288.65753	10869.30357
3290.91202	10855.16071
3293.16516	10842.58929
3295.41695	10784.01786
3297.66738	10737.16071
3299.91647	10674.875
3302.16421	10622.73214
3304.4106	10565.875
3306.65564	10512.30357
3308.89933	10455.44643
3311.14169	10369.01786
3313.38269	10290.58929
3315.62236	10222.16071
3317.86068	10126.01786
3320.09766	10065.875
3322.3333	10006.01786
3324.5676	9920.875
3326.80056	9783.01786
3329.03219	9742.875
3331.26248	1.01786
3333.49143	-0.69643
3335.71905	-1.125
