Data from AgNPs_UA_50uM_CRN_0uM_R6G_10uM_Q_RamanShift__39__12-56-41-804.txt Node

Date: Tue Jul 26 12:56:41 BST 2022
User: TCL
Spectrometer: QEP01345
Trigger mode: 4
Integration Time (sec): 7.000000E0
Scans to average: 10
Electric dark correction enabled: true
Nonlinearity correction enabled: false
Boxcar width: 0
XAxis mode: Raman Shifts
Number of Pixels in Spectrum: 1044
>>>>>Begin Spectral Data<<<<<
46.04893	-0.3375
50.45542	-0.7375
54.85868	-1.3375
59.25871	-0.6375
63.6555	98.5625
68.04907	106.0625
72.43941	113.2625
76.82654	123.0625
81.21044	121.4625
85.59113	123.9625
89.96862	129.2625
94.34289	134.3625
98.71396	142.0625
103.08183	146.1625
107.4465	148.7625
111.80798	153.8625
116.16626	155.6625
120.52136	166.0625
124.87327	164.8625
129.222	172.5625
133.56755	186.3625
137.90993	195.8625
142.24913	213.5625
146.58517	239.7625
150.91804	270.3625
155.24774	314.0625
159.57429	388.8625
163.89768	487.4625
168.21792	642.6625
172.53501	872.8625
176.84895	1201.8625
181.15975	1683.1625
185.46741	2359.8625
189.77193	3248.0625
194.07331	4305.5625
198.37157	5520.2625
202.6667	6779.4625
206.9587	8045.2625
211.24758	9314.5625
215.53334	10584.5625
219.81599	11921.4625
224.09553	13432.9625
228.37195	15166.3625
232.64527	17006.1625
236.91549	18948.4625
241.18261	20817.4625
245.44663	22487.4625
249.70755	23890.0625
253.96539	25079.8625
258.22014	26016.5625
262.4718	26737.1625
266.72039	27305.9625
270.96589	27566.4625
275.20832	27440.9625
279.44768	27139.9625
283.68397	26737.1625
287.91719	26430.4625
292.14735	26266.8625
296.37445	26376.3625
300.59849	26677.1625
304.81948	27096.4625
309.03742	27543.6625
313.25231	27711.3625
317.46415	27574.4625
321.67296	27193.5625
325.87872	26855.9625
330.08145	26731.0625
334.28114	26726.7625
338.47781	27014.9625
342.67145	27438.7625
346.86207	28069.7625
351.04966	28738.2625
355.23424	29268.5625
359.4158	29764.4625
363.59435	29972.1625
367.76989	30162.5625
371.94243	30207.1625
376.11196	30254.2625
380.27849	30446.5625
384.44203	30663.5625
388.60257	30876.6625
392.76012	31061.6625
396.91468	31359.6625
401.06626	31732.6625
405.21485	31984.0625
409.36047	31749.1625
413.50311	31210.7625
417.64277	30733.6625
421.77947	30682.1625
425.9132	30772.7625
430.04396	30999.3625
434.17176	31384.1625
438.2966	31879.6625
442.41849	32728.6625
446.53742	33995.1625
450.6534	35174.0625
454.76644	35724.7625
458.87653	35642.1625
462.98368	35089.1625
467.08789	34396.9625
471.18916	33571.8625
475.2875	32650.0625
479.38291	31834.3625
483.4754	31175.1625
487.56496	30849.2625
491.6516	30666.1625
495.73531	30744.4625
499.81612	30838.5625
503.89401	31164.5625
507.96899	31314.9625
512.04106	31320.9625
516.11023	31381.3625
520.1765	31533.3625
524.23987	31717.1625
528.30034	31901.3625
532.35792	31972.0625
536.41261	31642.4625
540.46441	31199.1625
544.51333	31037.0625
548.55936	31214.5625
552.60252	31728.5625
556.64279	32483.8625
560.6802	33028.9625
564.71473	33036.2625
568.7464	33142.3625
572.7752	33526.1625
576.80114	33952.9625
580.82422	34641.5625
584.84444	35977.7625
588.86181	38256.8625
592.87633	40982.4625
596.888	42237.5625
600.89682	40945.8625
604.9028	40256.9625
608.90594	43133.0625
612.90624	46581.8625
616.90371	43538.0625
620.89834	36572.8625
624.89015	33477.1625
628.87913	33067.3625
632.86528	33233.3625
636.84862	33308.7625
640.82913	32747.2625
644.80683	31869.5625
648.78172	31368.4625
652.75379	31429.0625
656.72306	32042.3625
660.68952	32678.2625
664.65319	32433.6625
668.61405	31774.5625
672.57211	31760.0625
676.52738	31921.3625
680.47986	31747.9625
684.42955	31438.7625
688.37646	31320.4625
692.32058	31557.0625
696.26192	32018.9625
700.20048	32512.9625
704.13626	32791.4625
708.06928	32618.3625
711.99952	32398.2625
715.927	32392.7625
719.85171	32590.8625
723.77365	32606.5625
727.69284	32266.5625
731.60928	32077.0625
735.52295	32133.0625
739.43388	32310.3625
743.34206	32471.3625
747.24749	32603.4625
751.15017	32795.2625
755.05012	33171.6625
758.94733	34149.5625
762.8418	36155.1625
766.73354	39168.3625
770.62254	41951.2625
774.50882	42467.2625
778.39237	40752.1625
782.27321	37946.3625
786.15132	35521.2625
790.02671	33917.8625
793.89938	33081.0625
797.76935	32676.4625
801.6366	32454.6625
805.50115	32330.4625
809.36299	32166.6625
813.22213	31930.3625
817.07857	31839.6625
820.93231	31753.7625
824.78336	31728.0625
828.63172	31829.2625
832.47738	31832.6625
836.32036	31931.6625
840.16066	31936.6625
843.99827	32006.0625
847.8332	32021.9625
851.66546	32044.8625
855.49504	32103.5625
859.32195	32063.4625
863.1462	32038.3625
866.96777	32009.5625
870.78668	32031.1625
874.60293	32154.9625
878.41652	32254.4625
882.22745	32421.6625
886.03573	32557.8625
889.84136	32503.8625
893.64433	32346.3625
897.44466	32280.8625
901.24235	32163.6625
905.0374	32102.4625
908.8298	32010.4625
912.61957	31961.8625
916.40671	32128.0625
920.19121	32450.4625
923.97308	32746.5625
927.75233	32939.1625
931.52895	32828.1625
935.30295	32497.6625
939.07433	31997.0625
942.84309	31726.8625
946.60924	31550.4625
950.37278	31538.8625
954.13371	31489.3625
957.89203	31447.8625
961.64774	31382.5625
965.40086	31326.6625
969.15137	31395.0625
972.89929	31441.4625
976.64461	31446.3625
980.38733	31544.2625
984.12747	31697.0625
987.86502	31886.0625
991.59999	32201.0625
995.33237	32650.2625
999.06217	33364.5625
1002.78939	34238.8625
1006.51404	34946.4625
1010.23611	35619.7625
1013.95561	36019.8625
1017.67255	36158.9625
1021.38692	35655.8625
1025.09872	34996.2625
1028.80796	34623.9625
1032.51465	34819.7625
1036.21877	35184.6625
1039.92035	35224.3625
1043.61937	35069.9625
1047.31584	34729.1625
1051.00976	34349.1625
1054.70114	34178.9625
1058.38998	34147.0625
1062.07627	34333.9625
1065.76003	34533.6625
1069.44126	34840.7625
1073.11995	35413.6625
1076.79611	36028.7625
1080.46974	36479.0625
1084.14085	36892.6625
1087.80943	37250.5625
1091.47549	37380.7625
1095.13903	37135.0625
1098.80005	36528.1625
1102.45857	35980.2625
1106.11456	35717.2625
1109.76805	35740.8625
1113.41903	35976.7625
1117.06751	36371.1625
1120.71348	36898.4625
1124.35696	37434.5625
1127.99793	37866.5625
1131.63641	37792.6625
1135.2724	37370.2625
1138.90589	36969.5625
1142.5369	36831.9625
1146.16542	36832.3625
1149.79145	36943.5625
1153.415	36953.3625
1157.03607	37095.4625
1160.65467	37634.0625
1164.27079	38707.3625
1167.88443	40399.3625
1171.49561	42817.3625
1175.10432	46135.8625
1178.71056	50299.0625
1182.31434	53924.3625
1185.91565	55201.4625
1189.51451	54181.7625
1193.11091	52164.0625
1196.70485	49927.1625
1200.29634	47910.6625
1203.88538	46108.3625
1207.47197	44645.8625
1211.05612	43445.3625
1214.63782	42723.5625
1218.21708	42439.6625
1221.79391	42612.6625
1225.36829	43037.7625
1228.94024	43062.0625
1232.50976	42460.8625
1236.07685	41579.5625
1239.6415	40884.8625
1243.20374	40739.5625
1246.76355	40958.0625
1250.32093	41384.2625
1253.8759	42039.5625
1257.42845	43020.5625
1260.97859	44252.1625
1264.52631	45592.4625
1268.07163	46939.8625
1271.61453	48169.7625
1275.15503	49082.3625
1278.69312	49914.2625
1282.22882	50767.7625
1285.76211	52123.3625
1289.29301	53826.8625
1292.82151	55838.8625
1296.34761	58297.1625
1299.87133	61434.6625
1303.39266	65340.2625
1306.9116	69898.4625
1310.42815	74420.9625
1313.94233	76714.8625
1317.45412	75321.7625
1320.96354	71666.6625
1324.47058	67604.4625
1327.97525	64100.3625
1331.47754	61728.1625
1334.97747	60534.5625
1338.47502	60201.4625
1341.97022	60330.9625
1345.46305	60825.9625
1348.95352	62038.8625
1352.44163	64297.6625
1355.92738	68060.8625
1359.41078	73272.2625
1362.89183	77375.4625
1366.37053	75872.1625
1369.84688	68487.9625
1373.32088	59934.3625
1376.79254	54518.9625
1380.26186	52345.8625
1383.72883	51775.7625
1387.19347	51083.4625
1390.65578	50150.1625
1394.11575	49427.5625
1397.57339	49208.8625
1401.0287	49276.0625
1404.48168	49361.0625
1407.93234	49299.0625
1411.38068	49265.2625
1414.82669	48957.5625
1418.27039	48297.6625
1421.71177	47494.5625
1425.15083	46667.2625
1428.58758	46423.9625
1432.02203	46995.7625
1435.45416	48078.0625
1438.88399	48880.2625
1442.31151	49078.7625
1445.73673	49006.4625
1449.15965	48817.8625
1452.58027	48375.6625
1455.9986	47873.4625
1459.41463	47814.3625
1462.82837	48395.2625
1466.23982	49505.2625
1469.64898	50612.3625
1473.05586	51549.0625
1476.46045	52286.9625
1479.86276	52576.0625
1483.26279	52782.6625
1486.66054	53078.7625
1490.05602	53799.6625
1493.44922	54834.7625
1496.84016	56092.1625
1500.22882	57806.9625
1503.61521	60145.7625
1506.99934	62714.7625
1510.38121	64204.1625
1513.76081	63688.7625
1517.13816	60863.8625
1520.51324	57200.9625
1523.88607	54492.9625
1527.25665	53215.2625
1530.62498	52883.5625
1533.99105	52631.5625
1537.35488	51983.5625
1540.71647	51155.4625
1544.07581	50194.9625
1547.4329	49197.1625
1550.78776	48306.7625
1554.14038	47682.4625
1557.49077	47330.1625
1560.83892	47365.2625
1564.18484	47781.9625
1567.52853	48389.7625
1570.86999	48933.6625
1574.20922	49444.0625
1577.54624	49474.4625
1580.88103	48573.6625
1584.2136	47797.2625
1587.54395	48196.7625
1590.87208	50267.6625
1594.19801	53601.5625
1597.52172	57429.4625
1600.84321	59305.3625
1604.16251	57795.7625
1607.47959	53876.6625
1610.79447	49388.3625
1614.10715	45392.1625
1617.41763	42405.1625
1620.7259	40526.5625
1624.03199	39661.1625
1627.33587	39785.7625
1630.63757	40800.6625
1633.93707	43046.1625
1637.23439	46864.7625
1640.52951	52683.2625
1643.82246	59671.0625
1647.11321	65080.5625
1650.40179	65555.9625
1653.68819	60404.6625
1656.97241	52446.5625
1660.25446	45301.2625
1663.53433	40487.5625
1666.81203	37559.1625
1670.08756	35894.1625
1673.36092	34877.3625
1676.63211	34125.6625
1679.90115	33579.0625
1683.16801	33145.1625
1686.43272	32757.4625
1689.69527	32524.1625
1692.95567	32313.2625
1696.2139	32249.3625
1699.46999	32132.5625
1702.72392	32059.3625
1705.97571	32053.5625
1709.22535	32002.4625
1712.47284	31983.3625
1715.71819	31941.1625
1718.96139	31860.4625
1722.20246	31807.9625
1725.44139	31683.9625
1728.67818	31549.4625
1731.91284	31452.6625
1735.14537	31307.5625
1738.37576	31182.9625
1741.60403	31077.7625
1744.83017	30965.0625
1748.05418	30902.7625
1751.27607	30866.3625
1754.49584	30775.1625
1757.71349	30775.6625
1760.92903	30776.9625
1764.14244	30720.0625
1767.35375	30704.7625
1770.56294	30610.1625
1773.77002	30661.7625
1776.97499	30601.0625
1780.17785	30560.8625
1783.37861	30583.8625
1786.57727	30521.8625
1789.77382	30451.6625
1792.96828	30430.7625
1796.16064	30421.9625
1799.3509	30386.4625
1802.53907	30362.3625
1805.72514	30288.3625
1808.90913	30212.6625
1812.09102	30114.2625
1815.27083	30027.4625
1818.44856	30013.8625
1821.6242	29956.7625
1824.79776	29902.7625
1827.96924	29889.1625
1831.13864	29861.5625
1834.30597	29881.4625
1837.47122	29893.4625
1840.6344	29817.9625
1843.7955	29871.2625
1846.95454	29883.1625
1850.11151	29861.6625
1853.26642	29825.6625
1856.41926	29821.8625
1859.57004	29784.7625
1862.71876	29719.5625
1865.86542	29766.7625
1869.01003	29719.0625
1872.15258	29737.9625
1875.29308	29694.9625
1878.43152	29666.7625
1881.56792	29698.2625
1884.70227	29654.6625
1887.83457	29671.0625
1890.96482	29591.6625
1894.09304	29544.8625
1897.21921	29529.6625
1900.34335	29485.1625
1903.46544	29485.9625
1906.58551	29494.5625
1909.70353	29491.3625
1912.81953	29469.0625
1915.93349	29435.5625
1919.04543	29375.2625
1922.15534	29333.2625
1925.26322	29316.9625
1928.36908	29189.0625
1931.47292	29158.8625
1934.57473	29058.0625
1937.67453	28999.0625
1940.77232	28923.9625
1943.86808	28900.9625
1946.96184	28816.6625
1950.05358	28759.3625
1953.14331	28704.2625
1956.23103	28670.2625
1959.31675	28549.6625
1962.40046	28493.2625
1965.48217	28382.0625
1968.56188	28341.2625
1971.63959	28270.4625
1974.7153	28164.5625
1977.78901	28109.8625
1980.86073	28040.2625
1983.93046	27954.5625
1986.99819	27847.8625
1990.06394	27814.5625
1993.1277	27780.1625
1996.18947	27670.4625
1999.24925	27592.7625
2002.30706	27536.5625
2005.36288	27464.4625
2008.41672	27417.1625
2011.46859	27324.0625
2014.51848	27262.0625
2017.56639	27202.4625
2020.61233	27104.9625
2023.6563	27053.6625
2026.6983	27037.2625
2029.73833	26984.4625
2032.7764	26930.2625
2035.8125	26894.3625
2038.84664	26852.9625
2041.87881	26866.5625
2044.90903	26839.2625
2047.93729	26719.1625
2050.96359	26733.8625
2053.98794	26690.4625
2057.01034	26685.5625
2060.03078	26684.8625
2063.04927	26703.0625
2066.06582	26686.2625
2069.08042	26680.1625
2072.09307	26639.9625
2075.10378	26587.8625
2078.11255	26561.6625
2081.11938	26538.8625
2084.12426	26575.6625
2087.12722	26567.0625
2090.12824	26573.7625
2093.12732	26629.9625
2096.12447	26548.3625
2099.11969	26537.9625
2102.11299	26535.9625
2105.10435	26593.6625
2108.09379	26610.9625
2111.08131	26559.2625
2114.0669	26589.8625
2117.05057	26619.3625
2120.03233	26672.1625
2123.01216	26719.9625
2125.99008	26730.9625
2128.96609	26770.6625
2131.94018	26776.6625
2134.91236	26761.1625
2137.88263	26831.2625
2140.851	26814.1625
2143.81746	26863.9625
2146.78201	26790.3625
2149.74466	26860.2625
2152.7054	26884.5625
2155.66425	26857.8625
2158.6212	26853.5625
2161.57625	26839.7625
2164.52941	26845.3625
2167.48067	26869.4625
2170.43004	26807.5625
2173.37752	26798.1625
2176.32311	26786.5625
2179.26681	26836.9625
2182.20863	26851.5625
2185.14856	26831.3625
2188.08661	26881.3625
2191.02278	26838.2625
2193.95707	26864.7625
2196.88948	26881.7625
2199.82001	26840.1625
2202.74867	26839.6625
2205.67545	26821.2625
2208.60037	26824.1625
2211.52341	26816.8625
2214.44458	26735.2625
2217.36388	26702.2625
2220.28132	26643.9625
2223.1969	26580.6625
2226.11061	26593.3625
2229.02246	26567.1625
2231.93245	26523.8625
2234.84058	26469.9625
2237.74686	26481.7625
2240.65128	26451.8625
2243.55385	26405.5625
2246.45456	26360.1625
2249.35343	26381.5625
2252.25044	26328.1625
2255.14561	26285.0625
2258.03893	26294.0625
2260.93041	26226.9625
2263.82004	26150.6625
2266.70783	26143.2625
2269.59378	26023.7625
2272.4779	26004.8625
2275.36017	25970.9625
2278.24061	25936.5625
2281.11922	25860.6625
2283.996	25843.1625
2286.87094	25778.4625
2289.74405	25752.8625
2292.61534	25709.2625
2295.4848	25685.9625
2298.35243	25730.9625
2301.21824	25740.4625
2304.08223	25787.6625
2306.94439	25760.7625
2309.80474	25786.4625
2312.66327	25724.4625
2315.51999	25743.5625
2318.37489	25732.4625
2321.22797	25746.9625
2324.07925	25664.0625
2326.92871	25593.7625
2329.77637	25576.9625
2332.62222	25551.4625
2335.46626	25556.9625
2338.3085	25528.6625
2341.14893	25491.2625
2343.98756	25537.5625
2346.8244	25570.6625
2349.65943	25575.0625
2352.49267	25545.7625
2355.32411	25506.4625
2358.15376	25457.3625
2360.98161	25458.3625
2363.80768	25459.8625
2366.63195	25483.1625
2369.45444	25403.7625
2372.27514	25372.0625
2375.09405	25375.3625
2377.91118	25343.7625
2380.72652	25304.7625
2383.54009	25275.1625
2386.35187	25219.5625
2389.16188	25136.7625
2391.97011	25087.6625
2394.77657	25055.9625
2397.58125	25019.7625
2400.38416	24997.3625
2403.18529	24987.4625
2405.98466	24931.0625
2408.78226	24889.3625
2411.57809	24870.8625
2414.37216	24831.7625
2417.16446	24886.2625
2419.955	24848.2625
2422.74378	24833.2625
2425.5308	24798.7625
2428.31606	24785.8625
2431.09956	24793.8625
2433.88131	24761.3625
2436.6613	24782.6625
2439.43954	24750.0625
2442.21603	24730.8625
2444.99077	24670.5625
2447.76377	24721.4625
2450.53501	24688.7625
2453.30451	24691.7625
2456.07226	24658.9625
2458.83827	24691.5625
2461.60254	24630.3625
2464.36507	24617.1625
2467.12586	24594.2625
2469.88492	24610.3625
2472.64224	24627.5625
2475.39782	24589.2625
2478.15167	24633.0625
2480.90379	24651.7625
2483.65417	24643.6625
2486.40283	24687.9625
2489.14976	24712.4625
2491.89497	24669.8625
2494.63845	24703.3625
2497.3802	24696.4625
2500.12024	24676.4625
2502.85855	24638.7625
2505.59514	24600.8625
2508.33002	24565.8625
2511.06318	24532.5625
2513.79462	24532.5625
2516.52435	24528.5625
2519.25237	24474.3625
2521.97867	24444.0625
2524.70327	24409.6625
2527.42616	24380.4625
2530.14734	24405.2625
2532.86681	24397.0625
2535.58458	24399.8625
2538.30065	24337.8625
2541.01501	24367.9625
2543.72768	24333.6625
2546.43864	24299.0625
2549.14791	24272.6625
2551.85548	24250.9625
2554.56136	24206.7625
2557.26554	24207.2625
2559.96803	24192.2625
2562.66883	24177.0625
2565.36794	24107.7625
2568.06536	24162.1625
2570.7611	24115.9625
2573.45514	24090.1625
2576.14751	24084.0625
2578.83819	24033.5625
2581.52719	24068.4625
2584.21451	23988.4625
2586.90015	23983.9625
2589.58411	23938.9625
2592.2664	23939.4625
2594.94701	23893.2625
2597.62594	23914.0625
2600.30321	23815.4625
2602.9788	23868.7625
2605.65273	23814.3625
2608.32498	23831.3625
2610.99557	23835.3625
2613.66449	23867.6625
2616.33175	23814.7625
2618.99734	23852.8625
2621.66128	23827.4625
2624.32355	23791.5625
2626.98416	23744.6625
2629.64311	23710.3625
2632.30041	23682.6625
2634.95605	23755.2625
2637.61004	23677.6625
2640.26238	23668.4625
2642.91306	23649.1625
2645.56209	23620.6625
2648.20948	23631.9625
2650.85521	23568.7625
2653.4993	23615.6625
2656.14175	23612.5625
2658.78255	23596.6625
2661.42171	23598.0625
2664.05923	23644.6625
2666.6951	23654.5625
2669.32934	23723.1625
2671.96194	23718.2625
2674.59291	23723.0625
2677.22224	23670.6625
2679.84993	23673.0625
2682.476	23659.9625
2685.10043	23661.2625
2687.72324	23614.6625
2690.34441	23553.4625
2692.96396	23579.0625
2695.58188	23608.4625
2698.19818	23539.1625
2700.81285	23626.0625
2703.4259	23572.0625
2706.03733	23591.4625
2708.64714	23571.9625
2711.25533	23607.4625
2713.86191	23584.3625
2716.46687	23663.3625
2719.07021	23625.2625
2721.67194	23713.3625
2724.27206	23678.1625
2726.87057	23705.1625
2729.46747	23714.4625
2732.06276	23690.8625
2734.65644	23681.1625
2737.24852	23658.8625
2739.83899	23649.9625
2742.42786	23753.0625
2745.01513	23711.6625
2747.60079	23603.9625
2750.18486	23599.3625
2752.76733	23576.9625
2755.3482	23562.9625
2757.92747	23556.9625
2760.50515	23534.5625
2763.08123	23523.7625
2765.65573	23525.9625
2768.22863	23556.4625
2770.79994	23498.4625
2773.36967	23557.5625
2775.9378	23483.0625
2778.50435	23481.1625
2781.06932	23490.0625
2783.6327	23489.8625
2786.1945	23444.0625
2788.75471	23424.8625
2791.31335	23353.1625
2793.87041	23322.6625
2796.42589	23265.4625
2798.97979	23257.5625
2801.53212	23203.1625
2804.08288	23185.6625
2806.63206	23118.6625
2809.17967	23071.0625
2811.72571	22994.7625
2814.27018	23012.3625
2816.81308	22948.4625
2819.35442	22980.1625
2821.89419	22947.4625
2824.43239	22931.9625
2826.96904	22920.0625
2829.50412	22888.3625
2832.03763	22810.4625
2834.56959	22753.4625
2837.1	22798.3625
2839.62884	22762.3625
2842.15613	22743.9625
2844.68186	22736.9625
2847.20604	22718.0625
2849.72867	22696.2625
2852.24974	22664.4625
2854.76927	22638.2625
2857.28724	22612.0625
2859.80367	22627.3625
2862.31855	22610.0625
2864.83189	22571.5625
2867.34368	22542.4625
2869.85393	22569.8625
2872.36264	22525.1625
2874.8698	22527.3625
2877.37543	22485.4625
2879.87952	22491.4625
2882.38207	22442.5625
2884.88308	22462.2625
2887.38256	22482.0625
2889.88051	22454.7625
2892.37692	22471.7625
2894.8718	22464.1625
2897.36515	22491.7625
2899.85698	22512.9625
2902.34727	22571.6625
2904.83604	22584.0625
2907.32328	22673.0625
2909.809	22623.5625
2912.29319	22611.6625
2914.77587	22618.4625
2917.25702	22615.8625
2919.73665	22573.8625
2922.21476	22601.0625
2924.69136	22542.3625
2927.16644	22559.4625
2929.64	22520.0625
2932.11205	22481.3625
2934.58258	22436.9625
2937.05161	22448.9625
2939.51912	22457.0625
2941.98513	22438.8625
2944.44962	22393.2625
2946.91261	22313.9625
2949.37409	22393.2625
2951.83407	22396.1625
2954.29254	22401.9625
2956.74951	22405.9625
2959.20498	22398.3625
2961.65895	22374.5625
2964.11142	22375.4625
2966.56239	22348.1625
2969.01186	22314.8625
2971.45984	22294.4625
2973.90632	22296.0625
2976.35131	22261.6625
2978.7948	22220.1625
2981.23681	22154.2625
2983.67732	22126.3625
2986.11635	22102.4625
2988.55388	22039.8625
2990.98993	22038.8625
2993.4245	21980.7625
2995.85758	21968.8625
2998.28917	21933.0625
3000.71928	21903.2625
3003.14791	21861.0625
3005.57506	21831.1625
3008.00073	21748.3625
3010.42493	21753.2625
3012.84764	21679.6625
3015.26888	21703.0625
3017.68865	21665.5625
3020.10694	21580.1625
3022.52376	21537.9625
3024.9391	21556.2625
3027.35298	21450.0625
3029.76539	21466.5625
3032.17632	21449.1625
3034.5858	21434.9625
3036.9938	21443.2625
3039.40034	21405.6625
3041.80542	21384.2625
3044.20903	21356.0625
3046.61118	21387.9625
3049.01187	21303.6625
3051.4111	21285.0625
3053.80888	21243.6625
3056.20519	21190.2625
3058.60005	21166.3625
3060.99345	21115.8625
3063.3854	21071.0625
3065.7759	21010.5625
3068.16494	21024.8625
3070.55254	20958.7625
3072.93868	20880.3625
3075.32338	20810.1625
3077.70662	20780.8625
3080.08842	20755.9625
3082.46878	20722.9625
3084.84769	20707.8625
3087.22515	20704.5625
3089.60118	20726.6625
3091.97576	20684.8625
3094.3489	20658.4625
3096.72061	20696.8625
3099.09087	20681.6625
3101.4597	20660.0625
3103.82709	20680.4625
3106.19305	20646.5625
3108.55757	20636.6625
3110.92066	20583.5625
3113.28232	20611.1625
3115.64255	20509.1625
3118.00134	20519.6625
3120.35871	20499.0625
3122.71466	20414.7625
3125.06917	20383.4625
3127.42226	20348.2625
3129.77393	20381.0625
3132.12417	20312.2625
3134.47299	20317.6625
3136.82039	20287.5625
3139.16636	20300.9625
3141.51092	20280.8625
3143.85406	20247.4625
3146.19579	20260.5625
3148.53609	20255.0625
3150.87499	20297.6625
3153.21246	20309.5625
3155.54853	20274.4625
3157.88318	20277.7625
3160.21642	20274.3625
3162.54826	20297.7625
3164.87868	20272.9625
3167.2077	20295.6625
3169.5353	20297.1625
3171.86151	20275.0625
3174.18631	20259.9625
3176.5097	20299.6625
3178.83169	20254.0625
3181.15228	20220.6625
3183.47147	20156.9625
3185.78926	20126.0625
3188.10565	20075.0625
3190.42065	20074.7625
3192.73424	20041.5625
3195.04645	20020.0625
3197.35725	20018.2625
3199.66667	19996.7625
3201.97469	20025.5625
3204.28132	19961.8625
3206.58656	20008.3625
3208.8904	20001.7625
3211.19287	20030.7625
3213.49394	20028.9625
3215.79363	19996.8625
3218.09193	20032.8625
3220.38884	20040.6625
3222.68438	20030.7625
3224.97853	20022.7625
3227.2713	20061.6625
3229.56269	20029.1625
3231.8527	20018.4625
3234.14133	19968.9625
3236.42858	19981.8625
3238.71446	19944.0625
3240.99896	19856.8625
3243.28209	19821.0625
3245.56384	19778.6625
3247.84423	19784.3625
3250.12324	19736.3625
3252.40088	19677.3625
3254.67715	19695.1625
3256.95205	19667.4625
3259.22558	19677.4625
3261.49775	19678.4625
3263.76855	19654.0625
3266.03799	19639.7625
3268.30606	19624.7625
3270.57277	19648.1625
3272.83812	19560.0625
3275.10211	19524.3625
3277.36474	19480.6625
3279.62601	19507.1625
3281.88593	19452.9625
3284.14448	19450.4625
3286.40168	19431.7625
3288.65753	19433.2625
3290.91202	19439.5625
3293.16516	19425.3625
3295.41695	19362.9625
3297.66738	19238.7625
3299.91647	19161.8625
3302.16421	19035.0625
3304.4106	18946.2625
3306.65564	18830.9625
3308.89933	18714.0625
3311.14169	18611.7625
3313.38269	18437.0625
3315.62236	18348.1625
3317.86068	18193.7625
3320.09766	18058.9625
3322.3333	17905.6625
3324.5676	17836.1625
3326.80056	17619.9625
3329.03219	17517.6625
3331.26248	4.3625
3333.49143	-1.7375
3335.71905	0.6625
