Data from AgNPs_UA_0uM_CRN_0uM_R6G_10uM_Q_RamanShift__4__11-23-08-749.txt Node

Date: Wed Jul 13 11:23:08 BST 2022
User: TCL
Spectrometer: QEP01345
Trigger mode: 4
Integration Time (sec): 7.000000E0
Scans to average: 10
Electric dark correction enabled: true
Nonlinearity correction enabled: false
Boxcar width: 0
XAxis mode: Raman Shifts
Number of Pixels in Spectrum: 1044
>>>>>Begin Spectral Data<<<<<
46.04893	0.8625
50.45542	-0.8375
54.85868	-0.5375
59.25871	0.5625
63.6555	45.7625
68.04907	50.7625
72.43941	56.3625
76.82654	60.1625
81.21044	65.3625
85.59113	68.4625
89.96862	71.2625
94.34289	74.8625
98.71396	73.0625
103.08183	77.3625
107.4465	77.6625
111.80798	78.6625
116.16626	80.7625
120.52136	82.4625
124.87327	83.2625
129.222	80.5625
133.56755	83.2625
137.90993	93.5625
142.24913	92.8625
146.58517	102.3625
150.91804	116.4625
155.24774	126.2625
159.57429	149.3625
163.89768	186.2625
168.21792	234.8625
172.53501	316.6625
176.84895	423.0625
181.15975	590.0625
185.46741	829.5625
189.77193	1125.4625
194.07331	1531.9625
198.37157	1975.3625
202.6667	2465.4625
206.9587	2951.4625
211.24758	3476.5625
215.53334	3993.9625
219.81599	4561.6625
224.09553	5210.5625
228.37195	5914.1625
232.64527	6647.7625
236.91549	7329.6625
241.18261	7968.7625
245.44663	8549.2625
249.70755	9043.2625
253.96539	9458.6625
258.22014	9808.8625
262.4718	10117.3625
266.72039	10246.6625
270.96589	10190.3625
275.20832	9979.2625
279.44768	9661.6625
283.68397	9296.9625
287.91719	8969.9625
292.14735	8733.4625
296.37445	8716.8625
300.59849	8855.4625
304.81948	9153.3625
309.03742	9438.5625
313.25231	9508.7625
317.46415	9133.4625
321.67296	8361.9625
325.87872	7619.5625
330.08145	7189.4625
334.28114	7106.3625
338.47781	7209.0625
342.67145	7420.5625
346.86207	7791.4625
351.04966	8331.0625
355.23424	8870.1625
359.4158	9109.4625
363.59435	9028.9625
367.76989	8829.7625
371.94243	8610.9625
376.11196	8432.5625
380.27849	8266.4625
384.44203	8131.1625
388.60257	8017.6625
392.76012	8042.1625
396.91468	8163.5625
401.06626	8360.7625
405.21485	8427.9625
409.36047	8160.2625
413.50311	7648.9625
417.64277	7190.8625
421.77947	6912.9625
425.9132	6796.3625
430.04396	6724.7625
434.17176	6713.1625
438.2966	6809.8625
442.41849	6928.2625
446.53742	7064.2625
450.6534	7196.1625
454.76644	7238.8625
458.87653	7235.4625
462.98368	7187.5625
467.08789	7129.6625
471.18916	6991.4625
475.2875	6797.2625
479.38291	6643.5625
483.4754	6562.0625
487.56496	6514.8625
491.6516	6479.2625
495.73531	6465.0625
499.81612	6511.3625
503.89401	6617.0625
507.96899	6741.2625
512.04106	6889.3625
516.11023	7043.3625
520.1765	7152.3625
524.23987	7230.1625
528.30034	7165.6625
532.35792	7104.9625
536.41261	7038.6625
540.46441	6883.9625
544.51333	6806.2625
548.55936	6845.5625
552.60252	6971.3625
556.64279	7152.9625
560.6802	7350.0625
564.71473	7686.2625
568.7464	8072.8625
572.7752	8096.6625
576.80114	7488.8625
580.82422	6975.9625
584.84444	6726.2625
588.86181	6683.8625
592.87633	6723.0625
596.888	6875.7625
600.89682	7326.7625
604.9028	8740.6625
608.90594	12189.6625
612.90624	16188.5625
616.90371	14905.4625
620.89834	9937.9625
624.89015	7723.3625
628.87913	7373.0625
632.86528	7531.3625
636.84862	7639.0625
640.82913	7313.6625
644.80683	6813.0625
648.78172	6533.0625
652.75379	6638.7625
656.72306	7032.7625
660.68952	7484.4625
664.65319	7387.9625
668.61405	7009.2625
672.57211	6964.6625
676.52738	7077.2625
680.47986	7140.7625
684.42955	7130.4625
688.37646	7127.9625
692.32058	7149.4625
696.26192	7218.1625
700.20048	7280.2625
704.13626	7299.4625
708.06928	7207.6625
711.99952	7085.9625
715.927	7027.4625
719.85171	7020.6625
723.77365	7001.4625
727.69284	6900.0625
731.60928	6790.0625
735.52295	6803.4625
739.43388	6813.8625
743.34206	6825.5625
747.24749	6794.4625
751.15017	6767.5625
755.05012	6853.9625
758.94733	7363.2625
762.8418	8601.7625
766.73354	10479.3625
770.62254	11875.3625
774.50882	12049.6625
778.39237	11305.0625
782.27321	10005.7625
786.15132	8500.2625
790.02671	7491.4625
793.89938	7018.3625
797.76935	6829.7625
801.6366	6707.4625
805.50115	6676.1625
809.36299	6620.2625
813.22213	6617.1625
817.07857	6615.3625
820.93231	6650.2625
824.78336	6699.4625
828.63172	6742.5625
832.47738	6739.1625
836.32036	6706.8625
840.16066	6606.6625
843.99827	6576.6625
847.8332	6577.5625
851.66546	6580.8625
855.49504	6591.4625
859.32195	6577.9625
863.1462	6574.3625
866.96777	6580.4625
870.78668	6602.3625
874.60293	6645.9625
878.41652	6700.2625
882.22745	6817.9625
886.03573	6875.8625
889.84136	6904.2625
893.64433	6924.0625
897.44466	6969.3625
901.24235	7037.0625
905.0374	7092.4625
908.8298	7102.9625
912.61957	7110.1625
916.40671	7152.7625
920.19121	7180.5625
923.97308	7251.7625
927.75233	7408.2625
931.52895	7562.0625
935.30295	7428.1625
939.07433	7127.2625
942.84309	6869.7625
946.60924	6722.3625
950.37278	6636.5625
954.13371	6603.3625
957.89203	6559.7625
961.64774	6514.1625
965.40086	6490.9625
969.15137	6462.7625
972.89929	6422.3625
976.64461	6403.7625
980.38733	6428.2625
984.12747	6408.5625
987.86502	6434.2625
991.59999	6445.2625
995.33237	6483.6625
999.06217	6540.0625
1002.78939	6659.3625
1006.51404	6814.6625
1010.23611	6974.6625
1013.95561	6970.4625
1017.67255	6937.0625
1021.38692	6856.2625
1025.09872	6776.3625
1028.80796	6768.9625
1032.51465	6791.5625
1036.21877	6872.6625
1039.92035	7007.5625
1043.61937	7195.9625
1047.31584	7389.4625
1051.00976	7546.9625
1054.70114	7591.9625
1058.38998	7526.7625
1062.07627	7378.9625
1065.76003	7208.4625
1069.44126	7048.7625
1073.11995	7047.4625
1076.79611	7116.5625
1080.46974	7284.0625
1084.14085	7550.6625
1087.80943	7821.1625
1091.47549	7859.9625
1095.13903	7630.0625
1098.80005	7370.6625
1102.45857	7294.7625
1106.11456	7259.6625
1109.76805	7228.1625
1113.41903	7331.3625
1117.06751	7595.3625
1120.71348	7975.4625
1124.35696	8498.4625
1127.99793	8949.9625
1131.63641	8762.5625
1135.2724	8090.4625
1138.90589	7569.3625
1142.5369	7238.3625
1146.16542	7025.4625
1149.79145	6899.0625
1153.415	6831.7625
1157.03607	6830.0625
1160.65467	6920.7625
1164.27079	7140.7625
1167.88443	7500.7625
1171.49561	8094.2625
1175.10432	9132.6625
1178.71056	10583.4625
1182.31434	11658.1625
1185.91565	11734.6625
1189.51451	11113.7625
1193.11091	10252.0625
1196.70485	9556.9625
1200.29634	9101.9625
1203.88538	8695.3625
1207.47197	8137.1625
1211.05612	7635.6625
1214.63782	7259.6625
1218.21708	7059.7625
1221.79391	6957.5625
1225.36829	6956.9625
1228.94024	6942.2625
1232.50976	6943.4625
1236.07685	6976.1625
1239.6415	7022.2625
1243.20374	7082.1625
1246.76355	7138.5625
1250.32093	7252.7625
1253.8759	7397.1625
1257.42845	7653.2625
1260.97859	7994.6625
1264.52631	8390.8625
1268.07163	8691.0625
1271.61453	8852.3625
1275.15503	8847.9625
1278.69312	8739.8625
1282.22882	8731.8625
1285.76211	8980.6625
1289.29301	9413.5625
1292.82151	9838.6625
1296.34761	10190.4625
1299.87133	10719.1625
1303.39266	11784.3625
1306.9116	13668.4625
1310.42815	15905.1625
1313.94233	16877.8625
1317.45412	15787.1625
1320.96354	13716.1625
1324.47058	11873.5625
1327.97525	10494.4625
1331.47754	9663.4625
1334.97747	9268.9625
1338.47502	9336.0625
1341.97022	9793.9625
1345.46305	10820.1625
1348.95352	12312.5625
1352.44163	13794.2625
1355.92738	15548.5625
1359.41078	18430.1625
1362.89183	21594.9625
1366.37053	21120.4625
1369.84688	16865.5625
1373.32088	12807.0625
1376.79254	10688.7625
1380.26186	9735.5625
1383.72883	9119.2625
1387.19347	8614.6625
1390.65578	8193.7625
1394.11575	7889.9625
1397.57339	7705.9625
1401.0287	7618.6625
1404.48168	7570.9625
1407.93234	7542.5625
1411.38068	7621.6625
1414.82669	7778.2625
1418.27039	7948.5625
1421.71177	8058.1625
1425.15083	8019.9625
1428.58758	7922.1625
1432.02203	8050.6625
1435.45416	8173.8625
1438.88399	8162.8625
1442.31151	8083.3625
1445.73673	8035.6625
1449.15965	8004.8625
1452.58027	7943.9625
1455.9986	7860.4625
1459.41463	7819.8625
1462.82837	7832.1625
1466.23982	7939.9625
1469.64898	8096.8625
1473.05586	8166.5625
1476.46045	8207.3625
1479.86276	8253.1625
1483.26279	8399.9625
1486.66054	8677.6625
1490.05602	9078.4625
1493.44922	9798.5625
1496.84016	10913.8625
1500.22882	12699.4625
1503.61521	15207.5625
1506.99934	18197.6625
1510.38121	20955.1625
1513.76081	21795.9625
1517.13816	19945.6625
1520.51324	16451.4625
1523.88607	13206.7625
1527.25665	11020.0625
1530.62498	9704.2625
1533.99105	8953.1625
1537.35488	8429.4625
1540.71647	8117.9625
1544.07581	7912.0625
1547.4329	7877.5625
1550.78776	7910.2625
1554.14038	8041.3625
1557.49077	8225.6625
1560.83892	8563.6625
1564.18484	9116.2625
1567.52853	9747.6625
1570.86999	10291.9625
1574.20922	10535.2625
1577.54624	10376.8625
1580.88103	9590.7625
1584.2136	8501.6625
1587.54395	7772.7625
1590.87208	7571.1625
1594.19801	7786.0625
1597.52172	8189.3625
1600.84321	8262.1625
1604.16251	7929.5625
1607.47959	7554.6625
1610.79447	7277.1625
1614.10715	6924.6625
1617.41763	6613.0625
1620.7259	6449.0625
1624.03199	6387.7625
1627.33587	6412.3625
1630.63757	6564.8625
1633.93707	6862.3625
1637.23439	7401.1625
1640.52951	8374.7625
1643.82246	9956.0625
1647.11321	12070.4625
1650.40179	13759.7625
1653.68819	13650.2625
1656.97241	11691.5625
1660.25446	9352.4625
1663.53433	7675.5625
1666.81203	6740.5625
1670.08756	6187.0625
1673.36092	5877.8625
1676.63211	5695.1625
1679.90115	5579.9625
1683.16801	5471.0625
1686.43272	5402.9625
1689.69527	5370.8625
1692.95567	5306.1625
1696.2139	5293.0625
1699.46999	5257.7625
1702.72392	5250.6625
1705.97571	5251.4625
1709.22535	5260.6625
1712.47284	5297.3625
1715.71819	5291.8625
1718.96139	5291.1625
1722.20246	5293.2625
1725.44139	5270.8625
1728.67818	5240.4625
1731.91284	5219.4625
1735.14537	5199.3625
1738.37576	5217.6625
1741.60403	5198.1625
1744.83017	5234.8625
1748.05418	5245.9625
1751.27607	5240.6625
1754.49584	5284.7625
1757.71349	5297.2625
1760.92903	5312.8625
1764.14244	5339.7625
1767.35375	5343.1625
1770.56294	5364.3625
1773.77002	5373.7625
1776.97499	5352.7625
1780.17785	5345.3625
1783.37861	5323.4625
1786.57727	5283.8625
1789.77382	5252.0625
1792.96828	5214.5625
1796.16064	5201.9625
1799.3509	5127.5625
1802.53907	5086.3625
1805.72514	5021.6625
1808.90913	4985.0625
1812.09102	4917.7625
1815.27083	4855.6625
1818.44856	4817.9625
1821.6242	4782.8625
1824.79776	4755.1625
1827.96924	4692.6625
1831.13864	4660.6625
1834.30597	4646.6625
1837.47122	4633.0625
1840.6344	4600.5625
1843.7955	4598.9625
1846.95454	4563.5625
1850.11151	4545.2625
1853.26642	4547.8625
1856.41926	4516.6625
1859.57004	4518.8625
1862.71876	4531.3625
1865.86542	4512.4625
1869.01003	4518.8625
1872.15258	4513.6625
1875.29308	4496.5625
1878.43152	4466.4625
1881.56792	4478.2625
1884.70227	4478.8625
1887.83457	4450.6625
1890.96482	4428.5625
1894.09304	4439.5625
1897.21921	4438.2625
1900.34335	4427.9625
1903.46544	4420.1625
1906.58551	4421.1625
1909.70353	4433.1625
1912.81953	4418.8625
1915.93349	4419.2625
1919.04543	4413.2625
1922.15534	4411.4625
1925.26322	4395.7625
1928.36908	4382.8625
1931.47292	4369.6625
1934.57473	4361.1625
1937.67453	4350.5625
1940.77232	4320.4625
1943.86808	4290.1625
1946.96184	4282.7625
1950.05358	4280.8625
1953.14331	4260.1625
1956.23103	4243.2625
1959.31675	4223.8625
1962.40046	4210.6625
1965.48217	4212.8625
1968.56188	4206.0625
1971.63959	4196.3625
1974.7153	4179.1625
1977.78901	4150.0625
1980.86073	4129.1625
1983.93046	4107.1625
1986.99819	4075.3625
1990.06394	4058.5625
1993.1277	4054.7625
1996.18947	4021.3625
1999.24925	4034.6625
2002.30706	4012.3625
2005.36288	4004.9625
2008.41672	3974.5625
2011.46859	3955.2625
2014.51848	3961.0625
2017.56639	3940.8625
2020.61233	3963.7625
2023.6563	3929.5625
2026.6983	3918.2625
2029.73833	3931.8625
2032.7764	3919.6625
2035.8125	3920.1625
2038.84664	3905.9625
2041.87881	3915.6625
2044.90903	3925.1625
2047.93729	3922.8625
2050.96359	3914.5625
2053.98794	3930.6625
2057.01034	3942.9625
2060.03078	3950.6625
2063.04927	3947.2625
2066.06582	3964.6625
2069.08042	3963.6625
2072.09307	3966.8625
2075.10378	3966.6625
2078.11255	3964.0625
2081.11938	3971.8625
2084.12426	3962.5625
2087.12722	3958.2625
2090.12824	3961.8625
2093.12732	3948.1625
2096.12447	3952.6625
2099.11969	3937.2625
2102.11299	3925.0625
2105.10435	3925.3625
2108.09379	3908.2625
2111.08131	3907.9625
2114.0669	3882.1625
2117.05057	3879.2625
2120.03233	3862.6625
2123.01216	3871.0625
2125.99008	3861.3625
2128.96609	3850.6625
2131.94018	3836.0625
2134.91236	3822.2625
2137.88263	3805.6625
2140.851	3798.2625
2143.81746	3788.8625
2146.78201	3762.4625
2149.74466	3759.1625
2152.7054	3749.8625
2155.66425	3742.0625
2158.6212	3728.0625
2161.57625	3710.0625
2164.52941	3701.9625
2167.48067	3690.9625
2170.43004	3696.6625
2173.37752	3694.8625
2176.32311	3694.7625
2179.26681	3686.6625
2182.20863	3690.8625
2185.14856	3704.4625
2188.08661	3682.6625
2191.02278	3683.0625
2193.95707	3671.7625
2196.88948	3682.6625
2199.82001	3667.2625
2202.74867	3639.4625
2205.67545	3634.3625
2208.60037	3634.2625
2211.52341	3626.6625
2214.44458	3616.1625
2217.36388	3592.3625
2220.28132	3588.8625
2223.1969	3581.9625
2226.11061	3576.8625
2229.02246	3559.0625
2231.93245	3557.0625
2234.84058	3538.7625
2237.74686	3535.0625
2240.65128	3535.6625
2243.55385	3517.4625
2246.45456	3535.9625
2249.35343	3519.1625
2252.25044	3532.2625
2255.14561	3538.2625
2258.03893	3523.2625
2260.93041	3530.4625
2263.82004	3527.7625
2266.70783	3520.5625
2269.59378	3496.7625
2272.4779	3492.4625
2275.36017	3469.3625
2278.24061	3475.0625
2281.11922	3467.7625
2283.996	3462.6625
2286.87094	3445.4625
2289.74405	3438.6625
2292.61534	3426.5625
2295.4848	3422.1625
2298.35243	3411.7625
2301.21824	3409.7625
2304.08223	3397.7625
2306.94439	3390.4625
2309.80474	3394.8625
2312.66327	3397.6625
2315.51999	3388.6625
2318.37489	3379.3625
2321.22797	3365.5625
2324.07925	3357.1625
2326.92871	3359.5625
2329.77637	3351.4625
2332.62222	3339.8625
2335.46626	3329.5625
2338.3085	3327.8625
2341.14893	3322.7625
2343.98756	3326.3625
2346.8244	3314.5625
2349.65943	3318.3625
2352.49267	3321.8625
2355.32411	3325.2625
2358.15376	3336.4625
2360.98161	3334.5625
2363.80768	3343.4625
2366.63195	3336.5625
2369.45444	3350.0625
2372.27514	3347.4625
2375.09405	3320.8625
2377.91118	3322.4625
2380.72652	3323.2625
2383.54009	3298.4625
2386.35187	3292.5625
2389.16188	3268.7625
2391.97011	3260.0625
2394.77657	3234.8625
2397.58125	3223.5625
2400.38416	3212.6625
2403.18529	3203.1625
2405.98466	3199.6625
2408.78226	3205.0625
2411.57809	3189.4625
2414.37216	3185.8625
2417.16446	3178.3625
2419.955	3182.3625
2422.74378	3175.1625
2425.5308	3182.9625
2428.31606	3183.3625
2431.09956	3170.2625
2433.88131	3167.6625
2436.6613	3174.9625
2439.43954	3166.6625
2442.21603	3175.0625
2444.99077	3173.9625
2447.76377	3158.5625
2450.53501	3173.9625
2453.30451	3162.8625
2456.07226	3150.7625
2458.83827	3160.6625
2461.60254	3156.5625
2464.36507	3158.5625
2467.12586	3144.2625
2469.88492	3148.4625
2472.64224	3146.6625
2475.39782	3137.0625
2478.15167	3144.1625
2480.90379	3148.4625
2483.65417	3156.7625
2486.40283	3151.8625
2489.14976	3160.1625
2491.89497	3166.3625
2494.63845	3156.2625
2497.3802	3142.5625
2500.12024	3148.7625
2502.85855	3139.4625
2505.59514	3119.2625
2508.33002	3111.0625
2511.06318	3089.1625
2513.79462	3072.4625
2516.52435	3067.9625
2519.25237	3062.7625
2521.97867	3039.1625
2524.70327	3027.8625
2527.42616	3015.4625
2530.14734	3014.0625
2532.86681	3004.4625
2535.58458	3007.7625
2538.30065	3000.4625
2541.01501	2996.5625
2543.72768	2997.9625
2546.43864	2980.2625
2549.14791	2982.5625
2551.85548	2986.7625
2554.56136	3002.7625
2557.26554	2992.4625
2559.96803	2979.7625
2562.66883	2973.3625
2565.36794	2983.2625
2568.06536	2959.3625
2570.7611	2945.8625
2573.45514	2940.0625
2576.14751	2934.8625
2578.83819	2932.6625
2581.52719	2929.6625
2584.21451	2913.9625
2586.90015	2903.2625
2589.58411	2894.4625
2592.2664	2895.7625
2594.94701	2895.4625
2597.62594	2886.7625
2600.30321	2882.5625
2602.9788	2888.8625
2605.65273	2867.6625
2608.32498	2860.0625
2610.99557	2863.8625
2613.66449	2857.0625
2616.33175	2850.0625
2618.99734	2843.5625
2621.66128	2853.6625
2624.32355	2849.3625
2626.98416	2839.0625
2629.64311	2838.0625
2632.30041	2830.1625
2634.95605	2817.9625
2637.61004	2811.3625
2640.26238	2794.9625
2642.91306	2785.7625
2645.56209	2771.4625
2648.20948	2771.9625
2650.85521	2778.5625
2653.4993	2779.9625
2656.14175	2782.4625
2658.78255	2771.9625
2661.42171	2792.4625
2664.05923	2779.0625
2666.6951	2771.5625
2669.32934	2781.9625
2671.96194	2779.3625
2674.59291	2792.2625
2677.22224	2781.6625
2679.84993	2783.0625
2682.476	2777.9625
2685.10043	2774.7625
2687.72324	2778.1625
2690.34441	2768.3625
2692.96396	2758.2625
2695.58188	2760.3625
2698.19818	2751.2625
2700.81285	2749.3625
2703.4259	2745.9625
2706.03733	2737.8625
2708.64714	2742.8625
2711.25533	2752.3625
2713.86191	2755.3625
2716.46687	2765.1625
2719.07021	2761.7625
2721.67194	2756.1625
2724.27206	2760.6625
2726.87057	2746.5625
2729.46747	2744.2625
2732.06276	2742.2625
2734.65644	2731.9625
2737.24852	2747.0625
2739.83899	2739.8625
2742.42786	2730.0625
2745.01513	2714.6625
2747.60079	2715.4625
2750.18486	2716.1625
2752.76733	2695.2625
2755.3482	2685.2625
2757.92747	2674.9625
2760.50515	2669.5625
2763.08123	2672.2625
2765.65573	2661.9625
2768.22863	2654.8625
2770.79994	2643.2625
2773.36967	2660.9625
2775.9378	2650.8625
2778.50435	2647.9625
2781.06932	2640.3625
2783.6327	2637.8625
2786.1945	2623.5625
2788.75471	2629.6625
2791.31335	2624.8625
2793.87041	2619.9625
2796.42589	2617.7625
2798.97979	2614.3625
2801.53212	2605.7625
2804.08288	2599.1625
2806.63206	2592.4625
2809.17967	2592.1625
2811.72571	2593.1625
2814.27018	2598.7625
2816.81308	2594.8625
2819.35442	2587.5625
2821.89419	2579.6625
2824.43239	2585.8625
2826.96904	2578.0625
2829.50412	2588.8625
2832.03763	2572.0625
2834.56959	2578.5625
2837.1	2565.6625
2839.62884	2566.3625
2842.15613	2564.0625
2844.68186	2564.8625
2847.20604	2561.8625
2849.72867	2565.0625
2852.24974	2558.1625
2854.76927	2564.3625
2857.28724	2566.7625
2859.80367	2563.0625
2862.31855	2563.4625
2864.83189	2564.7625
2867.34368	2562.9625
2869.85393	2568.7625
2872.36264	2564.1625
2874.8698	2568.2625
2877.37543	2553.1625
2879.87952	2560.6625
2882.38207	2547.8625
2884.88308	2558.8625
2887.38256	2542.2625
2889.88051	2538.2625
2892.37692	2535.7625
2894.8718	2543.7625
2897.36515	2541.6625
2899.85698	2537.1625
2902.34727	2547.8625
2904.83604	2557.9625
2907.32328	2555.6625
2909.809	2561.2625
2912.29319	2583.8625
2914.77587	2575.9625
2917.25702	2573.1625
2919.73665	2571.8625
2922.21476	2557.1625
2924.69136	2556.0625
2927.16644	2554.0625
2929.64	2530.8625
2932.11205	2534.5625
2934.58258	2524.4625
2937.05161	2525.0625
2939.51912	2518.4625
2941.98513	2511.2625
2944.44962	2497.3625
2946.91261	2503.2625
2949.37409	2507.3625
2951.83407	2496.7625
2954.29254	2489.4625
2956.74951	2487.9625
2959.20498	2481.4625
2961.65895	2483.2625
2964.11142	2491.4625
2966.56239	2476.5625
2969.01186	2491.0625
2971.45984	2477.3625
2973.90632	2468.7625
2976.35131	2462.1625
2978.7948	2460.5625
2981.23681	2465.2625
2983.67732	2455.1625
2986.11635	2447.0625
2988.55388	2440.7625
2990.98993	2439.1625
2993.4245	2445.8625
2995.85758	2440.0625
2998.28917	2421.3625
3000.71928	2426.8625
3003.14791	2430.5625
3005.57506	2422.9625
3008.00073	2407.6625
3010.42493	2402.0625
3012.84764	2404.1625
3015.26888	2412.0625
3017.68865	2402.5625
3020.10694	2398.8625
3022.52376	2390.0625
3024.9391	2395.6625
3027.35298	2381.4625
3029.76539	2377.0625
3032.17632	2382.8625
3034.5858	2367.9625
3036.9938	2363.1625
3039.40034	2367.3625
3041.80542	2354.4625
3044.20903	2335.3625
3046.61118	2352.4625
3049.01187	2349.6625
3051.4111	2340.8625
3053.80888	2345.3625
3056.20519	2335.0625
3058.60005	2329.0625
3060.99345	2327.7625
3063.3854	2334.0625
3065.7759	2329.0625
3068.16494	2326.8625
3070.55254	2307.2625
3072.93868	2304.2625
3075.32338	2314.7625
3077.70662	2299.4625
3080.08842	2307.2625
3082.46878	2300.3625
3084.84769	2311.6625
3087.22515	2312.7625
3089.60118	2304.3625
3091.97576	2304.7625
3094.3489	2311.3625
3096.72061	2298.9625
3099.09087	2312.2625
3101.4597	2314.2625
3103.82709	2309.1625
3106.19305	2310.2625
3108.55757	2312.9625
3110.92066	2315.2625
3113.28232	2318.1625
3115.64255	2303.9625
3118.00134	2322.0625
3120.35871	2311.9625
3122.71466	2310.0625
3125.06917	2313.1625
3127.42226	2314.4625
3129.77393	2326.3625
3132.12417	2310.2625
3134.47299	2322.9625
3136.82039	2322.0625
3139.16636	2325.5625
3141.51092	2338.4625
3143.85406	2344.9625
3146.19579	2329.1625
3148.53609	2351.0625
3150.87499	2360.5625
3153.21246	2363.3625
3155.54853	2357.7625
3157.88318	2369.8625
3160.21642	2378.2625
3162.54826	2367.5625
3164.87868	2381.9625
3167.2077	2381.0625
3169.5353	2386.0625
3171.86151	2392.6625
3174.18631	2392.5625
3176.5097	2379.4625
3178.83169	2388.8625
3181.15228	2380.4625
3183.47147	2381.6625
3185.78926	2391.9625
3188.10565	2361.6625
3190.42065	2382.3625
3192.73424	2375.3625
3195.04645	2383.0625
3197.35725	2396.2625
3199.66667	2383.1625
3201.97469	2387.8625
3204.28132	2387.3625
3206.58656	2400.4625
3208.8904	2404.4625
3211.19287	2401.7625
3213.49394	2416.3625
3215.79363	2416.1625
3218.09193	2417.5625
3220.38884	2418.7625
3222.68438	2423.2625
3224.97853	2435.0625
3227.2713	2428.7625
3229.56269	2429.4625
3231.8527	2430.6625
3234.14133	2416.0625
3236.42858	2416.6625
3238.71446	2413.7625
3240.99896	2417.6625
3243.28209	2403.9625
3245.56384	2396.3625
3247.84423	2395.7625
3250.12324	2403.0625
3252.40088	2393.4625
3254.67715	2383.6625
3256.95205	2389.4625
3259.22558	2389.3625
3261.49775	2398.7625
3263.76855	2402.5625
3266.03799	2389.5625
3268.30606	2387.6625
3270.57277	2377.8625
3272.83812	2379.6625
3275.10211	2374.6625
3277.36474	2368.6625
3279.62601	2374.1625
3281.88593	2360.4625
3284.14448	2357.8625
3286.40168	2365.4625
3288.65753	2367.0625
3290.91202	2376.4625
3293.16516	2361.2625
3295.41695	2377.4625
3297.66738	2346.9625
3299.91647	2342.9625
3302.16421	2329.9625
3304.4106	2314.8625
3306.65564	2302.5625
3308.89933	2287.8625
3311.14169	2277.7625
3313.38269	2257.6625
3315.62236	2248.7625
3317.86068	2237.0625
3320.09766	2219.8625
3322.3333	2191.6625
3324.5676	2188.7625
3326.80056	2165.1625
3329.03219	2160.7625
3331.26248	-0.0375
3333.49143	1.9625
3335.71905	0.2625
