Data from AgNPs_UA_0uM_CRN_0uM_R6G_10uM_Q_RamanShift__28__11-51-08-779.txt Node

Date: Wed Jul 13 11:51:08 BST 2022
User: TCL
Spectrometer: QEP01345
Trigger mode: 4
Integration Time (sec): 7.000000E0
Scans to average: 10
Electric dark correction enabled: true
Nonlinearity correction enabled: false
Boxcar width: 0
XAxis mode: Raman Shifts
Number of Pixels in Spectrum: 1044
>>>>>Begin Spectral Data<<<<<
46.04893	0.3625
50.45542	0.9625
54.85868	-2.1375
59.25871	-1.2375
63.6555	42.4625
68.04907	44.1625
72.43941	52.2625
76.82654	52.9625
81.21044	55.4625
85.59113	59.8625
89.96862	63.6625
94.34289	68.3625
98.71396	64.9625
103.08183	70.0625
107.4465	70.7625
111.80798	71.1625
116.16626	72.4625
120.52136	71.4625
124.87327	71.0625
129.222	75.0625
133.56755	74.4625
137.90993	79.0625
142.24913	78.5625
146.58517	84.6625
150.91804	88.9625
155.24774	99.8625
159.57429	112.3625
163.89768	135.6625
168.21792	171.0625
172.53501	221.1625
176.84895	293.2625
181.15975	394.0625
185.46741	545.0625
189.77193	728.1625
194.07331	965.0625
198.37157	1228.7625
202.6667	1507.8625
206.9587	1797.4625
211.24758	2057.5625
215.53334	2354.4625
219.81599	2688.2625
224.09553	3053.7625
228.37195	3456.6625
232.64527	3888.1625
236.91549	4325.1625
241.18261	4735.0625
245.44663	5090.6625
249.70755	5391.3625
253.96539	5655.5625
258.22014	5816.0625
262.4718	5939.8625
266.72039	5954.8625
270.96589	5959.6625
275.20832	5871.4625
279.44768	5751.6625
283.68397	5652.7625
287.91719	5598.5625
292.14735	5604.0625
296.37445	5689.4625
300.59849	5857.5625
304.81948	6060.2625
309.03742	6231.1625
313.25231	6232.6625
317.46415	5996.3625
321.67296	5609.6625
325.87872	5306.0625
330.08145	5187.3625
334.28114	5196.0625
338.47781	5287.1625
342.67145	5405.2625
346.86207	5621.1625
351.04966	5956.8625
355.23424	6291.5625
359.4158	6543.9625
363.59435	6653.6625
367.76989	6644.5625
371.94243	6608.4625
376.11196	6571.3625
380.27849	6537.9625
384.44203	6472.2625
388.60257	6401.6625
392.76012	6373.8625
396.91468	6461.4625
401.06626	6617.9625
405.21485	6705.2625
409.36047	6552.4625
413.50311	6224.1625
417.64277	5927.7625
421.77947	5776.5625
425.9132	5739.2625
430.04396	5781.3625
434.17176	5853.3625
438.2966	6000.7625
442.41849	6255.3625
446.53742	6556.9625
450.6534	6805.7625
454.76644	6887.6625
458.87653	6823.9625
462.98368	6645.4625
467.08789	6462.1625
471.18916	6234.9625
475.2875	6022.7625
479.38291	5847.7625
483.4754	5706.1625
487.56496	5584.2625
491.6516	5503.6625
495.73531	5444.2625
499.81612	5459.7625
503.89401	5530.0625
507.96899	5597.8625
512.04106	5671.8625
516.11023	5768.4625
520.1765	5821.9625
524.23987	5813.4625
528.30034	5763.1625
532.35792	5674.1625
536.41261	5537.3625
540.46441	5404.2625
544.51333	5330.5625
548.55936	5361.9625
552.60252	5507.3625
556.64279	5654.8625
560.6802	5749.1625
564.71473	5889.8625
568.7464	6124.5625
572.7752	6254.2625
576.80114	6114.0625
580.82422	5985.8625
584.84444	6007.3625
588.86181	6230.8625
592.87633	6560.4625
596.888	6888.8625
600.89682	7150.2625
604.9028	7814.9625
608.90594	9612.2625
612.90624	11456.3625
616.90371	10165.3625
620.89834	7133.8625
624.89015	5927.6625
628.87913	5704.6625
632.86528	5775.5625
636.84862	5797.0625
640.82913	5595.6625
644.80683	5319.6625
648.78172	5151.5625
652.75379	5196.9625
656.72306	5431.2625
660.68952	5643.9625
664.65319	5534.4625
668.61405	5279.8625
672.57211	5219.9625
676.52738	5170.6625
680.47986	5112.2625
684.42955	5037.5625
688.37646	5015.4625
692.32058	5058.0625
696.26192	5143.0625
700.20048	5243.7625
704.13626	5301.3625
708.06928	5246.0625
711.99952	5175.9625
715.927	5138.4625
719.85171	5158.7625
723.77365	5104.7625
727.69284	5044.0625
731.60928	5008.7625
735.52295	5021.2625
739.43388	5058.9625
743.34206	5105.2625
747.24749	5117.2625
751.15017	5154.6625
755.05012	5293.2625
758.94733	5653.1625
762.8418	6432.7625
766.73354	7601.4625
770.62254	8633.4625
774.50882	9030.4625
778.39237	8548.3625
782.27321	7361.3625
786.15132	6209.9625
790.02671	5538.6625
793.89938	5238.5625
797.76935	5097.5625
801.6366	5015.9625
805.50115	4966.7625
809.36299	4933.5625
813.22213	4885.1625
817.07857	4864.4625
820.93231	4841.4625
824.78336	4897.8625
828.63172	4938.9625
832.47738	4949.5625
836.32036	4939.9625
840.16066	4893.0625
843.99827	4874.4625
847.8332	4851.8625
851.66546	4830.4625
855.49504	4830.6625
859.32195	4823.1625
863.1462	4769.6625
866.96777	4746.4625
870.78668	4737.2625
874.60293	4761.8625
878.41652	4803.3625
882.22745	4832.8625
886.03573	4861.3625
889.84136	4852.1625
893.64433	4816.1625
897.44466	4811.3625
901.24235	4785.6625
905.0374	4771.8625
908.8298	4722.8625
912.61957	4709.9625
916.40671	4738.7625
920.19121	4806.2625
923.97308	4871.7625
927.75233	4955.1625
931.52895	5011.6625
935.30295	4890.6625
939.07433	4721.7625
942.84309	4580.7625
946.60924	4517.7625
950.37278	4466.9625
954.13371	4454.5625
957.89203	4427.3625
961.64774	4397.0625
965.40086	4381.3625
969.15137	4372.0625
972.89929	4365.8625
976.64461	4351.2625
980.38733	4352.1625
984.12747	4388.4625
987.86502	4427.5625
991.59999	4475.0625
995.33237	4575.8625
999.06217	4749.5625
1002.78939	4965.6625
1006.51404	5139.7625
1010.23611	5273.2625
1013.95561	5333.8625
1017.67255	5289.6625
1021.38692	5157.1625
1025.09872	4988.0625
1028.80796	4938.3625
1032.51465	4944.8625
1036.21877	4996.2625
1039.92035	5047.9625
1043.61937	5037.8625
1047.31584	4983.9625
1051.00976	4915.0625
1054.70114	4884.4625
1058.38998	4863.0625
1062.07627	4886.1625
1065.76003	4906.4625
1069.44126	4949.0625
1073.11995	5063.0625
1076.79611	5169.5625
1080.46974	5318.5625
1084.14085	5492.6625
1087.80943	5634.8625
1091.47549	5620.4625
1095.13903	5455.1625
1098.80005	5246.0625
1102.45857	5102.4625
1106.11456	5071.2625
1109.76805	5110.1625
1113.41903	5234.6625
1117.06751	5463.6625
1120.71348	5763.4625
1124.35696	6089.5625
1127.99793	6264.0625
1131.63641	6112.0625
1135.2724	5767.6625
1138.90589	5495.1625
1142.5369	5315.2625
1146.16542	5253.7625
1149.79145	5222.3625
1153.415	5254.0625
1157.03607	5340.8625
1160.65467	5479.5625
1164.27079	5748.4625
1167.88443	6182.4625
1171.49561	6861.7625
1175.10432	7892.4625
1178.71056	9209.0625
1182.31434	10176.2625
1185.91565	10511.2625
1189.51451	10301.2625
1193.11091	9757.7625
1196.70485	9051.9625
1200.29634	8347.2625
1203.88538	7669.0625
1207.47197	7025.7625
1211.05612	6575.3625
1214.63782	6435.2625
1218.21708	6482.6625
1221.79391	6611.6625
1225.36829	6688.9625
1228.94024	6638.7625
1232.50976	6547.1625
1236.07685	6459.2625
1239.6415	6462.2625
1243.20374	6459.1625
1246.76355	6434.4625
1250.32093	6457.3625
1253.8759	6614.5625
1257.42845	6848.6625
1260.97859	7135.4625
1264.52631	7453.8625
1268.07163	7761.8625
1271.61453	8002.7625
1275.15503	8185.3625
1278.69312	8318.3625
1282.22882	8505.9625
1285.76211	8788.9625
1289.29301	9211.9625
1292.82151	9651.4625
1296.34761	10193.3625
1299.87133	10870.3625
1303.39266	11835.0625
1306.9116	13159.4625
1310.42815	14578.9625
1313.94233	15241.4625
1317.45412	14800.4625
1320.96354	13727.8625
1324.47058	12604.8625
1327.97525	11737.3625
1331.47754	11268.3625
1334.97747	11151.1625
1338.47502	11242.9625
1341.97022	11483.7625
1345.46305	11845.7625
1348.95352	12366.3625
1352.44163	13197.2625
1355.92738	14501.9625
1359.41078	16220.7625
1362.89183	17253.7625
1366.37053	16231.9625
1369.84688	13934.9625
1373.32088	11792.0625
1376.79254	10421.4625
1380.26186	9709.5625
1383.72883	9253.3625
1387.19347	8905.6625
1390.65578	8602.2625
1394.11575	8493.4625
1397.57339	8557.6625
1401.0287	8728.4625
1404.48168	8904.4625
1407.93234	9018.6625
1411.38068	9006.3625
1414.82669	8831.8625
1418.27039	8523.8625
1421.71177	8174.3625
1425.15083	8005.4625
1428.58758	7997.9625
1432.02203	8079.3625
1435.45416	8215.4625
1438.88399	8282.6625
1442.31151	8323.8625
1445.73673	8328.9625
1449.15965	8342.3625
1452.58027	8303.2625
1455.9986	8248.6625
1459.41463	8269.4625
1462.82837	8443.6625
1466.23982	8665.7625
1469.64898	8844.4625
1473.05586	8942.7625
1476.46045	8995.3625
1479.86276	9047.1625
1483.26279	9135.6625
1486.66054	9253.9625
1490.05602	9507.7625
1493.44922	9819.0625
1496.84016	10270.6625
1500.22882	11010.3625
1503.61521	11972.2625
1506.99934	13116.5625
1510.38121	14025.4625
1513.76081	14174.5625
1517.13816	13219.2625
1520.51324	11695.8625
1523.88607	10413.1625
1527.25665	9627.3625
1530.62498	9276.6625
1533.99105	9054.9625
1537.35488	8905.1625
1540.71647	8755.4625
1544.07581	8621.6625
1547.4329	8532.2625
1550.78776	8383.7625
1554.14038	8285.0625
1557.49077	8227.6625
1560.83892	8267.4625
1564.18484	8382.2625
1567.52853	8555.4625
1570.86999	8737.4625
1574.20922	8856.5625
1577.54624	8748.0625
1580.88103	8329.1625
1584.2136	7908.7625
1587.54395	7822.8625
1590.87208	8188.3625
1594.19801	8946.5625
1597.52172	9846.1625
1600.84321	10320.6625
1604.16251	9972.1625
1607.47959	9085.1625
1610.79447	8062.5625
1614.10715	7116.8625
1617.41763	6432.9625
1620.7259	6013.5625
1624.03199	5812.2625
1627.33587	5863.0625
1630.63757	6112.4625
1633.93707	6614.7625
1637.23439	7500.6625
1640.52951	8760.3625
1643.82246	10211.7625
1647.11321	11409.3625
1650.40179	11675.7625
1653.68819	10696.4625
1656.97241	8925.1625
1660.25446	7251.3625
1663.53433	6055.8625
1666.81203	5319.5625
1670.08756	4882.8625
1673.36092	4607.7625
1676.63211	4436.3625
1679.90115	4309.3625
1683.16801	4193.5625
1686.43272	4130.4625
1689.69527	4094.3625
1692.95567	4063.3625
1696.2139	4051.3625
1699.46999	4034.3625
1702.72392	4029.7625
1705.97571	4012.7625
1709.22535	3987.8625
1712.47284	3982.6625
1715.71819	3966.3625
1718.96139	3982.6625
1722.20246	3960.9625
1725.44139	3936.6625
1728.67818	3906.0625
1731.91284	3859.4625
1735.14537	3836.7625
1738.37576	3790.7625
1741.60403	3777.1625
1744.83017	3772.7625
1748.05418	3736.5625
1751.27607	3737.9625
1754.49584	3725.3625
1757.71349	3729.1625
1760.92903	3720.1625
1764.14244	3709.2625
1767.35375	3695.0625
1770.56294	3700.6625
1773.77002	3687.6625
1776.97499	3672.0625
1780.17785	3647.0625
1783.37861	3642.4625
1786.57727	3621.5625
1789.77382	3616.9625
1792.96828	3611.8625
1796.16064	3615.6625
1799.3509	3596.9625
1802.53907	3588.1625
1805.72514	3594.3625
1808.90913	3574.3625
1812.09102	3561.5625
1815.27083	3547.9625
1818.44856	3531.5625
1821.6242	3524.9625
1824.79776	3514.0625
1827.96924	3518.2625
1831.13864	3506.4625
1834.30597	3499.1625
1837.47122	3489.0625
1840.6344	3485.4625
1843.7955	3494.6625
1846.95454	3492.4625
1850.11151	3475.7625
1853.26642	3487.7625
1856.41926	3472.0625
1859.57004	3468.9625
1862.71876	3488.0625
1865.86542	3486.6625
1869.01003	3493.3625
1872.15258	3501.6625
1875.29308	3496.3625
1878.43152	3492.0625
1881.56792	3498.8625
1884.70227	3494.7625
1887.83457	3495.9625
1890.96482	3500.3625
1894.09304	3496.5625
1897.21921	3500.4625
1900.34335	3492.9625
1903.46544	3490.7625
1906.58551	3497.3625
1909.70353	3505.3625
1912.81953	3496.7625
1915.93349	3503.7625
1919.04543	3492.8625
1922.15534	3496.2625
1925.26322	3468.8625
1928.36908	3455.3625
1931.47292	3447.8625
1934.57473	3422.5625
1937.67453	3392.2625
1940.77232	3383.8625
1943.86808	3372.1625
1946.96184	3361.1625
1950.05358	3346.1625
1953.14331	3341.6625
1956.23103	3329.1625
1959.31675	3314.8625
1962.40046	3310.1625
1965.48217	3301.2625
1968.56188	3290.8625
1971.63959	3281.0625
1974.7153	3271.9625
1977.78901	3251.2625
1980.86073	3252.8625
1983.93046	3231.4625
1986.99819	3215.5625
1990.06394	3211.0625
1993.1277	3189.2625
1996.18947	3183.1625
1999.24925	3179.1625
2002.30706	3173.1625
2005.36288	3136.1625
2008.41672	3163.8625
2011.46859	3155.8625
2014.51848	3137.0625
2017.56639	3150.0625
2020.61233	3117.8625
2023.6563	3101.7625
2026.6983	3097.1625
2029.73833	3092.6625
2032.7764	3075.0625
2035.8125	3089.8625
2038.84664	3081.9625
2041.87881	3077.9625
2044.90903	3071.8625
2047.93729	3066.1625
2050.96359	3056.0625
2053.98794	3059.0625
2057.01034	3065.6625
2060.03078	3048.1625
2063.04927	3051.6625
2066.06582	3045.9625
2069.08042	3035.3625
2072.09307	3034.0625
2075.10378	3017.4625
2078.11255	3034.4625
2081.11938	3035.5625
2084.12426	3015.1625
2087.12722	3028.8625
2090.12824	3023.5625
2093.12732	3018.5625
2096.12447	3024.5625
2099.11969	3024.8625
2102.11299	3028.5625
2105.10435	3023.0625
2108.09379	3021.1625
2111.08131	3026.8625
2114.0669	3032.8625
2117.05057	3032.6625
2120.03233	3032.0625
2123.01216	3043.7625
2125.99008	3035.9625
2128.96609	3044.4625
2131.94018	3034.5625
2134.91236	3059.5625
2137.88263	3043.3625
2140.851	3055.8625
2143.81746	3051.4625
2146.78201	3036.7625
2149.74466	3047.6625
2152.7054	3028.6625
2155.66425	3036.9625
2158.6212	3030.9625
2161.57625	3029.8625
2164.52941	3030.0625
2167.48067	3041.1625
2170.43004	3028.3625
2173.37752	3024.4625
2176.32311	3027.5625
2179.26681	3039.3625
2182.20863	3029.9625
2185.14856	3039.0625
2188.08661	3037.6625
2191.02278	3023.2625
2193.95707	3031.5625
2196.88948	3035.1625
2199.82001	3017.7625
2202.74867	3022.9625
2205.67545	3023.6625
2208.60037	3017.3625
2211.52341	2996.3625
2214.44458	3016.1625
2217.36388	2990.0625
2220.28132	2991.9625
2223.1969	2982.6625
2226.11061	2987.2625
2229.02246	2976.0625
2231.93245	2963.9625
2234.84058	2967.5625
2237.74686	2971.6625
2240.65128	2981.9625
2243.55385	2956.0625
2246.45456	2970.2625
2249.35343	2952.4625
2252.25044	2949.1625
2255.14561	2954.6625
2258.03893	2952.4625
2260.93041	2956.5625
2263.82004	2950.4625
2266.70783	2939.5625
2269.59378	2924.5625
2272.4779	2929.7625
2275.36017	2920.4625
2278.24061	2912.4625
2281.11922	2904.7625
2283.996	2894.7625
2286.87094	2895.3625
2289.74405	2883.8625
2292.61534	2872.7625
2295.4848	2877.8625
2298.35243	2881.8625
2301.21824	2872.7625
2304.08223	2874.5625
2306.94439	2877.0625
2309.80474	2870.0625
2312.66327	2891.8625
2315.51999	2888.6625
2318.37489	2871.9625
2321.22797	2875.0625
2324.07925	2857.2625
2326.92871	2854.9625
2329.77637	2881.3625
2332.62222	2862.8625
2335.46626	2849.8625
2338.3085	2858.0625
2341.14893	2862.0625
2343.98756	2862.1625
2346.8244	2860.5625
2349.65943	2864.1625
2352.49267	2858.3625
2355.32411	2865.6625
2358.15376	2874.9625
2360.98161	2876.8625
2363.80768	2874.4625
2366.63195	2887.5625
2369.45444	2873.7625
2372.27514	2891.8625
2375.09405	2887.9625
2377.91118	2861.9625
2380.72652	2855.3625
2383.54009	2857.8625
2386.35187	2848.6625
2389.16188	2837.5625
2391.97011	2832.6625
2394.77657	2816.7625
2397.58125	2810.0625
2400.38416	2813.0625
2403.18529	2797.4625
2405.98466	2812.3625
2408.78226	2799.1625
2411.57809	2791.4625
2414.37216	2784.8625
2417.16446	2782.2625
2419.955	2791.3625
2422.74378	2784.6625
2425.5308	2776.5625
2428.31606	2784.1625
2431.09956	2785.5625
2433.88131	2781.1625
2436.6613	2788.3625
2439.43954	2785.2625
2442.21603	2782.9625
2444.99077	2790.0625
2447.76377	2801.3625
2450.53501	2797.5625
2453.30451	2795.9625
2456.07226	2788.6625
2458.83827	2796.4625
2461.60254	2791.5625
2464.36507	2783.6625
2467.12586	2784.8625
2469.88492	2794.3625
2472.64224	2802.1625
2475.39782	2802.8625
2478.15167	2806.0625
2480.90379	2809.7625
2483.65417	2824.8625
2486.40283	2814.2625
2489.14976	2827.9625
2491.89497	2828.4625
2494.63845	2823.1625
2497.3802	2829.4625
2500.12024	2835.9625
2502.85855	2839.8625
2505.59514	2816.6625
2508.33002	2820.0625
2511.06318	2809.7625
2513.79462	2797.1625
2516.52435	2782.0625
2519.25237	2783.9625
2521.97867	2781.8625
2524.70327	2774.5625
2527.42616	2783.2625
2530.14734	2786.2625
2532.86681	2769.4625
2535.58458	2768.6625
2538.30065	2777.0625
2541.01501	2781.1625
2543.72768	2775.6625
2546.43864	2778.4625
2549.14791	2773.7625
2551.85548	2774.4625
2554.56136	2774.9625
2557.26554	2785.0625
2559.96803	2783.5625
2562.66883	2775.3625
2565.36794	2769.6625
2568.06536	2766.6625
2570.7611	2765.5625
2573.45514	2775.0625
2576.14751	2751.7625
2578.83819	2755.8625
2581.52719	2759.1625
2584.21451	2754.7625
2586.90015	2760.6625
2589.58411	2762.8625
2592.2664	2763.1625
2594.94701	2760.6625
2597.62594	2762.3625
2600.30321	2749.8625
2602.9788	2760.6625
2605.65273	2752.9625
2608.32498	2753.4625
2610.99557	2743.9625
2613.66449	2766.9625
2616.33175	2751.2625
2618.99734	2761.9625
2621.66128	2769.0625
2624.32355	2763.3625
2626.98416	2746.3625
2629.64311	2760.8625
2632.30041	2759.5625
2634.95605	2751.9625
2637.61004	2759.9625
2640.26238	2749.1625
2642.91306	2743.0625
2645.56209	2755.7625
2648.20948	2735.5625
2650.85521	2738.8625
2653.4993	2741.6625
2656.14175	2748.6625
2658.78255	2747.1625
2661.42171	2763.0625
2664.05923	2763.5625
2666.6951	2769.2625
2669.32934	2767.1625
2671.96194	2764.1625
2674.59291	2764.8625
2677.22224	2762.0625
2679.84993	2770.3625
2682.476	2784.7625
2685.10043	2777.1625
2687.72324	2765.5625
2690.34441	2777.3625
2692.96396	2766.8625
2695.58188	2775.4625
2698.19818	2766.6625
2700.81285	2771.5625
2703.4259	2781.4625
2706.03733	2774.9625
2708.64714	2789.7625
2711.25533	2794.2625
2713.86191	2787.2625
2716.46687	2817.9625
2719.07021	2814.2625
2721.67194	2820.4625
2724.27206	2820.3625
2726.87057	2820.2625
2729.46747	2810.2625
2732.06276	2817.1625
2734.65644	2810.6625
2737.24852	2812.8625
2739.83899	2801.3625
2742.42786	2810.4625
2745.01513	2809.4625
2747.60079	2804.7625
2750.18486	2810.0625
2752.76733	2798.1625
2755.3482	2789.7625
2757.92747	2789.0625
2760.50515	2781.3625
2763.08123	2791.1625
2765.65573	2781.9625
2768.22863	2779.3625
2770.79994	2782.6625
2773.36967	2789.9625
2775.9378	2801.1625
2778.50435	2798.3625
2781.06932	2800.0625
2783.6327	2801.7625
2786.1945	2796.5625
2788.75471	2797.7625
2791.31335	2801.0625
2793.87041	2803.9625
2796.42589	2797.7625
2798.97979	2810.1625
2801.53212	2795.7625
2804.08288	2799.9625
2806.63206	2779.8625
2809.17967	2788.1625
2811.72571	2791.3625
2814.27018	2791.2625
2816.81308	2795.5625
2819.35442	2790.1625
2821.89419	2775.9625
2824.43239	2807.9625
2826.96904	2813.4625
2829.50412	2805.3625
2832.03763	2801.5625
2834.56959	2814.8625
2837.1	2815.4625
2839.62884	2830.2625
2842.15613	2842.7625
2844.68186	2866.3625
2847.20604	2908.9625
2849.72867	2941.6625
2852.24974	2938.1625
2854.76927	2948.7625
2857.28724	2938.5625
2859.80367	2935.4625
2862.31855	2929.9625
2864.83189	2910.9625
2867.34368	2922.4625
2869.85393	2918.1625
2872.36264	2905.5625
2874.8698	2906.1625
2877.37543	2899.2625
2879.87952	2895.6625
2882.38207	2895.2625
2884.88308	2890.2625
2887.38256	2895.2625
2889.88051	2906.4625
2892.37692	2885.6625
2894.8718	2892.2625
2897.36515	2904.9625
2899.85698	2910.0625
2902.34727	2910.3625
2904.83604	2917.3625
2907.32328	2919.5625
2909.809	2917.9625
2912.29319	2925.7625
2914.77587	2918.7625
2917.25702	2917.5625
2919.73665	2914.1625
2922.21476	2899.0625
2924.69136	2908.6625
2927.16644	2891.1625
2929.64	2893.4625
2932.11205	2872.0625
2934.58258	2867.2625
2937.05161	2872.2625
2939.51912	2852.9625
2941.98513	2848.8625
2944.44962	2816.8625
2946.91261	2796.0625
2949.37409	2770.4625
2951.83407	2778.4625
2954.29254	2771.1625
2956.74951	2745.4625
2959.20498	2743.8625
2961.65895	2735.3625
2964.11142	2740.2625
2966.56239	2724.8625
2969.01186	2730.3625
2971.45984	2712.8625
2973.90632	2698.9625
2976.35131	2708.2625
2978.7948	2684.0625
2981.23681	2684.3625
2983.67732	2676.3625
2986.11635	2661.0625
2988.55388	2659.7625
2990.98993	2653.8625
2993.4245	2643.7625
2995.85758	2614.3625
2998.28917	2618.3625
3000.71928	2620.0625
3003.14791	2611.5625
3005.57506	2607.3625
3008.00073	2605.9625
3010.42493	2601.5625
3012.84764	2596.4625
3015.26888	2587.6625
3017.68865	2580.1625
3020.10694	2578.3625
3022.52376	2572.2625
3024.9391	2579.7625
3027.35298	2566.4625
3029.76539	2576.0625
3032.17632	2578.2625
3034.5858	2573.2625
3036.9938	2564.1625
3039.40034	2558.3625
3041.80542	2566.7625
3044.20903	2566.8625
3046.61118	2558.4625
3049.01187	2546.1625
3051.4111	2547.9625
3053.80888	2552.5625
3056.20519	2546.8625
3058.60005	2540.3625
3060.99345	2531.6625
3063.3854	2522.7625
3065.7759	2530.3625
3068.16494	2522.8625
3070.55254	2509.6625
3072.93868	2510.8625
3075.32338	2505.0625
3077.70662	2497.8625
3080.08842	2494.7625
3082.46878	2490.0625
3084.84769	2471.7625
3087.22515	2484.4625
3089.60118	2485.7625
3091.97576	2468.8625
3094.3489	2478.5625
3096.72061	2482.9625
3099.09087	2493.1625
3101.4597	2490.3625
3103.82709	2483.5625
3106.19305	2483.4625
3108.55757	2482.7625
3110.92066	2482.2625
3113.28232	2475.6625
3115.64255	2476.9625
3118.00134	2482.0625
3120.35871	2482.0625
3122.71466	2468.6625
3125.06917	2474.0625
3127.42226	2462.4625
3129.77393	2484.5625
3132.12417	2476.3625
3134.47299	2461.0625
3136.82039	2468.3625
3139.16636	2482.8625
3141.51092	2474.7625
3143.85406	2488.7625
3146.19579	2503.6625
3148.53609	2504.0625
3150.87499	2509.4625
3153.21246	2508.3625
3155.54853	2509.6625
3157.88318	2501.4625
3160.21642	2525.0625
3162.54826	2525.2625
3164.87868	2526.0625
3167.2077	2538.3625
3169.5353	2536.9625
3171.86151	2535.9625
3174.18631	2540.0625
3176.5097	2545.6625
3178.83169	2546.8625
3181.15228	2548.3625
3183.47147	2544.1625
3185.78926	2555.6625
3188.10565	2550.9625
3190.42065	2537.2625
3192.73424	2549.3625
3195.04645	2557.7625
3197.35725	2564.9625
3199.66667	2562.0625
3201.97469	2568.5625
3204.28132	2569.4625
3206.58656	2563.9625
3208.8904	2569.6625
3211.19287	2574.9625
3213.49394	2579.3625
3215.79363	2584.5625
3218.09193	2590.4625
3220.38884	2585.3625
3222.68438	2599.0625
3224.97853	2598.0625
3227.2713	2601.4625
3229.56269	2594.0625
3231.8527	2603.2625
3234.14133	2592.5625
3236.42858	2593.6625
3238.71446	2593.1625
3240.99896	2567.9625
3243.28209	2581.3625
3245.56384	2577.0625
3247.84423	2579.7625
3250.12324	2571.0625
3252.40088	2572.7625
3254.67715	2568.0625
3256.95205	2568.2625
3259.22558	2575.6625
3261.49775	2561.2625
3263.76855	2558.0625
3266.03799	2577.5625
3268.30606	2570.5625
3270.57277	2562.1625
3272.83812	2559.1625
3275.10211	2549.4625
3277.36474	2550.0625
3279.62601	2528.0625
3281.88593	2538.2625
3284.14448	2530.2625
3286.40168	2527.9625
3288.65753	2531.8625
3290.91202	2538.1625
3293.16516	2528.3625
3295.41695	2523.2625
3297.66738	2526.7625
3299.91647	2503.1625
3302.16421	2486.1625
3304.4106	2473.2625
3306.65564	2468.8625
3308.89933	2448.3625
3311.14169	2421.3625
3313.38269	2412.5625
3315.62236	2408.7625
3317.86068	2381.2625
3320.09766	2359.2625
3322.3333	2336.2625
3324.5676	2329.3625
3326.80056	2298.1625
3329.03219	2294.6625
3331.26248	0.1625
3333.49143	1.5625
3335.71905	1.3625
