Data from AgNPs_UA_10uM_CRN_0uM_R6G_10uM_Q_RamanShift__2__11-51-02-624.txt Node

Date: Mon Jul 18 11:51:02 BST 2022
User: TCL
Spectrometer: QEP01345
Trigger mode: 4
Integration Time (sec): 7.000000E0
Scans to average: 10
Electric dark correction enabled: true
Nonlinearity correction enabled: false
Boxcar width: 0
XAxis mode: Raman Shifts
Number of Pixels in Spectrum: 1044
>>>>>Begin Spectral Data<<<<<
46.04893	-0.4375
50.45542	-0.2375
54.85868	-1.9375
59.25871	-0.7375
63.6555	107.5625
68.04907	107.2625
72.43941	118.7625
76.82654	123.8625
81.21044	124.0625
85.59113	130.1625
89.96862	133.4625
94.34289	139.6625
98.71396	145.0625
103.08183	146.4625
107.4465	154.5625
111.80798	153.5625
116.16626	159.4625
120.52136	168.9625
124.87327	179.4625
129.222	184.2625
133.56755	202.4625
137.90993	213.7625
142.24913	232.2625
146.58517	259.1625
150.91804	305.2625
155.24774	364.8625
159.57429	455.4625
163.89768	584.5625
168.21792	778.5625
172.53501	1067.0625
176.84895	1483.2625
181.15975	2103.6625
185.46741	2952.7625
189.77193	4085.0625
194.07331	5489.6625
198.37157	7066.1625
202.6667	8740.7625
206.9587	10412.5625
211.24758	12097.8625
215.53334	13775.9625
219.81599	15625.6625
224.09553	17713.3625
228.37195	19971.7625
232.64527	22402.1625
236.91549	24714.9625
241.18261	26855.2625
245.44663	28609.0625
249.70755	30182.3625
253.96539	31535.3625
258.22014	32708.1625
262.4718	33654.2625
266.72039	34355.0625
270.96589	34706.9625
275.20832	34630.2625
279.44768	34239.5625
283.68397	33816.5625
287.91719	33537.3625
292.14735	33597.0625
296.37445	34113.9625
300.59849	34981.6625
304.81948	36150.8625
309.03742	36979.6625
313.25231	37253.8625
317.46415	36344.7625
321.67296	34608.1625
325.87872	32977.1625
330.08145	32214.5625
334.28114	32143.3625
338.47781	32577.3625
342.67145	33245.7625
346.86207	34220.2625
351.04966	35567.5625
355.23424	36889.2625
359.4158	37790.5625
363.59435	38110.0625
367.76989	38083.3625
371.94243	37814.3625
376.11196	37517.0625
380.27849	37306.9625
384.44203	37135.9625
388.60257	37109.7625
392.76012	37257.5625
396.91468	37787.1625
401.06626	38510.5625
405.21485	38879.8625
409.36047	38242.3625
413.50311	36959.1625
417.64277	35845.2625
421.77947	35307.8625
425.9132	35121.9625
430.04396	35054.9625
434.17176	35172.4625
438.2966	35430.0625
442.41849	35999.7625
446.53742	36792.4625
450.6534	37526.7625
454.76644	38055.1625
458.87653	38115.9625
462.98368	37951.6625
467.08789	37633.3625
471.18916	37164.1625
475.2875	36568.8625
479.38291	36007.5625
483.4754	35592.8625
487.56496	35316.8625
491.6516	35139.8625
495.73531	35134.0625
499.81612	35221.6625
503.89401	35490.7625
507.96899	35661.9625
512.04106	35768.4625
516.11023	35946.8625
520.1765	35987.7625
524.23987	35890.2625
528.30034	35651.7625
532.35792	35364.4625
536.41261	34911.5625
540.46441	34496.0625
544.51333	34376.1625
548.55936	34728.1625
552.60252	35483.5625
556.64279	36270.7625
560.6802	36742.1625
564.71473	37305.7625
568.7464	38225.6625
572.7752	38716.5625
576.80114	38399.9625
580.82422	38345.0625
584.84444	38768.9625
588.86181	39222.8625
592.87633	39388.0625
596.888	39699.0625
600.89682	40451.5625
604.9028	43773.3625
608.90594	52099.4625
612.90624	60306.1625
616.90371	54936.3625
620.89834	41971.6625
624.89015	36656.1625
628.87913	36011.6625
632.86528	36645.9625
636.84862	37064.7625
640.82913	36315.8625
644.80683	34968.1625
648.78172	34135.2625
652.75379	34290.5625
656.72306	35381.9625
660.68952	36450.5625
664.65319	36000.1625
668.61405	34941.5625
672.57211	34738.9625
676.52738	34764.1625
680.47986	34559.9625
684.42955	34115.6625
688.37646	33920.0625
692.32058	34171.2625
696.26192	34674.7625
700.20048	35160.8625
704.13626	35410.2625
708.06928	35249.2625
711.99952	34993.3625
715.927	34968.8625
719.85171	35082.1625
723.77365	35054.5625
727.69284	34582.5625
731.60928	34241.2625
735.52295	34161.2625
739.43388	34242.4625
743.34206	34374.1625
747.24749	34465.2625
751.15017	34672.0625
755.05012	35291.4625
758.94733	36874.5625
762.8418	40421.8625
766.73354	45769.5625
770.62254	49944.3625
774.50882	50306.0625
778.39237	47532.4625
782.27321	43257.4625
786.15132	39068.5625
790.02671	36419.8625
793.89938	35108.3625
797.76935	34492.5625
801.6366	34261.7625
805.50115	34094.2625
809.36299	33882.6625
813.22213	33731.8625
817.07857	33665.2625
820.93231	33665.8625
824.78336	33716.9625
828.63172	33797.4625
832.47738	33788.0625
836.32036	33692.9625
840.16066	33681.0625
843.99827	33648.0625
847.8332	33551.5625
851.66546	33578.9625
855.49504	33589.0625
859.32195	33556.9625
863.1462	33464.1625
866.96777	33502.8625
870.78668	33486.5625
874.60293	33510.5625
878.41652	33616.6625
882.22745	33903.3625
886.03573	34032.9625
889.84136	33938.9625
893.64433	33785.1625
897.44466	33676.0625
901.24235	33610.4625
905.0374	33500.1625
908.8298	33377.5625
912.61957	33286.5625
916.40671	33387.9625
920.19121	33700.2625
923.97308	34112.0625
927.75233	34489.4625
931.52895	34650.2625
935.30295	34201.8625
939.07433	33397.0625
942.84309	32790.5625
946.60924	32462.9625
950.37278	32374.1625
954.13371	32337.7625
957.89203	32265.2625
961.64774	32326.9625
965.40086	32368.5625
969.15137	32384.8625
972.89929	32339.0625
976.64461	32373.8625
980.38733	32395.1625
984.12747	32421.7625
987.86502	32625.8625
991.59999	32752.5625
995.33237	32959.7625
999.06217	33383.5625
1002.78939	33966.4625
1006.51404	34508.6625
1010.23611	35050.7625
1013.95561	35217.7625
1017.67255	35163.0625
1021.38692	34885.5625
1025.09872	34448.4625
1028.80796	34219.5625
1032.51465	34336.5625
1036.21877	34661.6625
1039.92035	34871.4625
1043.61937	34890.4625
1047.31584	34791.1625
1051.00976	34750.8625
1054.70114	34727.0625
1058.38998	34802.4625
1062.07627	34931.5625
1065.76003	35266.4625
1069.44126	35723.6625
1073.11995	36465.4625
1076.79611	37124.4625
1080.46974	37704.5625
1084.14085	38230.1625
1087.80943	38903.1625
1091.47549	39117.4625
1095.13903	38751.1625
1098.80005	38041.6625
1102.45857	37325.4625
1106.11456	36765.5625
1109.76805	36491.5625
1113.41903	36648.9625
1117.06751	37235.6625
1120.71348	38176.5625
1124.35696	39299.5625
1127.99793	40248.1625
1131.63641	39878.5625
1135.2724	38628.2625
1138.90589	37637.2625
1142.5369	37110.5625
1146.16542	36827.0625
1149.79145	36685.1625
1153.415	36692.1625
1157.03607	36949.6625
1160.65467	37578.6625
1164.27079	38741.8625
1167.88443	40359.0625
1171.49561	42875.5625
1175.10432	46488.6625
1178.71056	51103.5625
1182.31434	54836.0625
1185.91565	55953.1625
1189.51451	55019.1625
1193.11091	52923.7625
1196.70485	50378.7625
1200.29634	48338.2625
1203.88538	46369.4625
1207.47197	44347.0625
1211.05612	42551.2625
1214.63782	41398.6625
1218.21708	40571.5625
1221.79391	40138.2625
1225.36829	39933.0625
1228.94024	39731.0625
1232.50976	39524.6625
1236.07685	39375.2625
1239.6415	39358.3625
1243.20374	39361.5625
1246.76355	39725.6625
1250.32093	40186.8625
1253.8759	40883.0625
1257.42845	41924.1625
1260.97859	43185.2625
1264.52631	44428.6625
1268.07163	45673.6625
1271.61453	46745.7625
1275.15503	47560.4625
1278.69312	48243.9625
1282.22882	48785.9625
1285.76211	49818.5625
1289.29301	51325.3625
1292.82151	52958.0625
1296.34761	54524.0625
1299.87133	56897.3625
1303.39266	60468.3625
1306.9116	65775.2625
1310.42815	71410.3625
1313.94233	73802.6625
1317.45412	71539.8625
1320.96354	67468.2625
1324.47058	63949.4625
1327.97525	61192.8625
1331.47754	59322.9625
1334.97747	58449.1625
1338.47502	58360.0625
1341.97022	59077.7625
1345.46305	60701.2625
1348.95352	63186.4625
1352.44163	66084.5625
1355.92738	70007.6625
1359.41078	76116.3625
1362.89183	82214.5625
1366.37053	79951.7625
1369.84688	69473.8625
1373.32088	59235.2625
1376.79254	53105.9625
1380.26186	50122.8625
1383.72883	48539.4625
1387.19347	47230.2625
1390.65578	45864.8625
1394.11575	44756.2625
1397.57339	44211.0625
1401.0287	43896.0625
1404.48168	43609.9625
1407.93234	43393.5625
1411.38068	43315.9625
1414.82669	43095.5625
1418.27039	42770.0625
1421.71177	42142.0625
1425.15083	41497.4625
1428.58758	41148.9625
1432.02203	41522.5625
1435.45416	42225.0625
1438.88399	42626.0625
1442.31151	42801.6625
1445.73673	42891.7625
1449.15965	43082.7625
1452.58027	43125.5625
1455.9986	43020.8625
1459.41463	43103.9625
1462.82837	43569.7625
1466.23982	44396.8625
1469.64898	45253.6625
1473.05586	45968.1625
1476.46045	46359.1625
1479.86276	46788.8625
1483.26279	47322.0625
1486.66054	48315.6625
1490.05602	49729.4625
1493.44922	51932.9625
1496.84016	55275.0625
1500.22882	60173.5625
1503.61521	66833.1625
1506.99934	74212.0625
1510.38121	79871.5625
1513.76081	80480.3625
1517.13816	74955.7625
1520.51324	66554.3625
1523.88607	59361.2625
1527.25665	54738.6625
1530.62498	52228.4625
1533.99105	50598.4625
1537.35488	49337.6625
1540.71647	48211.7625
1544.07581	47271.5625
1547.4329	46503.8625
1550.78776	45944.8625
1554.14038	45772.1625
1557.49077	45980.1625
1560.83892	46616.2625
1564.18484	47815.0625
1567.52853	49242.6625
1570.86999	50308.8625
1574.20922	50942.8625
1577.54624	50561.9625
1580.88103	48687.1625
1584.2136	46459.3625
1587.54395	45418.3625
1590.87208	46050.5625
1594.19801	47869.8625
1597.52172	50120.9625
1600.84321	50738.6625
1604.16251	49345.9625
1607.47959	47197.9625
1610.79447	44713.3625
1614.10715	42099.5625
1617.41763	39841.8625
1620.7259	38254.0625
1624.03199	37462.7625
1627.33587	37428.9625
1630.63757	38157.6625
1633.93707	39724.1625
1637.23439	42591.0625
1640.52951	47128.6625
1643.82246	53369.4625
1647.11321	59902.8625
1650.40179	63679.8625
1653.68819	61327.6625
1656.97241	53896.2625
1660.25446	45987.9625
1663.53433	40176.1625
1666.81203	36604.3625
1670.08756	34415.0625
1673.36092	33120.8625
1676.63211	32280.6625
1679.90115	31719.1625
1683.16801	31246.3625
1686.43272	30958.1625
1689.69527	30676.3625
1692.95567	30483.4625
1696.2139	30347.7625
1699.46999	30236.9625
1702.72392	30168.9625
1705.97571	30139.0625
1709.22535	30141.6625
1712.47284	30097.9625
1715.71819	30099.4625
1718.96139	30041.1625
1722.20246	29935.6625
1725.44139	29825.2625
1728.67818	29656.5625
1731.91284	29450.9625
1735.14537	29291.4625
1738.37576	29169.5625
1741.60403	29158.9625
1744.83017	29097.3625
1748.05418	28986.2625
1751.27607	28922.8625
1754.49584	28866.1625
1757.71349	28816.9625
1760.92903	28779.7625
1764.14244	28739.4625
1767.35375	28692.1625
1770.56294	28604.0625
1773.77002	28538.8625
1776.97499	28547.7625
1780.17785	28506.4625
1783.37861	28375.2625
1786.57727	28352.2625
1789.77382	28328.6625
1792.96828	28287.9625
1796.16064	28214.6625
1799.3509	28124.4625
1802.53907	28079.5625
1805.72514	28005.3625
1808.90913	27907.9625
1812.09102	27870.4625
1815.27083	27767.3625
1818.44856	27756.1625
1821.6242	27716.5625
1824.79776	27672.5625
1827.96924	27636.0625
1831.13864	27606.3625
1834.30597	27495.9625
1837.47122	27515.1625
1840.6344	27489.0625
1843.7955	27486.4625
1846.95454	27444.6625
1850.11151	27448.1625
1853.26642	27416.0625
1856.41926	27382.0625
1859.57004	27406.5625
1862.71876	27362.7625
1865.86542	27305.4625
1869.01003	27352.6625
1872.15258	27329.3625
1875.29308	27312.0625
1878.43152	27201.6625
1881.56792	27182.4625
1884.70227	27180.1625
1887.83457	27124.3625
1890.96482	27086.0625
1894.09304	27034.1625
1897.21921	27046.3625
1900.34335	27053.8625
1903.46544	26931.1625
1906.58551	26935.7625
1909.70353	26894.8625
1912.81953	26913.4625
1915.93349	26868.8625
1919.04543	26816.9625
1922.15534	26782.5625
1925.26322	26722.4625
1928.36908	26707.7625
1931.47292	26583.3625
1934.57473	26499.4625
1937.67453	26409.3625
1940.77232	26363.9625
1943.86808	26278.7625
1946.96184	26236.0625
1950.05358	26199.9625
1953.14331	26064.9625
1956.23103	26044.2625
1959.31675	25958.7625
1962.40046	25907.1625
1965.48217	25865.5625
1968.56188	25816.3625
1971.63959	25715.3625
1974.7153	25678.6625
1977.78901	25623.1625
1980.86073	25449.4625
1983.93046	25378.3625
1986.99819	25374.4625
1990.06394	25244.0625
1993.1277	25170.7625
1996.18947	25095.4625
1999.24925	25022.0625
2002.30706	25000.5625
2005.36288	24950.5625
2008.41672	24891.9625
2011.46859	24790.4625
2014.51848	24731.8625
2017.56639	24678.8625
2020.61233	24620.7625
2023.6563	24514.6625
2026.6983	24412.5625
2029.73833	24320.7625
2032.7764	24292.9625
2035.8125	24282.9625
2038.84664	24251.8625
2041.87881	24191.7625
2044.90903	24124.0625
2047.93729	24109.0625
2050.96359	24033.3625
2053.98794	24021.3625
2057.01034	24019.4625
2060.03078	23938.5625
2063.04927	23971.8625
2066.06582	23935.3625
2069.08042	23887.4625
2072.09307	23893.2625
2075.10378	23825.6625
2078.11255	23865.9625
2081.11938	23854.7625
2084.12426	23844.3625
2087.12722	23872.3625
2090.12824	23828.4625
2093.12732	23830.3625
2096.12447	23845.2625
2099.11969	23883.8625
2102.11299	23907.9625
2105.10435	23865.4625
2108.09379	23872.5625
2111.08131	23937.5625
2114.0669	23893.5625
2117.05057	23922.7625
2120.03233	23959.2625
2123.01216	24018.0625
2125.99008	24035.2625
2128.96609	24055.0625
2131.94018	24093.2625
2134.91236	24143.2625
2137.88263	24109.1625
2140.851	24130.3625
2143.81746	24089.2625
2146.78201	24136.5625
2149.74466	24160.3625
2152.7054	24132.3625
2155.66425	24063.1625
2158.6212	24125.0625
2161.57625	24038.1625
2164.52941	24041.4625
2167.48067	24015.5625
2170.43004	24031.5625
2173.37752	23993.6625
2176.32311	24010.6625
2179.26681	24007.4625
2182.20863	24052.2625
2185.14856	24047.1625
2188.08661	23978.9625
2191.02278	24005.0625
2193.95707	24025.3625
2196.88948	23988.3625
2199.82001	23988.5625
2202.74867	23948.9625
2205.67545	23854.0625
2208.60037	23801.5625
2211.52341	23786.5625
2214.44458	23777.8625
2217.36388	23799.0625
2220.28132	23727.9625
2223.1969	23646.4625
2226.11061	23588.0625
2229.02246	23522.6625
2231.93245	23519.5625
2234.84058	23488.3625
2237.74686	23438.8625
2240.65128	23414.6625
2243.55385	23395.0625
2246.45456	23352.3625
2249.35343	23343.3625
2252.25044	23342.3625
2255.14561	23342.3625
2258.03893	23324.3625
2260.93041	23267.0625
2263.82004	23233.6625
2266.70783	23197.9625
2269.59378	23154.8625
2272.4779	23115.9625
2275.36017	23035.4625
2278.24061	23070.7625
2281.11922	22991.5625
2283.996	22899.9625
2286.87094	22892.6625
2289.74405	22837.5625
2292.61534	22827.9625
2295.4848	22794.7625
2298.35243	22806.4625
2301.21824	22751.2625
2304.08223	22754.1625
2306.94439	22762.2625
2309.80474	22739.7625
2312.66327	22685.8625
2315.51999	22686.5625
2318.37489	22702.9625
2321.22797	22637.9625
2324.07925	22651.1625
2326.92871	22565.8625
2329.77637	22585.7625
2332.62222	22538.9625
2335.46626	22529.5625
2338.3085	22540.2625
2341.14893	22504.2625
2343.98756	22500.2625
2346.8244	22483.8625
2349.65943	22571.3625
2352.49267	22498.3625
2355.32411	22535.6625
2358.15376	22508.9625
2360.98161	22535.2625
2363.80768	22531.9625
2366.63195	22548.6625
2369.45444	22529.9625
2372.27514	22480.5625
2375.09405	22458.0625
2377.91118	22384.1625
2380.72652	22322.4625
2383.54009	22252.1625
2386.35187	22240.8625
2389.16188	22163.1625
2391.97011	22138.4625
2394.77657	22086.8625
2397.58125	21984.7625
2400.38416	22000.5625
2403.18529	22000.8625
2405.98466	21982.0625
2408.78226	21951.8625
2411.57809	21927.7625
2414.37216	21905.8625
2417.16446	21925.3625
2419.955	21881.9625
2422.74378	21879.1625
2425.5308	21798.3625
2428.31606	21781.8625
2431.09956	21792.4625
2433.88131	21774.9625
2436.6613	21803.5625
2439.43954	21789.0625
2442.21603	21760.9625
2444.99077	21734.1625
2447.76377	21743.5625
2450.53501	21680.4625
2453.30451	21685.1625
2456.07226	21661.1625
2458.83827	21673.0625
2461.60254	21650.8625
2464.36507	21692.2625
2467.12586	21613.8625
2469.88492	21580.3625
2472.64224	21589.0625
2475.39782	21532.6625
2478.15167	21624.3625
2480.90379	21643.2625
2483.65417	21666.1625
2486.40283	21751.8625
2489.14976	21735.6625
2491.89497	21706.8625
2494.63845	21747.4625
2497.3802	21680.2625
2500.12024	21669.9625
2502.85855	21619.4625
2505.59514	21568.4625
2508.33002	21532.2625
2511.06318	21450.2625
2513.79462	21388.4625
2516.52435	21396.5625
2519.25237	21312.0625
2521.97867	21343.3625
2524.70327	21278.7625
2527.42616	21251.8625
2530.14734	21244.9625
2532.86681	21224.6625
2535.58458	21230.5625
2538.30065	21193.9625
2541.01501	21191.1625
2543.72768	21188.6625
2546.43864	21130.3625
2549.14791	21094.3625
2551.85548	21069.2625
2554.56136	21043.3625
2557.26554	21027.0625
2559.96803	21029.4625
2562.66883	20993.6625
2565.36794	20940.9625
2568.06536	20960.6625
2570.7611	20969.6625
2573.45514	20910.2625
2576.14751	20884.6625
2578.83819	20845.8625
2581.52719	20778.5625
2584.21451	20768.9625
2586.90015	20758.3625
2589.58411	20732.8625
2592.2664	20726.8625
2594.94701	20696.7625
2597.62594	20696.6625
2600.30321	20648.1625
2602.9788	20595.7625
2605.65273	20521.0625
2608.32498	20541.1625
2610.99557	20528.3625
2613.66449	20556.9625
2616.33175	20521.3625
2618.99734	20500.9625
2621.66128	20444.8625
2624.32355	20423.0625
2626.98416	20464.8625
2629.64311	20365.5625
2632.30041	20367.0625
2634.95605	20318.1625
2637.61004	20282.7625
2640.26238	20278.4625
2642.91306	20300.1625
2645.56209	20300.4625
2648.20948	20207.4625
2650.85521	20231.2625
2653.4993	20216.8625
2656.14175	20230.3625
2658.78255	20248.8625
2661.42171	20312.1625
2664.05923	20330.4625
2666.6951	20275.1625
2669.32934	20320.9625
2671.96194	20310.8625
2674.59291	20328.1625
2677.22224	20318.5625
2679.84993	20324.5625
2682.476	20300.2625
2685.10043	20283.2625
2687.72324	20213.3625
2690.34441	20234.3625
2692.96396	20246.4625
2695.58188	20243.8625
2698.19818	20196.0625
2700.81285	20207.7625
2703.4259	20220.9625
2706.03733	20263.5625
2708.64714	20265.2625
2711.25533	20303.9625
2713.86191	20270.0625
2716.46687	20276.9625
2719.07021	20231.6625
2721.67194	20318.1625
2724.27206	20261.3625
2726.87057	20279.0625
2729.46747	20241.2625
2732.06276	20338.6625
2734.65644	20281.9625
2737.24852	20233.7625
2739.83899	20201.8625
2742.42786	20190.3625
2745.01513	20150.1625
2747.60079	20158.9625
2750.18486	20136.7625
2752.76733	20122.3625
2755.3482	20112.5625
2757.92747	20090.5625
2760.50515	20030.6625
2763.08123	20037.0625
2765.65573	19985.1625
2768.22863	19994.2625
2770.79994	19982.0625
2773.36967	19957.5625
2775.9378	19943.0625
2778.50435	19913.4625
2781.06932	19862.4625
2783.6327	19856.6625
2786.1945	19843.3625
2788.75471	19874.6625
2791.31335	19783.8625
2793.87041	19738.5625
2796.42589	19705.3625
2798.97979	19698.6625
2801.53212	19674.4625
2804.08288	19677.1625
2806.63206	19621.7625
2809.17967	19644.7625
2811.72571	19574.9625
2814.27018	19546.1625
2816.81308	19485.8625
2819.35442	19489.8625
2821.89419	19444.0625
2824.43239	19464.8625
2826.96904	19431.6625
2829.50412	19409.7625
2832.03763	19375.6625
2834.56959	19330.4625
2837.1	19334.1625
2839.62884	19335.1625
2842.15613	19306.0625
2844.68186	19246.2625
2847.20604	19206.0625
2849.72867	19245.5625
2852.24974	19203.9625
2854.76927	19191.1625
2857.28724	19173.4625
2859.80367	19199.1625
2862.31855	19199.5625
2864.83189	19179.5625
2867.34368	19160.6625
2869.85393	19188.4625
2872.36264	19142.2625
2874.8698	19115.1625
2877.37543	19084.9625
2879.87952	19075.1625
2882.38207	19070.9625
2884.88308	19041.9625
2887.38256	19057.4625
2889.88051	19046.8625
2892.37692	19019.7625
2894.8718	19056.3625
2897.36515	19112.1625
2899.85698	19089.5625
2902.34727	19056.2625
2904.83604	19061.4625
2907.32328	19106.5625
2909.809	19122.1625
2912.29319	19157.6625
2914.77587	19190.4625
2917.25702	19218.2625
2919.73665	19094.7625
2922.21476	19132.2625
2924.69136	19099.9625
2927.16644	19091.4625
2929.64	19043.5625
2932.11205	18998.6625
2934.58258	18926.0625
2937.05161	18918.0625
2939.51912	18937.9625
2941.98513	18907.1625
2944.44962	18899.4625
2946.91261	18819.2625
2949.37409	18903.6625
2951.83407	18833.1625
2954.29254	18855.6625
2956.74951	18845.2625
2959.20498	18873.8625
2961.65895	18842.5625
2964.11142	18880.2625
2966.56239	18844.7625
2969.01186	18817.8625
2971.45984	18791.0625
2973.90632	18769.4625
2976.35131	18723.9625
2978.7948	18708.2625
2981.23681	18703.3625
2983.67732	18706.5625
2986.11635	18691.8625
2988.55388	18656.4625
2990.98993	18604.0625
2993.4245	18570.4625
2995.85758	18540.4625
2998.28917	18480.4625
3000.71928	18405.2625
3003.14791	18372.6625
3005.57506	18384.2625
3008.00073	18277.7625
3010.42493	18304.4625
3012.84764	18250.6625
3015.26888	18310.7625
3017.68865	18251.9625
3020.10694	18235.7625
3022.52376	18160.8625
3024.9391	18134.6625
3027.35298	18099.1625
3029.76539	18087.3625
3032.17632	18092.5625
3034.5858	18085.7625
3036.9938	18066.3625
3039.40034	18023.7625
3041.80542	18008.9625
3044.20903	17954.6625
3046.61118	17952.3625
3049.01187	17887.1625
3051.4111	17852.4625
3053.80888	17809.1625
3056.20519	17830.7625
3058.60005	17810.6625
3060.99345	17774.2625
3063.3854	17706.8625
3065.7759	17643.3625
3068.16494	17608.2625
3070.55254	17566.9625
3072.93868	17570.2625
3075.32338	17499.7625
3077.70662	17468.1625
3080.08842	17384.9625
3082.46878	17398.0625
3084.84769	17389.6625
3087.22515	17393.9625
3089.60118	17382.1625
3091.97576	17409.0625
3094.3489	17385.9625
3096.72061	17372.3625
3099.09087	17353.2625
3101.4597	17353.4625
3103.82709	17407.5625
3106.19305	17342.2625
3108.55757	17362.2625
3110.92066	17279.4625
3113.28232	17282.1625
3115.64255	17229.1625
3118.00134	17201.7625
3120.35871	17187.8625
3122.71466	17170.7625
3125.06917	17103.9625
3127.42226	17073.0625
3129.77393	17106.3625
3132.12417	17050.9625
3134.47299	17074.8625
3136.82039	17064.9625
3139.16636	17055.7625
3141.51092	17012.5625
3143.85406	17008.3625
3146.19579	17010.2625
3148.53609	17027.7625
3150.87499	17030.5625
3153.21246	17050.4625
3155.54853	17061.3625
3157.88318	17017.0625
3160.21642	17057.4625
3162.54826	17066.5625
3164.87868	17081.2625
3167.2077	17087.9625
3169.5353	17105.0625
3171.86151	17041.1625
3174.18631	16984.0625
3176.5097	16961.5625
3178.83169	16957.3625
3181.15228	16992.5625
3183.47147	16936.6625
3185.78926	16895.7625
3188.10565	16866.8625
3190.42065	16866.1625
3192.73424	16849.1625
3195.04645	16811.2625
3197.35725	16835.0625
3199.66667	16783.6625
3201.97469	16818.4625
3204.28132	16802.6625
3206.58656	16827.3625
3208.8904	16827.0625
3211.19287	16800.6625
3213.49394	16806.3625
3215.79363	16806.8625
3218.09193	16881.0625
3220.38884	16873.8625
3222.68438	16872.7625
3224.97853	16847.5625
3227.2713	16854.0625
3229.56269	16835.1625
3231.8527	16823.8625
3234.14133	16849.6625
3236.42858	16785.2625
3238.71446	16747.5625
3240.99896	16718.2625
3243.28209	16715.1625
3245.56384	16653.1625
3247.84423	16635.5625
3250.12324	16617.8625
3252.40088	16604.1625
3254.67715	16562.0625
3256.95205	16542.2625
3259.22558	16563.9625
3261.49775	16516.0625
3263.76855	16588.3625
3266.03799	16557.1625
3268.30606	16528.5625
3270.57277	16494.9625
3272.83812	16469.8625
3275.10211	16417.8625
3277.36474	16371.2625
3279.62601	16354.9625
3281.88593	16373.8625
3284.14448	16374.6625
3286.40168	16394.4625
3288.65753	16386.7625
3290.91202	16375.0625
3293.16516	16342.3625
3295.41695	16336.7625
3297.66738	16265.6625
3299.91647	16175.8625
3302.16421	16098.9625
3304.4106	16053.7625
3306.65564	15964.1625
3308.89933	15829.4625
3311.14169	15720.5625
3313.38269	15595.7625
3315.62236	15533.9625
3317.86068	15444.1625
3320.09766	15291.9625
3322.3333	15223.2625
3324.5676	15170.0625
3326.80056	14951.0625
3329.03219	14877.1625
3331.26248	4.5625
3333.49143	-0.0375
3335.71905	0.2625
