Data from AgNPs_UA_50uM_CRN_0uM_R6G_10uM_Q_RamanShift__24__12-39-11-783.txt Node

Date: Tue Jul 26 12:39:11 BST 2022
User: TCL
Spectrometer: QEP01345
Trigger mode: 4
Integration Time (sec): 7.000000E0
Scans to average: 10
Electric dark correction enabled: true
Nonlinearity correction enabled: false
Boxcar width: 0
XAxis mode: Raman Shifts
Number of Pixels in Spectrum: 1044
>>>>>Begin Spectral Data<<<<<
46.04893	0.3625
50.45542	-0.7375
54.85868	1.1625
59.25871	-1.9375
63.6555	78.7625
68.04907	84.9625
72.43941	85.8625
76.82654	99.0625
81.21044	101.8625
85.59113	101.3625
89.96862	107.0625
94.34289	109.6625
98.71396	113.0625
103.08183	120.4625
107.4465	118.6625
111.80798	122.5625
116.16626	125.5625
120.52136	129.2625
124.87327	131.8625
129.222	134.4625
133.56755	145.6625
137.90993	154.8625
142.24913	161.9625
146.58517	178.4625
150.91804	199.8625
155.24774	231.1625
159.57429	278.9625
163.89768	351.5625
168.21792	454.3625
172.53501	614.7625
176.84895	842.7625
181.15975	1172.7625
185.46741	1631.9625
189.77193	2244.5625
194.07331	2974.5625
198.37157	3823.3625
202.6667	4729.0625
206.9587	5619.4625
211.24758	6500.0625
215.53334	7460.9625
219.81599	8456.2625
224.09553	9590.9625
228.37195	10881.7625
232.64527	12267.3625
236.91549	13708.3625
241.18261	14963.0625
245.44663	16095.3625
249.70755	16991.6625
253.96539	17750.2625
258.22014	18367.0625
262.4718	18921.1625
266.72039	19315.2625
270.96589	19424.7625
275.20832	19317.1625
279.44768	19035.5625
283.68397	18715.7625
287.91719	18456.3625
292.14735	18388.6625
296.37445	18662.6625
300.59849	19158.9625
304.81948	19747.0625
309.03742	20188.0625
313.25231	20184.4625
317.46415	19572.7625
321.67296	18619.3625
325.87872	17838.3625
330.08145	17492.0625
334.28114	17551.6625
338.47781	17824.6625
342.67145	18242.5625
346.86207	18842.2625
351.04966	19655.9625
355.23424	20561.3625
359.4158	21292.2625
363.59435	21754.6625
367.76989	22003.9625
371.94243	22071.0625
376.11196	22087.6625
380.27849	22064.9625
384.44203	22022.3625
388.60257	21972.0625
392.76012	21988.1625
396.91468	22224.6625
401.06626	22661.8625
405.21485	22996.9625
409.36047	22789.4625
413.50311	22013.7625
417.64277	21248.7625
421.77947	20804.4625
425.9132	20629.8625
430.04396	20632.8625
434.17176	20804.4625
438.2966	21107.0625
442.41849	21675.8625
446.53742	22288.4625
450.6534	22918.4625
454.76644	23443.3625
458.87653	23577.5625
462.98368	23439.6625
467.08789	23100.7625
471.18916	22546.2625
475.2875	22019.5625
479.38291	21502.0625
483.4754	21161.8625
487.56496	20939.5625
491.6516	20725.0625
495.73531	20617.2625
499.81612	20681.0625
503.89401	20846.2625
507.96899	21043.1625
512.04106	21203.3625
516.11023	21425.6625
520.1765	21600.6625
524.23987	21641.3625
528.30034	21529.6625
532.35792	21395.5625
536.41261	21159.1625
540.46441	20865.0625
544.51333	20729.9625
548.55936	20830.9625
552.60252	21117.3625
556.64279	21515.3625
560.6802	21695.2625
564.71473	21932.7625
568.7464	22421.4625
572.7752	22608.4625
576.80114	22272.6625
580.82422	21978.7625
584.84444	22066.4625
588.86181	22425.0625
592.87633	22822.3625
596.888	23318.6625
600.89682	24114.7625
604.9028	26556.0625
608.90594	32204.0625
612.90624	38026.4625
616.90371	35364.9625
620.89834	27086.2625
624.89015	23654.9625
628.87913	23238.0625
632.86528	23182.9625
636.84862	23046.8625
640.82913	22524.7625
644.80683	21538.4625
648.78172	20887.5625
652.75379	20894.5625
656.72306	21555.2625
660.68952	22323.4625
664.65319	22174.2625
668.61405	21584.7625
672.57211	21434.3625
676.52738	21373.1625
680.47986	21279.9625
684.42955	21098.1625
688.37646	21050.8625
692.32058	21168.3625
696.26192	21355.2625
700.20048	21559.7625
704.13626	21654.5625
708.06928	21438.4625
711.99952	21228.3625
715.927	21233.3625
719.85171	21284.4625
723.77365	21287.0625
727.69284	21086.1625
731.60928	20985.9625
735.52295	21014.9625
739.43388	21160.5625
743.34206	21316.4625
747.24749	21398.2625
751.15017	21482.7625
755.05012	21768.4625
758.94733	22643.6625
762.8418	24571.0625
766.73354	27668.8625
770.62254	30621.9625
774.50882	31955.9625
778.39237	30693.8625
782.27321	27556.8625
786.15132	24515.4625
790.02671	22707.0625
793.89938	21851.1625
797.76935	21540.9625
801.6366	21401.0625
805.50115	21251.5625
809.36299	21168.0625
813.22213	21009.9625
817.07857	20939.7625
820.93231	20923.3625
824.78336	20970.0625
828.63172	21107.8625
832.47738	21157.4625
836.32036	21219.1625
840.16066	21286.3625
843.99827	21345.0625
847.8332	21279.4625
851.66546	21153.2625
855.49504	21134.3625
859.32195	21152.3625
863.1462	21040.2625
866.96777	20967.0625
870.78668	20912.8625
874.60293	20968.8625
878.41652	21038.2625
882.22745	21160.0625
886.03573	21275.0625
889.84136	21242.7625
893.64433	21121.9625
897.44466	21026.2625
901.24235	20943.2625
905.0374	20880.6625
908.8298	20812.3625
912.61957	20802.6625
916.40671	20908.5625
920.19121	21186.6625
923.97308	21538.5625
927.75233	21937.0625
931.52895	22107.2625
935.30295	21918.9625
939.07433	21368.0625
942.84309	21013.9625
946.60924	20897.2625
950.37278	20773.5625
954.13371	20644.2625
957.89203	20432.3625
961.64774	20340.3625
965.40086	20237.2625
969.15137	20170.0625
972.89929	20097.4625
976.64461	20134.8625
980.38733	20171.4625
984.12747	20334.1625
987.86502	20573.7625
991.59999	20962.6625
995.33237	21556.3625
999.06217	22528.7625
1002.78939	23579.2625
1006.51404	24060.0625
1010.23611	24240.9625
1013.95561	24523.6625
1017.67255	24661.5625
1021.38692	24607.0625
1025.09872	24684.8625
1028.80796	25313.6625
1032.51465	26496.8625
1036.21877	27345.3625
1039.92035	27300.7625
1043.61937	26609.9625
1047.31584	25479.6625
1051.00976	24288.8625
1054.70114	23628.0625
1058.38998	23419.3625
1062.07627	23383.7625
1065.76003	23324.5625
1069.44126	23277.3625
1073.11995	23505.0625
1076.79611	23836.8625
1080.46974	24232.7625
1084.14085	24682.9625
1087.80943	25028.9625
1091.47549	25032.0625
1095.13903	24652.6625
1098.80005	24067.4625
1102.45857	23725.7625
1106.11456	23630.7625
1109.76805	23887.6625
1113.41903	24311.6625
1117.06751	24829.0625
1120.71348	25509.0625
1124.35696	26232.6625
1127.99793	26744.4625
1131.63641	26550.9625
1135.2724	25798.5625
1138.90589	25094.4625
1142.5369	24574.8625
1146.16542	24095.7625
1149.79145	23860.3625
1153.415	23829.3625
1157.03607	23969.9625
1160.65467	24377.9625
1164.27079	25095.2625
1167.88443	26343.1625
1171.49561	28199.6625
1175.10432	30943.7625
1178.71056	34567.7625
1182.31434	37812.5625
1185.91565	39289.1625
1189.51451	38819.5625
1193.11091	36736.9625
1196.70485	34306.1625
1200.29634	32346.8625
1203.88538	30844.0625
1207.47197	29351.8625
1211.05612	28163.5625
1214.63782	27493.0625
1218.21708	27444.2625
1221.79391	27801.1625
1225.36829	28133.1625
1228.94024	27969.2625
1232.50976	27423.5625
1236.07685	27079.3625
1239.6415	26979.1625
1243.20374	27121.6625
1246.76355	27374.0625
1250.32093	27842.1625
1253.8759	28512.1625
1257.42845	29430.6625
1260.97859	30299.0625
1264.52631	31165.3625
1268.07163	32058.8625
1271.61453	33038.7625
1275.15503	34014.6625
1278.69312	34998.4625
1282.22882	35831.4625
1285.76211	36521.4625
1289.29301	37158.4625
1292.82151	37884.6625
1296.34761	39048.0625
1299.87133	41087.8625
1303.39266	44356.5625
1306.9116	48967.8625
1310.42815	53629.3625
1313.94233	55903.4625
1317.45412	54442.1625
1320.96354	51044.6625
1324.47058	47378.4625
1327.97525	44329.5625
1331.47754	42447.1625
1334.97747	41845.4625
1338.47502	42121.6625
1341.97022	42919.8625
1345.46305	44190.7625
1348.95352	45727.7625
1352.44163	47852.7625
1355.92738	51181.8625
1359.41078	56493.7625
1362.89183	60939.8625
1366.37053	58520.8625
1369.84688	50617.3625
1373.32088	43118.6625
1376.79254	38570.5625
1380.26186	36174.8625
1383.72883	34861.2625
1387.19347	33877.1625
1390.65578	32878.6625
1394.11575	32194.8625
1397.57339	31973.4625
1401.0287	32235.0625
1404.48168	32663.1625
1407.93234	33018.4625
1411.38068	33522.6625
1414.82669	33621.1625
1418.27039	33366.1625
1421.71177	32710.9625
1425.15083	32041.5625
1428.58758	31820.1625
1432.02203	32115.0625
1435.45416	32544.3625
1438.88399	32812.5625
1442.31151	32833.6625
1445.73673	32885.9625
1449.15965	32973.6625
1452.58027	32903.6625
1455.9986	32583.4625
1459.41463	32558.8625
1462.82837	32864.7625
1466.23982	33513.6625
1469.64898	34273.2625
1473.05586	34783.0625
1476.46045	35218.8625
1479.86276	35641.4625
1483.26279	36075.7625
1486.66054	36609.2625
1490.05602	37351.3625
1493.44922	38486.2625
1496.84016	40101.9625
1500.22882	42578.4625
1503.61521	46064.9625
1506.99934	50032.3625
1510.38121	53007.8625
1513.76081	53250.0625
1517.13816	50205.3625
1520.51324	45368.3625
1523.88607	41181.1625
1527.25665	38421.8625
1530.62498	36842.3625
1533.99105	35881.0625
1537.35488	35233.6625
1540.71647	34879.2625
1544.07581	34612.5625
1547.4329	34361.3625
1550.78776	34119.6625
1554.14038	33963.8625
1557.49077	33922.1625
1560.83892	34089.1625
1564.18484	34561.7625
1567.52853	35078.8625
1570.86999	35432.0625
1574.20922	35596.9625
1577.54624	35394.2625
1580.88103	34380.5625
1584.2136	33290.5625
1587.54395	33266.5625
1590.87208	34598.7625
1594.19801	37172.5625
1597.52172	40316.3625
1600.84321	41857.7625
1604.16251	40687.6625
1607.47959	37860.4625
1610.79447	34643.4625
1614.10715	31755.8625
1617.41763	29470.5625
1620.7259	28065.8625
1624.03199	27432.1625
1627.33587	27607.9625
1630.63757	28508.8625
1633.93707	30106.9625
1637.23439	32436.4625
1640.52951	35401.0625
1643.82246	38832.8625
1647.11321	41998.5625
1650.40179	43079.4625
1653.68819	40662.7625
1656.97241	35657.7625
1660.25446	30699.6625
1663.53433	27222.8625
1666.81203	25111.9625
1670.08756	23821.1625
1673.36092	23000.7625
1676.63211	22476.1625
1679.90115	22026.6625
1683.16801	21699.5625
1686.43272	21468.2625
1689.69527	21309.7625
1692.95567	21176.4625
1696.2139	21097.5625
1699.46999	21051.0625
1702.72392	20999.6625
1705.97571	21002.0625
1709.22535	20964.2625
1712.47284	20974.0625
1715.71819	20924.8625
1718.96139	20874.1625
1722.20246	20807.7625
1725.44139	20705.7625
1728.67818	20636.9625
1731.91284	20504.1625
1735.14537	20390.9625
1738.37576	20349.9625
1741.60403	20234.1625
1744.83017	20210.8625
1748.05418	20135.9625
1751.27607	20103.8625
1754.49584	20083.1625
1757.71349	20031.8625
1760.92903	20013.8625
1764.14244	19998.2625
1767.35375	19977.1625
1770.56294	19958.8625
1773.77002	19913.1625
1776.97499	19928.9625
1780.17785	19916.4625
1783.37861	19905.9625
1786.57727	19900.5625
1789.77382	19859.5625
1792.96828	19837.7625
1796.16064	19827.0625
1799.3509	19855.3625
1802.53907	19835.8625
1805.72514	19780.2625
1808.90913	19720.9625
1812.09102	19660.4625
1815.27083	19586.0625
1818.44856	19584.3625
1821.6242	19525.9625
1824.79776	19518.9625
1827.96924	19496.6625
1831.13864	19474.9625
1834.30597	19517.0625
1837.47122	19465.1625
1840.6344	19477.0625
1843.7955	19510.4625
1846.95454	19466.4625
1850.11151	19459.0625
1853.26642	19429.2625
1856.41926	19457.0625
1859.57004	19449.6625
1862.71876	19417.3625
1865.86542	19443.1625
1869.01003	19424.3625
1872.15258	19429.9625
1875.29308	19462.9625
1878.43152	19444.6625
1881.56792	19435.9625
1884.70227	19411.1625
1887.83457	19432.7625
1890.96482	19412.9625
1894.09304	19366.3625
1897.21921	19360.4625
1900.34335	19347.0625
1903.46544	19346.0625
1906.58551	19361.0625
1909.70353	19393.3625
1912.81953	19374.4625
1915.93349	19332.7625
1919.04543	19329.5625
1922.15534	19318.2625
1925.26322	19263.1625
1928.36908	19212.5625
1931.47292	19235.4625
1934.57473	19175.6625
1937.67453	19128.2625
1940.77232	19136.9625
1943.86808	19115.4625
1946.96184	19070.0625
1950.05358	18997.9625
1953.14331	18951.1625
1956.23103	18907.9625
1959.31675	18855.6625
1962.40046	18808.7625
1965.48217	18764.1625
1968.56188	18727.7625
1971.63959	18691.8625
1974.7153	18655.1625
1977.78901	18620.5625
1980.86073	18536.7625
1983.93046	18523.8625
1986.99819	18439.3625
1990.06394	18419.8625
1993.1277	18371.1625
1996.18947	18300.3625
1999.24925	18244.6625
2002.30706	18226.9625
2005.36288	18150.1625
2008.41672	18132.0625
2011.46859	18092.6625
2014.51848	18051.8625
2017.56639	17969.9625
2020.61233	17942.4625
2023.6563	17909.4625
2026.6983	17896.6625
2029.73833	17839.4625
2032.7764	17867.6625
2035.8125	17852.6625
2038.84664	17854.8625
2041.87881	17859.6625
2044.90903	17824.2625
2047.93729	17796.9625
2050.96359	17754.9625
2053.98794	17764.9625
2057.01034	17771.4625
2060.03078	17743.8625
2063.04927	17728.2625
2066.06582	17775.7625
2069.08042	17711.2625
2072.09307	17688.8625
2075.10378	17683.4625
2078.11255	17634.5625
2081.11938	17633.0625
2084.12426	17653.7625
2087.12722	17644.2625
2090.12824	17635.6625
2093.12732	17655.1625
2096.12447	17629.0625
2099.11969	17601.7625
2102.11299	17634.7625
2105.10435	17634.2625
2108.09379	17673.1625
2111.08131	17677.3625
2114.0669	17667.9625
2117.05057	17711.0625
2120.03233	17752.2625
2123.01216	17764.6625
2125.99008	17761.0625
2128.96609	17809.8625
2131.94018	17795.8625
2134.91236	17807.2625
2137.88263	17846.0625
2140.851	17832.5625
2143.81746	17830.5625
2146.78201	17838.1625
2149.74466	17884.2625
2152.7054	17909.2625
2155.66425	17905.9625
2158.6212	17880.6625
2161.57625	17902.4625
2164.52941	17897.8625
2167.48067	17857.5625
2170.43004	17869.5625
2173.37752	17877.1625
2176.32311	17877.7625
2179.26681	17895.0625
2182.20863	17914.0625
2185.14856	17952.1625
2188.08661	17916.0625
2191.02278	17943.8625
2193.95707	17938.7625
2196.88948	17984.1625
2199.82001	17985.3625
2202.74867	17977.0625
2205.67545	18018.4625
2208.60037	18002.5625
2211.52341	18015.0625
2214.44458	18007.9625
2217.36388	17994.4625
2220.28132	17984.1625
2223.1969	17957.1625
2226.11061	17953.7625
2229.02246	17934.0625
2231.93245	17895.3625
2234.84058	17844.0625
2237.74686	17809.6625
2240.65128	17777.2625
2243.55385	17751.6625
2246.45456	17710.0625
2249.35343	17724.8625
2252.25044	17745.1625
2255.14561	17726.8625
2258.03893	17716.1625
2260.93041	17706.6625
2263.82004	17691.3625
2266.70783	17663.3625
2269.59378	17631.6625
2272.4779	17584.4625
2275.36017	17547.1625
2278.24061	17506.5625
2281.11922	17477.9625
2283.996	17446.2625
2286.87094	17417.1625
2289.74405	17443.7625
2292.61534	17416.6625
2295.4848	17410.2625
2298.35243	17424.5625
2301.21824	17432.6625
2304.08223	17458.1625
2306.94439	17499.6625
2309.80474	17534.5625
2312.66327	17559.3625
2315.51999	17565.7625
2318.37489	17618.4625
2321.22797	17608.5625
2324.07925	17590.5625
2326.92871	17550.8625
2329.77637	17555.0625
2332.62222	17553.9625
2335.46626	17601.1625
2338.3085	17576.3625
2341.14893	17603.5625
2343.98756	17640.2625
2346.8244	17737.0625
2349.65943	17741.4625
2352.49267	17740.5625
2355.32411	17728.6625
2358.15376	17709.8625
2360.98161	17708.7625
2363.80768	17680.2625
2366.63195	17638.2625
2369.45444	17607.5625
2372.27514	17584.9625
2375.09405	17566.1625
2377.91118	17543.7625
2380.72652	17462.7625
2383.54009	17416.9625
2386.35187	17393.4625
2389.16188	17323.8625
2391.97011	17325.7625
2394.77657	17306.2625
2397.58125	17295.7625
2400.38416	17255.8625
2403.18529	17236.5625
2405.98466	17161.0625
2408.78226	17132.4625
2411.57809	17120.0625
2414.37216	17071.4625
2417.16446	17077.1625
2419.955	17051.7625
2422.74378	17032.7625
2425.5308	17062.4625
2428.31606	17003.4625
2431.09956	17024.2625
2433.88131	17024.0625
2436.6613	17049.5625
2439.43954	17063.5625
2442.21603	17052.3625
2444.99077	17019.0625
2447.76377	17033.3625
2450.53501	16996.3625
2453.30451	16985.5625
2456.07226	16987.1625
2458.83827	17005.7625
2461.60254	16974.7625
2464.36507	16973.8625
2467.12586	16957.3625
2469.88492	16953.6625
2472.64224	17003.9625
2475.39782	17025.3625
2478.15167	17054.8625
2480.90379	17051.3625
2483.65417	17102.8625
2486.40283	17140.3625
2489.14976	17156.4625
2491.89497	17213.9625
2494.63845	17234.5625
2497.3802	17199.8625
2500.12024	17180.1625
2502.85855	17169.5625
2505.59514	17171.9625
2508.33002	17158.1625
2511.06318	17116.8625
2513.79462	17095.9625
2516.52435	17086.4625
2519.25237	17046.0625
2521.97867	17001.2625
2524.70327	17022.1625
2527.42616	17002.4625
2530.14734	17000.1625
2532.86681	17014.9625
2535.58458	16996.2625
2538.30065	16989.1625
2541.01501	17017.8625
2543.72768	17023.0625
2546.43864	16988.9625
2549.14791	17019.4625
2551.85548	16985.0625
2554.56136	16943.8625
2557.26554	16963.6625
2559.96803	16963.2625
2562.66883	16958.6625
2565.36794	16932.9625
2568.06536	16907.1625
2570.7611	16909.4625
2573.45514	16921.1625
2576.14751	16893.5625
2578.83819	16910.1625
2581.52719	16903.2625
2584.21451	16935.9625
2586.90015	16926.6625
2589.58411	16926.3625
2592.2664	16944.0625
2594.94701	16911.2625
2597.62594	16943.9625
2600.30321	16902.9625
2602.9788	16869.6625
2605.65273	16867.8625
2608.32498	16929.6625
2610.99557	16926.4625
2613.66449	16943.3625
2616.33175	16968.1625
2618.99734	17002.2625
2621.66128	17012.2625
2624.32355	17042.5625
2626.98416	17029.1625
2629.64311	17025.3625
2632.30041	17062.7625
2634.95605	17048.8625
2637.61004	17075.5625
2640.26238	17023.6625
2642.91306	17005.6625
2645.56209	16995.7625
2648.20948	16914.8625
2650.85521	16912.0625
2653.4993	16870.1625
2656.14175	16868.1625
2658.78255	16874.2625
2661.42171	16850.7625
2664.05923	16882.2625
2666.6951	16941.9625
2669.32934	16977.3625
2671.96194	17020.7625
2674.59291	17001.0625
2677.22224	17014.6625
2679.84993	16982.7625
2682.476	16942.9625
2685.10043	16963.1625
2687.72324	16917.9625
2690.34441	16912.1625
2692.96396	16891.4625
2695.58188	16895.2625
2698.19818	16853.4625
2700.81285	16867.9625
2703.4259	16840.7625
2706.03733	16860.1625
2708.64714	16844.3625
2711.25533	16852.1625
2713.86191	16860.6625
2716.46687	16915.7625
2719.07021	16896.2625
2721.67194	16933.1625
2724.27206	16912.4625
2726.87057	16905.6625
2729.46747	16898.2625
2732.06276	16924.8625
2734.65644	16909.7625
2737.24852	16947.7625
2739.83899	16895.3625
2742.42786	16956.2625
2745.01513	16922.3625
2747.60079	16896.3625
2750.18486	16819.5625
2752.76733	16856.5625
2755.3482	16836.7625
2757.92747	16865.1625
2760.50515	16835.2625
2763.08123	16847.2625
2765.65573	16836.3625
2768.22863	16861.8625
2770.79994	16847.4625
2773.36967	16884.7625
2775.9378	16860.0625
2778.50435	16856.9625
2781.06932	16855.0625
2783.6327	16850.7625
2786.1945	16897.8625
2788.75471	16851.5625
2791.31335	16806.7625
2793.87041	16815.1625
2796.42589	16733.3625
2798.97979	16751.4625
2801.53212	16718.3625
2804.08288	16700.9625
2806.63206	16666.0625
2809.17967	16656.9625
2811.72571	16628.0625
2814.27018	16622.8625
2816.81308	16620.0625
2819.35442	16619.9625
2821.89419	16654.5625
2824.43239	16610.2625
2826.96904	16616.3625
2829.50412	16601.6625
2832.03763	16569.1625
2834.56959	16553.5625
2837.1	16526.0625
2839.62884	16568.0625
2842.15613	16524.0625
2844.68186	16531.1625
2847.20604	16496.7625
2849.72867	16511.0625
2852.24974	16483.8625
2854.76927	16456.8625
2857.28724	16469.9625
2859.80367	16505.3625
2862.31855	16450.7625
2864.83189	16479.2625
2867.34368	16447.9625
2869.85393	16470.5625
2872.36264	16476.0625
2874.8698	16444.9625
2877.37543	16398.1625
2879.87952	16434.3625
2882.38207	16422.4625
2884.88308	16424.1625
2887.38256	16445.2625
2889.88051	16456.3625
2892.37692	16445.8625
2894.8718	16472.9625
2897.36515	16483.9625
2899.85698	16477.3625
2902.34727	16538.8625
2904.83604	16577.5625
2907.32328	16650.6625
2909.809	16613.6625
2912.29319	16608.3625
2914.77587	16571.7625
2917.25702	16611.0625
2919.73665	16559.6625
2922.21476	16585.9625
2924.69136	16556.6625
2927.16644	16510.5625
2929.64	16483.5625
2932.11205	16466.3625
2934.58258	16432.8625
2937.05161	16458.6625
2939.51912	16430.9625
2941.98513	16465.5625
2944.44962	16446.8625
2946.91261	16385.8625
2949.37409	16385.4625
2951.83407	16447.5625
2954.29254	16416.3625
2956.74951	16409.2625
2959.20498	16405.2625
2961.65895	16391.8625
2964.11142	16358.3625
2966.56239	16341.5625
2969.01186	16362.4625
2971.45984	16340.1625
2973.90632	16326.3625
2976.35131	16300.0625
2978.7948	16262.8625
2981.23681	16227.6625
2983.67732	16178.1625
2986.11635	16175.4625
2988.55388	16160.6625
2990.98993	16074.2625
2993.4245	16032.9625
2995.85758	16052.9625
2998.28917	16037.8625
3000.71928	16034.9625
3003.14791	15983.7625
3005.57506	15977.1625
3008.00073	15921.7625
3010.42493	15919.4625
3012.84764	15892.5625
3015.26888	15874.5625
3017.68865	15837.9625
3020.10694	15839.7625
3022.52376	15759.3625
3024.9391	15766.4625
3027.35298	15747.4625
3029.76539	15728.3625
3032.17632	15720.7625
3034.5858	15704.3625
3036.9938	15703.7625
3039.40034	15665.8625
3041.80542	15655.8625
3044.20903	15654.7625
3046.61118	15628.2625
3049.01187	15625.6625
3051.4111	15613.4625
3053.80888	15579.6625
3056.20519	15571.2625
3058.60005	15506.1625
3060.99345	15494.6625
3063.3854	15438.6625
3065.7759	15397.8625
3068.16494	15408.2625
3070.55254	15357.0625
3072.93868	15306.8625
3075.32338	15249.3625
3077.70662	15226.7625
3080.08842	15226.1625
3082.46878	15205.3625
3084.84769	15159.4625
3087.22515	15192.0625
3089.60118	15186.9625
3091.97576	15188.4625
3094.3489	15190.6625
3096.72061	15164.7625
3099.09087	15187.1625
3101.4597	15174.1625
3103.82709	15167.2625
3106.19305	15163.4625
3108.55757	15162.8625
3110.92066	15131.2625
3113.28232	15104.4625
3115.64255	15082.5625
3118.00134	15073.3625
3120.35871	15080.5625
3122.71466	15043.3625
3125.06917	14992.2625
3127.42226	14987.3625
3129.77393	15006.9625
3132.12417	14965.4625
3134.47299	14996.0625
3136.82039	14951.2625
3139.16636	14978.8625
3141.51092	14957.7625
3143.85406	14947.5625
3146.19579	14957.3625
3148.53609	14956.4625
3150.87499	14995.1625
3153.21246	15010.7625
3155.54853	14986.5625
3157.88318	14985.0625
3160.21642	15005.8625
3162.54826	14997.6625
3164.87868	15016.7625
3167.2077	15051.9625
3169.5353	15011.6625
3171.86151	15014.3625
3174.18631	15003.9625
3176.5097	14991.8625
3178.83169	15006.4625
3181.15228	14983.1625
3183.47147	14930.0625
3185.78926	14916.4625
3188.10565	14921.6625
3190.42065	14907.4625
3192.73424	14938.4625
3195.04645	14894.1625
3197.35725	14890.6625
3199.66667	14909.6625
3201.97469	14920.8625
3204.28132	14903.1625
3206.58656	14925.3625
3208.8904	14943.8625
3211.19287	14959.7625
3213.49394	14975.8625
3215.79363	14935.6625
3218.09193	14945.7625
3220.38884	14974.4625
3222.68438	15002.3625
3224.97853	14965.8625
3227.2713	15043.3625
3229.56269	15010.0625
3231.8527	15037.9625
3234.14133	14982.2625
3236.42858	14958.3625
3238.71446	14942.6625
3240.99896	14924.1625
3243.28209	14893.6625
3245.56384	14871.5625
3247.84423	14855.1625
3250.12324	14834.5625
3252.40088	14786.6625
3254.67715	14798.8625
3256.95205	14792.2625
3259.22558	14831.5625
3261.49775	14823.7625
3263.76855	14846.3625
3266.03799	14774.5625
3268.30606	14814.5625
3270.57277	14840.3625
3272.83812	14749.3625
3275.10211	14730.2625
3277.36474	14718.0625
3279.62601	14724.1625
3281.88593	14686.3625
3284.14448	14709.6625
3286.40168	14712.2625
3288.65753	14696.3625
3290.91202	14696.8625
3293.16516	14673.5625
3295.41695	14643.4625
3297.66738	14578.4625
3299.91647	14501.4625
3302.16421	14411.1625
3304.4106	14359.5625
3306.65564	14317.2625
3308.89933	14191.8625
3311.14169	14094.4625
3313.38269	13984.5625
3315.62236	13947.3625
3317.86068	13833.9625
3320.09766	13705.6625
3322.3333	13624.2625
3324.5676	13576.1625
3326.80056	13377.5625
3329.03219	13331.7625
3331.26248	3.3625
3333.49143	-1.4375
3335.71905	-0.9375
