Data from AgNPs_UA_20uM_CRN_0uM_R6G_10uM_Q_RamanShift__24__13-04-22-032.txt Node

Date: Mon Jul 18 13:04:22 BST 2022
User: TCL
Spectrometer: QEP01345
Trigger mode: 4
Integration Time (sec): 7.000000E0
Scans to average: 10
Electric dark correction enabled: true
Nonlinearity correction enabled: false
Boxcar width: 0
XAxis mode: Raman Shifts
Number of Pixels in Spectrum: 1044
>>>>>Begin Spectral Data<<<<<
46.04893	-0.8375
50.45542	-0.7375
54.85868	0.1625
59.25871	-1.8375
63.6555	121.7625
68.04907	129.7625
72.43941	137.5625
76.82654	137.0625
81.21044	146.7625
85.59113	150.8625
89.96862	152.7625
94.34289	159.5625
98.71396	164.6625
103.08183	166.9625
107.4465	173.5625
111.80798	178.9625
116.16626	184.7625
120.52136	195.3625
124.87327	203.2625
129.222	204.4625
133.56755	222.1625
137.90993	243.0625
142.24913	263.1625
146.58517	299.5625
150.91804	351.1625
155.24774	413.3625
159.57429	515.7625
163.89768	660.7625
168.21792	872.0625
172.53501	1207.1625
176.84895	1683.8625
181.15975	2350.1625
185.46741	3278.3625
189.77193	4519.9625
194.07331	6020.3625
198.37157	7694.0625
202.6667	9464.2625
206.9587	11210.6625
211.24758	12953.3625
215.53334	14710.3625
219.81599	16622.7625
224.09553	18717.3625
228.37195	21077.1625
232.64527	23647.3625
236.91549	26360.6625
241.18261	28995.9625
245.44663	31313.2625
249.70755	33387.2625
253.96539	35227.9625
258.22014	36758.5625
262.4718	38070.8625
266.72039	39014.5625
270.96589	39437.6625
275.20832	39493.6625
279.44768	39199.8625
283.68397	38815.9625
287.91719	38510.6625
292.14735	38396.9625
296.37445	38551.9625
300.59849	38845.5625
304.81948	39283.6625
309.03742	39422.6625
313.25231	39099.0625
317.46415	38230.7625
321.67296	37088.8625
325.87872	36172.9625
330.08145	35878.6625
334.28114	35960.2625
338.47781	36333.3625
342.67145	36931.5625
346.86207	37642.7625
351.04966	38593.0625
355.23424	39691.7625
359.4158	40569.4625
363.59435	41109.7625
367.76989	41453.7625
371.94243	41646.6625
376.11196	41768.4625
380.27849	41989.1625
384.44203	42130.4625
388.60257	42231.8625
392.76012	42448.3625
396.91468	42912.5625
401.06626	43533.3625
405.21485	43956.2625
409.36047	43647.1625
413.50311	42831.1625
417.64277	42257.0625
421.77947	42134.0625
425.9132	42170.8625
430.04396	42498.7625
434.17176	42868.5625
438.2966	43521.8625
442.41849	44566.0625
446.53742	45926.7625
450.6534	47436.3625
454.76644	48378.1625
458.87653	48558.1625
462.98368	48050.2625
467.08789	47247.3625
471.18916	46376.6625
475.2875	45611.0625
479.38291	45022.1625
483.4754	44445.3625
487.56496	43834.8625
491.6516	43290.1625
495.73531	42878.7625
499.81612	42767.2625
503.89401	42958.3625
507.96899	43144.1625
512.04106	43220.8625
516.11023	43269.5625
520.1765	43240.1625
524.23987	43113.1625
528.30034	42938.2625
532.35792	42621.7625
536.41261	42216.6625
540.46441	41842.7625
544.51333	41885.9625
548.55936	42384.7625
552.60252	43252.3625
556.64279	44188.1625
560.6802	44780.2625
564.71473	45095.4625
568.7464	45864.2625
572.7752	46545.8625
576.80114	46732.2625
580.82422	46984.6625
584.84444	47587.0625
588.86181	48598.0625
592.87633	49882.8625
596.888	50596.8625
600.89682	51057.3625
604.9028	53503.3625
608.90594	59644.0625
612.90624	64725.9625
616.90371	59091.1625
620.89834	49042.2625
624.89015	45496.4625
628.87913	45145.4625
632.86528	44965.4625
636.84862	44505.7625
640.82913	43581.7625
644.80683	42399.8625
648.78172	41614.2625
652.75379	41683.1625
656.72306	42508.9625
660.68952	43347.6625
664.65319	43033.1625
668.61405	42219.9625
672.57211	42023.4625
676.52738	41989.7625
680.47986	41860.6625
684.42955	41723.4625
688.37646	41773.8625
692.32058	42023.2625
696.26192	42420.6625
700.20048	42896.6625
704.13626	43086.8625
708.06928	42843.9625
711.99952	42525.4625
715.927	42456.8625
719.85171	42523.0625
723.77365	42404.2625
727.69284	42014.5625
731.60928	41834.2625
735.52295	41889.4625
739.43388	42066.8625
743.34206	42228.9625
747.24749	42400.8625
751.15017	42660.0625
755.05012	43418.7625
758.94733	44908.9625
762.8418	47891.0625
766.73354	52277.2625
770.62254	55943.7625
774.50882	56589.5625
778.39237	53583.7625
782.27321	49099.1625
786.15132	45568.6625
790.02671	43553.7625
793.89938	42525.8625
797.76935	42191.4625
801.6366	42073.5625
805.50115	41923.0625
809.36299	41717.2625
813.22213	41427.4625
817.07857	41326.5625
820.93231	41283.7625
824.78336	41282.1625
828.63172	41361.7625
832.47738	41415.2625
836.32036	41530.6625
840.16066	41708.3625
843.99827	41872.8625
847.8332	41751.1625
851.66546	41589.8625
855.49504	41542.2625
859.32195	41422.7625
863.1462	41295.5625
866.96777	41168.2625
870.78668	41132.0625
874.60293	41088.2625
878.41652	41202.4625
882.22745	41391.5625
886.03573	41482.7625
889.84136	41404.9625
893.64433	41148.3625
897.44466	41067.6625
901.24235	40926.0625
905.0374	40798.5625
908.8298	40809.6625
912.61957	40869.0625
916.40671	41232.0625
920.19121	41780.5625
923.97308	42331.9625
927.75233	42684.1625
931.52895	42627.7625
935.30295	42077.8625
939.07433	41275.3625
942.84309	40733.0625
946.60924	40526.8625
950.37278	40330.9625
954.13371	40124.1625
957.89203	39988.3625
961.64774	39875.9625
965.40086	39700.7625
969.15137	39575.2625
972.89929	39513.4625
976.64461	39508.2625
980.38733	39630.8625
984.12747	39834.5625
987.86502	40278.4625
991.59999	40812.1625
995.33237	41766.7625
999.06217	43413.7625
1002.78939	45087.1625
1006.51404	45686.9625
1010.23611	45986.8625
1013.95561	46274.9625
1017.67255	46322.1625
1021.38692	46009.2625
1025.09872	45844.1625
1028.80796	46704.3625
1032.51465	48324.0625
1036.21877	49572.7625
1039.92035	49366.2625
1043.61937	48363.4625
1047.31584	46739.1625
1051.00976	45263.4625
1054.70114	44457.5625
1058.38998	44268.3625
1062.07627	44304.3625
1065.76003	44374.8625
1069.44126	44559.2625
1073.11995	45019.2625
1076.79611	45437.6625
1080.46974	45792.6625
1084.14085	46347.8625
1087.80943	46877.9625
1091.47549	47063.7625
1095.13903	46483.8625
1098.80005	45680.0625
1102.45857	44934.2625
1106.11456	44716.7625
1109.76805	44977.6625
1113.41903	45560.0625
1117.06751	46260.6625
1120.71348	47021.2625
1124.35696	47672.6625
1127.99793	48189.8625
1131.63641	48124.4625
1135.2724	47436.7625
1138.90589	46827.6625
1142.5369	46440.4625
1146.16542	46328.4625
1149.79145	46456.6625
1153.415	46830.4625
1157.03607	47497.8625
1160.65467	48544.4625
1164.27079	50338.5625
1167.88443	52867.0625
1171.49561	56470.5625
1175.10432	61330.9625
1178.71056	67324.7625
1182.31434	72395.3625
1185.91565	74487.6625
1189.51451	73364.2625
1193.11091	70078.1625
1196.70485	66348.5625
1200.29634	63335.5625
1203.88538	60943.7625
1207.47197	58742.2625
1211.05612	56996.1625
1214.63782	56238.5625
1218.21708	56273.8625
1221.79391	56682.9625
1225.36829	56846.1625
1228.94024	56150.5625
1232.50976	54814.2625
1236.07685	53848.4625
1239.6415	53560.4625
1243.20374	53510.3625
1246.76355	54010.0625
1250.32093	54866.3625
1253.8759	56133.6625
1257.42845	57615.9625
1260.97859	59106.8625
1264.52631	60471.3625
1268.07163	62018.2625
1271.61453	63769.1625
1275.15503	65766.7625
1278.69312	67783.0625
1282.22882	69374.6625
1285.76211	70830.8625
1289.29301	72388.2625
1292.82151	74221.3625
1296.34761	77101.0625
1299.87133	81212.6625
1303.39266	86788.5625
1306.9116	93643.2625
1310.42815	100269.2625
1313.94233	104035.3625
1317.45412	103332.9625
1320.96354	99791.9625
1324.47058	95761.8625
1327.97525	92053.0625
1331.47754	89425.4625
1334.97747	88614.7625
1338.47502	88799.7625
1341.97022	89531.3625
1345.46305	89858.8625
1348.95352	89932.1625
1352.44163	90776.9625
1355.92738	93792.4625
1359.41078	99485.5625
1362.89183	104002.2625
1366.37053	100430.6625
1369.84688	90359.8625
1373.32088	80157.6625
1376.79254	73571.3625
1380.26186	70550.2625
1383.72883	69415.8625
1387.19347	68743.5625
1390.65578	67911.2625
1394.11575	67659.2625
1397.57339	68436.8625
1401.0287	69673.4625
1404.48168	70955.6625
1407.93234	71613.1625
1411.38068	71399.8625
1414.82669	70181.2625
1418.27039	68033.6625
1421.71177	65615.6625
1425.15083	63584.0625
1428.58758	62566.6625
1432.02203	62767.1625
1435.45416	63833.0625
1438.88399	65015.0625
1442.31151	65965.2625
1445.73673	66771.5625
1449.15965	67372.9625
1452.58027	67684.7625
1455.9986	67573.2625
1459.41463	67808.3625
1462.82837	68656.5625
1466.23982	69870.4625
1469.64898	71158.8625
1473.05586	72060.2625
1476.46045	72465.2625
1479.86276	72368.7625
1483.26279	72184.5625
1486.66054	72201.9625
1490.05602	72669.5625
1493.44922	73484.5625
1496.84016	74664.4625
1500.22882	76732.5625
1503.61521	80042.4625
1506.99934	83981.9625
1510.38121	87066.2625
1513.76081	87374.6625
1517.13816	84243.9625
1520.51324	79590.3625
1523.88607	75395.6625
1527.25665	73049.6625
1530.62498	71958.1625
1533.99105	71310.0625
1537.35488	70821.0625
1540.71647	70297.2625
1544.07581	69600.8625
1547.4329	68480.8625
1550.78776	67365.4625
1554.14038	66572.2625
1557.49077	66154.7625
1560.83892	65972.3625
1564.18484	66146.8625
1567.52853	66411.5625
1570.86999	66788.6625
1574.20922	67371.2625
1577.54624	67558.6625
1580.88103	66966.8625
1584.2136	66682.1625
1587.54395	67855.8625
1590.87208	70986.9625
1594.19801	76010.2625
1597.52172	81162.5625
1600.84321	82953.7625
1604.16251	79983.9625
1607.47959	74147.5625
1610.79447	67741.9625
1614.10715	62114.7625
1617.41763	57802.5625
1620.7259	54910.1625
1624.03199	53550.7625
1627.33587	53755.2625
1630.63757	55529.8625
1633.93707	58785.4625
1637.23439	63712.1625
1640.52951	70201.1625
1643.82246	77123.0625
1647.11321	82142.4625
1650.40179	82293.0625
1653.68819	76355.0625
1656.97241	66974.4625
1660.25446	58130.0625
1663.53433	51957.0625
1666.81203	47924.5625
1670.08756	45423.5625
1673.36092	43807.2625
1676.63211	42725.8625
1679.90115	41919.9625
1683.16801	41306.7625
1686.43272	40787.6625
1689.69527	40462.1625
1692.95567	40177.3625
1696.2139	39985.3625
1699.46999	39805.1625
1702.72392	39777.9625
1705.97571	39691.0625
1709.22535	39637.8625
1712.47284	39626.8625
1715.71819	39569.2625
1718.96139	39489.2625
1722.20246	39354.6625
1725.44139	39209.5625
1728.67818	38988.6625
1731.91284	38769.9625
1735.14537	38599.5625
1738.37576	38498.1625
1741.60403	38362.6625
1744.83017	38238.6625
1748.05418	38194.3625
1751.27607	38079.1625
1754.49584	38105.8625
1757.71349	38050.9625
1760.92903	38023.9625
1764.14244	37939.4625
1767.35375	37951.4625
1770.56294	37888.3625
1773.77002	37853.9625
1776.97499	37881.8625
1780.17785	37754.9625
1783.37861	37689.6625
1786.57727	37638.0625
1789.77382	37583.2625
1792.96828	37535.3625
1796.16064	37536.3625
1799.3509	37417.0625
1802.53907	37320.5625
1805.72514	37279.5625
1808.90913	37206.4625
1812.09102	37194.3625
1815.27083	37124.0625
1818.44856	37097.4625
1821.6242	37042.0625
1824.79776	37001.2625
1827.96924	36927.9625
1831.13864	36844.2625
1834.30597	36957.7625
1837.47122	36878.2625
1840.6344	36864.7625
1843.7955	36840.1625
1846.95454	36835.1625
1850.11151	36871.0625
1853.26642	36849.8625
1856.41926	36895.5625
1859.57004	36894.7625
1862.71876	36826.0625
1865.86542	36883.0625
1869.01003	36927.7625
1872.15258	36874.6625
1875.29308	36858.7625
1878.43152	36862.8625
1881.56792	36827.0625
1884.70227	36800.1625
1887.83457	36762.1625
1890.96482	36789.3625
1894.09304	36771.2625
1897.21921	36858.3625
1900.34335	36757.4625
1903.46544	36665.8625
1906.58551	36714.7625
1909.70353	36653.0625
1912.81953	36646.4625
1915.93349	36590.2625
1919.04543	36585.5625
1922.15534	36452.6625
1925.26322	36445.0625
1928.36908	36410.2625
1931.47292	36334.5625
1934.57473	36254.9625
1937.67453	36189.6625
1940.77232	36076.6625
1943.86808	35960.6625
1946.96184	35806.7625
1950.05358	35714.2625
1953.14331	35590.0625
1956.23103	35485.9625
1959.31675	35404.5625
1962.40046	35299.4625
1965.48217	35214.7625
1968.56188	35145.3625
1971.63959	35042.4625
1974.7153	34945.0625
1977.78901	34921.6625
1980.86073	34766.4625
1983.93046	34680.4625
1986.99819	34608.0625
1990.06394	34514.1625
1993.1277	34371.6625
1996.18947	34281.1625
1999.24925	34279.3625
2002.30706	34127.1625
2005.36288	34100.7625
2008.41672	34074.3625
2011.46859	33955.8625
2014.51848	33859.8625
2017.56639	33795.6625
2020.61233	33714.5625
2023.6563	33703.6625
2026.6983	33599.7625
2029.73833	33575.5625
2032.7764	33480.9625
2035.8125	33447.7625
2038.84664	33404.9625
2041.87881	33426.2625
2044.90903	33301.0625
2047.93729	33254.0625
2050.96359	33289.2625
2053.98794	33184.7625
2057.01034	33194.0625
2060.03078	33217.6625
2063.04927	33216.5625
2066.06582	33170.3625
2069.08042	33191.8625
2072.09307	33142.1625
2075.10378	33127.9625
2078.11255	33082.5625
2081.11938	33124.0625
2084.12426	33011.1625
2087.12722	33040.8625
2090.12824	32999.5625
2093.12732	33046.5625
2096.12447	33028.7625
2099.11969	33039.0625
2102.11299	33047.3625
2105.10435	33041.8625
2108.09379	33043.4625
2111.08131	33071.9625
2114.0669	33083.3625
2117.05057	33080.5625
2120.03233	33087.1625
2123.01216	33118.0625
2125.99008	33143.4625
2128.96609	33266.9625
2131.94018	33362.9625
2134.91236	33387.9625
2137.88263	33427.8625
2140.851	33478.2625
2143.81746	33465.7625
2146.78201	33509.3625
2149.74466	33522.1625
2152.7054	33515.9625
2155.66425	33476.2625
2158.6212	33443.1625
2161.57625	33429.2625
2164.52941	33484.2625
2167.48067	33493.1625
2170.43004	33523.2625
2173.37752	33471.0625
2176.32311	33445.0625
2179.26681	33492.0625
2182.20863	33455.1625
2185.14856	33495.2625
2188.08661	33525.7625
2191.02278	33523.3625
2193.95707	33536.6625
2196.88948	33556.9625
2199.82001	33587.3625
2202.74867	33542.7625
2205.67545	33518.9625
2208.60037	33505.8625
2211.52341	33512.8625
2214.44458	33515.8625
2217.36388	33454.5625
2220.28132	33419.6625
2223.1969	33391.3625
2226.11061	33327.1625
2229.02246	33254.3625
2231.93245	33182.0625
2234.84058	33168.4625
2237.74686	33076.9625
2240.65128	33064.1625
2243.55385	32957.2625
2246.45456	32954.5625
2249.35343	32906.3625
2252.25044	32849.9625
2255.14561	32816.6625
2258.03893	32816.9625
2260.93041	32765.3625
2263.82004	32704.1625
2266.70783	32639.6625
2269.59378	32615.4625
2272.4779	32610.4625
2275.36017	32521.2625
2278.24061	32454.6625
2281.11922	32400.3625
2283.996	32417.9625
2286.87094	32353.0625
2289.74405	32272.0625
2292.61534	32325.8625
2295.4848	32363.4625
2298.35243	32375.5625
2301.21824	32429.2625
2304.08223	32440.9625
2306.94439	32375.1625
2309.80474	32410.7625
2312.66327	32476.2625
2315.51999	32500.0625
2318.37489	32557.5625
2321.22797	32545.3625
2324.07925	32498.5625
2326.92871	32464.2625
2329.77637	32465.6625
2332.62222	32495.8625
2335.46626	32474.0625
2338.3085	32445.2625
2341.14893	32413.5625
2343.98756	32469.1625
2346.8244	32595.1625
2349.65943	32653.0625
2352.49267	32639.1625
2355.32411	32636.5625
2358.15376	32555.9625
2360.98161	32516.7625
2363.80768	32524.1625
2366.63195	32502.2625
2369.45444	32439.3625
2372.27514	32380.5625
2375.09405	32270.0625
2377.91118	32142.2625
2380.72652	32086.7625
2383.54009	32015.8625
2386.35187	31997.7625
2389.16188	31952.6625
2391.97011	31938.8625
2394.77657	31930.4625
2397.58125	31888.0625
2400.38416	31813.4625
2403.18529	31809.8625
2405.98466	31759.6625
2408.78226	31668.8625
2411.57809	31566.2625
2414.37216	31470.8625
2417.16446	31437.1625
2419.955	31384.3625
2422.74378	31418.6625
2425.5308	31417.8625
2428.31606	31387.5625
2431.09956	31360.6625
2433.88131	31309.5625
2436.6613	31307.9625
2439.43954	31370.7625
2442.21603	31365.4625
2444.99077	31316.1625
2447.76377	31317.4625
2450.53501	31290.9625
2453.30451	31335.8625
2456.07226	31301.5625
2458.83827	31335.7625
2461.60254	31335.4625
2464.36507	31329.3625
2467.12586	31311.5625
2469.88492	31349.5625
2472.64224	31314.2625
2475.39782	31345.0625
2478.15167	31438.0625
2480.90379	31467.0625
2483.65417	31503.7625
2486.40283	31546.3625
2489.14976	31586.1625
2491.89497	31595.9625
2494.63845	31679.4625
2497.3802	31651.1625
2500.12024	31664.2625
2502.85855	31600.3625
2505.59514	31551.5625
2508.33002	31478.6625
2511.06318	31471.6625
2513.79462	31433.0625
2516.52435	31346.1625
2519.25237	31373.6625
2521.97867	31361.5625
2524.70327	31375.1625
2527.42616	31384.6625
2530.14734	31371.7625
2532.86681	31281.6625
2535.58458	31368.8625
2538.30065	31372.9625
2541.01501	31451.7625
2543.72768	31422.3625
2546.43864	31355.7625
2549.14791	31338.3625
2551.85548	31331.0625
2554.56136	31262.7625
2557.26554	31201.6625
2559.96803	31194.6625
2562.66883	31155.5625
2565.36794	31101.7625
2568.06536	31153.9625
2570.7611	31119.1625
2573.45514	31051.6625
2576.14751	31055.8625
2578.83819	31060.2625
2581.52719	31074.0625
2584.21451	31013.9625
2586.90015	31074.6625
2589.58411	31055.9625
2592.2664	31097.0625
2594.94701	31097.2625
2597.62594	31132.8625
2600.30321	31097.6625
2602.9788	31083.0625
2605.65273	31057.5625
2608.32498	31024.2625
2610.99557	31027.3625
2613.66449	31030.9625
2616.33175	31060.2625
2618.99734	31136.2625
2621.66128	31104.6625
2624.32355	31128.6625
2626.98416	31119.1625
2629.64311	31145.3625
2632.30041	31137.1625
2634.95605	31102.2625
2637.61004	31076.6625
2640.26238	31004.0625
2642.91306	31019.3625
2645.56209	30957.7625
2648.20948	30939.1625
2650.85521	30890.2625
2653.4993	30896.7625
2656.14175	30927.3625
2658.78255	30989.1625
2661.42171	30974.3625
2664.05923	31070.6625
2666.6951	31084.9625
2669.32934	31108.8625
2671.96194	31102.1625
2674.59291	31068.0625
2677.22224	31050.2625
2679.84993	31014.7625
2682.476	31029.3625
2685.10043	31012.4625
2687.72324	30959.3625
2690.34441	30879.7625
2692.96396	30902.3625
2695.58188	30968.0625
2698.19818	30922.2625
2700.81285	30883.1625
2703.4259	30858.9625
2706.03733	30862.9625
2708.64714	30873.1625
2711.25533	30903.2625
2713.86191	30898.0625
2716.46687	30994.6625
2719.07021	31004.3625
2721.67194	31052.8625
2724.27206	31095.2625
2726.87057	31106.4625
2729.46747	31070.5625
2732.06276	31164.3625
2734.65644	31137.9625
2737.24852	31144.5625
2739.83899	31066.0625
2742.42786	31087.4625
2745.01513	30969.5625
2747.60079	31009.8625
2750.18486	31040.7625
2752.76733	31057.3625
2755.3482	30988.9625
2757.92747	31012.7625
2760.50515	30997.4625
2763.08123	30950.5625
2765.65573	30939.6625
2768.22863	30985.3625
2770.79994	30951.0625
2773.36967	30998.3625
2775.9378	30919.1625
2778.50435	30954.0625
2781.06932	30954.1625
2783.6327	30898.4625
2786.1945	30855.6625
2788.75471	30872.7625
2791.31335	30797.9625
2793.87041	30830.7625
2796.42589	30753.4625
2798.97979	30773.6625
2801.53212	30740.6625
2804.08288	30763.4625
2806.63206	30683.3625
2809.17967	30582.6625
2811.72571	30538.4625
2814.27018	30528.7625
2816.81308	30465.3625
2819.35442	30435.3625
2821.89419	30379.7625
2824.43239	30400.1625
2826.96904	30407.6625
2829.50412	30458.0625
2832.03763	30380.7625
2834.56959	30370.8625
2837.1	30262.7625
2839.62884	30255.3625
2842.15613	30196.5625
2844.68186	30238.5625
2847.20604	30187.6625
2849.72867	30171.0625
2852.24974	30180.5625
2854.76927	30178.4625
2857.28724	30125.8625
2859.80367	30141.9625
2862.31855	30086.9625
2864.83189	30050.9625
2867.34368	30028.8625
2869.85393	30006.6625
2872.36264	29942.3625
2874.8698	29963.6625
2877.37543	29992.7625
2879.87952	29967.2625
2882.38207	29995.5625
2884.88308	29950.8625
2887.38256	30013.6625
2889.88051	30051.8625
2892.37692	30048.6625
2894.8718	30065.7625
2897.36515	30073.4625
2899.85698	30137.8625
2902.34727	30187.0625
2904.83604	30241.9625
2907.32328	30330.2625
2909.809	30331.4625
2912.29319	30402.6625
2914.77587	30323.8625
2917.25702	30372.1625
2919.73665	30390.2625
2922.21476	30402.1625
2924.69136	30320.5625
2927.16644	30287.8625
2929.64	30231.7625
2932.11205	30156.4625
2934.58258	30012.8625
2937.05161	30019.7625
2939.51912	30070.6625
2941.98513	30028.3625
2944.44962	29973.3625
2946.91261	29962.3625
2949.37409	30074.9625
2951.83407	30071.9625
2954.29254	30092.2625
2956.74951	30075.8625
2959.20498	30101.7625
2961.65895	30022.7625
2964.11142	30033.1625
2966.56239	29978.4625
2969.01186	29950.9625
2971.45984	29888.6625
2973.90632	29933.9625
2976.35131	29868.5625
2978.7948	29764.3625
2981.23681	29733.0625
2983.67732	29697.5625
2986.11635	29660.8625
2988.55388	29602.1625
2990.98993	29531.9625
2993.4245	29472.1625
2995.85758	29431.0625
2998.28917	29311.5625
3000.71928	29250.8625
3003.14791	29188.6625
3005.57506	29131.3625
3008.00073	29005.7625
3010.42493	29039.5625
3012.84764	28952.7625
3015.26888	28948.5625
3017.68865	28869.8625
3020.10694	28820.3625
3022.52376	28847.4625
3024.9391	28780.9625
3027.35298	28816.6625
3029.76539	28839.1625
3032.17632	28773.6625
3034.5858	28769.9625
3036.9938	28706.1625
3039.40034	28698.0625
3041.80542	28676.8625
3044.20903	28664.5625
3046.61118	28629.3625
3049.01187	28557.8625
3051.4111	28584.0625
3053.80888	28539.3625
3056.20519	28534.1625
3058.60005	28409.5625
3060.99345	28390.1625
3063.3854	28273.2625
3065.7759	28184.7625
3068.16494	28148.0625
3070.55254	28043.8625
3072.93868	27996.4625
3075.32338	27886.4625
3077.70662	27824.9625
3080.08842	27723.0625
3082.46878	27778.1625
3084.84769	27764.0625
3087.22515	27892.1625
3089.60118	27813.5625
3091.97576	27738.6625
3094.3489	27708.8625
3096.72061	27726.1625
3099.09087	27729.0625
3101.4597	27741.8625
3103.82709	27692.1625
3106.19305	27715.7625
3108.55757	27743.3625
3110.92066	27704.5625
3113.28232	27670.7625
3115.64255	27569.5625
3118.00134	27537.2625
3120.35871	27497.1625
3122.71466	27418.6625
3125.06917	27389.2625
3127.42226	27318.9625
3129.77393	27331.6625
3132.12417	27259.7625
3134.47299	27276.4625
3136.82039	27210.5625
3139.16636	27184.1625
3141.51092	27185.6625
3143.85406	27210.3625
3146.19579	27236.4625
3148.53609	27211.7625
3150.87499	27280.6625
3153.21246	27245.9625
3155.54853	27273.6625
3157.88318	27245.3625
3160.21642	27269.5625
3162.54826	27281.9625
3164.87868	27342.7625
3167.2077	27350.2625
3169.5353	27348.9625
3171.86151	27331.2625
3174.18631	27237.2625
3176.5097	27237.6625
3178.83169	27188.8625
3181.15228	27243.2625
3183.47147	27200.0625
3185.78926	27143.8625
3188.10565	27102.9625
3190.42065	27089.9625
3192.73424	27065.6625
3195.04645	27058.3625
3197.35725	27098.9625
3199.66667	27065.9625
3201.97469	27046.4625
3204.28132	27028.1625
3206.58656	27093.2625
3208.8904	27076.5625
3211.19287	27089.9625
3213.49394	27065.4625
3215.79363	27088.6625
3218.09193	27122.7625
3220.38884	27137.6625
3222.68438	27195.6625
3224.97853	27138.1625
3227.2713	27144.9625
3229.56269	27121.2625
3231.8527	27074.4625
3234.14133	27110.1625
3236.42858	27069.6625
3238.71446	27034.7625
3240.99896	26991.6625
3243.28209	26964.2625
3245.56384	26876.5625
3247.84423	26854.6625
3250.12324	26832.4625
3252.40088	26795.0625
3254.67715	26814.1625
3256.95205	26804.7625
3259.22558	26810.1625
3261.49775	26813.1625
3263.76855	26830.6625
3266.03799	26772.1625
3268.30606	26776.4625
3270.57277	26709.7625
3272.83812	26634.1625
3275.10211	26596.8625
3277.36474	26545.6625
3279.62601	26555.3625
3281.88593	26533.9625
3284.14448	26641.6625
3286.40168	26590.1625
3288.65753	26551.9625
3290.91202	26626.7625
3293.16516	26568.8625
3295.41695	26547.0625
3297.66738	26381.5625
3299.91647	26266.4625
3302.16421	26157.7625
3304.4106	26056.2625
3306.65564	25893.3625
3308.89933	25667.2625
3311.14169	25511.1625
3313.38269	25400.7625
3315.62236	25253.1625
3317.86068	25120.6625
3320.09766	25003.3625
3322.3333	24807.7625
3324.5676	24663.9625
3326.80056	24299.5625
3329.03219	24228.2625
3331.26248	4.7625
3333.49143	-0.6375
3335.71905	-0.6375
