Data from AgNPs_UA_2uM_CRN_0uM_R6G_10uM_Q_RamanShift__25__13-30-11-927.txt Node

Date: Wed Jul 13 13:30:11 BST 2022
User: TCL
Spectrometer: QEP01345
Trigger mode: 4
Integration Time (sec): 7.000000E0
Scans to average: 10
Electric dark correction enabled: true
Nonlinearity correction enabled: false
Boxcar width: 0
XAxis mode: Raman Shifts
Number of Pixels in Spectrum: 1044
>>>>>Begin Spectral Data<<<<<
46.04893	-1.3
50.45542	-1.5
54.85868	-0.9
59.25871	-0.1
63.6555	100.4
68.04907	104.4
72.43941	107.5
76.82654	111.7
81.21044	120.2
85.59113	121.6
89.96862	128.8
94.34289	128.2
98.71396	134.4
103.08183	135.8
107.4465	141.5
111.80798	141.9
116.16626	149.2
120.52136	157.1
124.87327	156.4
129.222	165.6
133.56755	176.5
137.90993	186.3
142.24913	200.9
146.58517	223.4
150.91804	257.9
155.24774	298.2
159.57429	367.8
163.89768	467.3
168.21792	604.4
172.53501	822.9
176.84895	1138.9
181.15975	1576.4
185.46741	2207.8
189.77193	3036.1
194.07331	4034.8
198.37157	5168.7
202.6667	6362.2
206.9587	7545
211.24758	8693.4
215.53334	9882.1
219.81599	11153.6
224.09553	12566.3
228.37195	14117.8
232.64527	15856.2
236.91549	17604.5
241.18261	19399.1
245.44663	20989.4
249.70755	22492.3
253.96539	23756.4
258.22014	24881.8
262.4718	25790.8
266.72039	26405
270.96589	26792.1
275.20832	26769.7
279.44768	26650.4
283.68397	26524.4
287.91719	26346.9
292.14735	26214.5
296.37445	26185.3
300.59849	26343.9
304.81948	26518
309.03742	26530.8
313.25231	26302
317.46415	25833.2
321.67296	25198.5
325.87872	24763
330.08145	24632.1
334.28114	24755
338.47781	25086.2
342.67145	25496.7
346.86207	26065.8
351.04966	26715.7
355.23424	27402.7
359.4158	27936.4
363.59435	28346.4
367.76989	28639.9
371.94243	28796.4
376.11196	28960.6
380.27849	29063.1
384.44203	29179.2
388.60257	29327.6
392.76012	29540.3
396.91468	29963.9
401.06626	30478.6
405.21485	30932.7
409.36047	30874.6
413.50311	30509.6
417.64277	30284.2
421.77947	30297
425.9132	30487.5
430.04396	30766.9
434.17176	31094.8
438.2966	31559.7
442.41849	32394.6
446.53742	33475.3
450.6534	34605.1
454.76644	35293.2
458.87653	35428.4
462.98368	35008.4
467.08789	34299.1
471.18916	33568.1
475.2875	32935.4
479.38291	32556.7
483.4754	32226.4
487.56496	31901.8
491.6516	31486.9
495.73531	31209.5
499.81612	31069.5
503.89401	31203.6
507.96899	31240.4
512.04106	31249.9
516.11023	31240.2
520.1765	31196.2
524.23987	31178.9
528.30034	31063.6
532.35792	30813.9
536.41261	30483.1
540.46441	30232.4
544.51333	30278.6
548.55936	30583.6
552.60252	31169.2
556.64279	31810.5
560.6802	32135
564.71473	32420.2
568.7464	33000.6
572.7752	33634.5
576.80114	33890.6
580.82422	34168.4
584.84444	34783.5
588.86181	35662.1
592.87633	36681.8
596.888	37336.9
600.89682	37582.4
604.9028	39011.2
608.90594	42520.6
612.90624	45095.6
616.90371	41466.9
620.89834	35764
624.89015	34183.5
628.87913	34132.6
632.86528	33688.3
636.84862	32880.6
640.82913	32089.7
644.80683	31318.5
648.78172	30866.4
652.75379	31003.8
656.72306	31523.5
660.68952	32115.7
664.65319	32004.2
668.61405	31472.1
672.57211	31303.2
676.52738	31260.3
680.47986	31127.9
684.42955	31090.2
688.37646	31223.8
692.32058	31408.5
696.26192	31706.9
700.20048	32045.8
704.13626	32240.2
708.06928	32093.5
711.99952	31871
715.927	31831.4
719.85171	31809.4
723.77365	31650.2
727.69284	31354
731.60928	31263.9
735.52295	31339.5
739.43388	31523.1
743.34206	31750.4
747.24749	31949.2
751.15017	32338.9
755.05012	32892.9
758.94733	33892.4
762.8418	35679.2
766.73354	38186.5
770.62254	40266.6
774.50882	40355.9
778.39237	38437.4
782.27321	35848.9
786.15132	33811.2
790.02671	32672
793.89938	32241
797.76935	32049
801.6366	31996.8
805.50115	31905.8
809.36299	31717.9
813.22213	31605.5
817.07857	31551.7
820.93231	31546.2
824.78336	31580.6
828.63172	31710.8
832.47738	31824.4
836.32036	31956.8
840.16066	32182.4
843.99827	32345.5
847.8332	32221.3
851.66546	32000.4
855.49504	31939.1
859.32195	31910.5
863.1462	31694.5
866.96777	31551.5
870.78668	31495.4
874.60293	31529.2
878.41652	31631.6
882.22745	31742
886.03573	31820.9
889.84136	31767.4
893.64433	31647.4
897.44466	31582.7
901.24235	31520.6
905.0374	31522.2
908.8298	31484.9
912.61957	31583.2
916.40671	31909
920.19121	32415.8
923.97308	32906
927.75233	33194.2
931.52895	33120.9
935.30295	32727.9
939.07433	32073.6
942.84309	31634.3
946.60924	31578.3
950.37278	31428.6
954.13371	31191.7
957.89203	30969
961.64774	30875.3
965.40086	30808
969.15137	30730.2
972.89929	30597.9
976.64461	30587.4
980.38733	30701.5
984.12747	30891.1
987.86502	31275
991.59999	31827.6
995.33237	32716.9
999.06217	34223
1002.78939	35690.8
1006.51404	36289.1
1010.23611	36354.1
1013.95561	36596.2
1017.67255	36731
1021.38692	36439.9
1025.09872	36454.8
1028.80796	37401.7
1032.51465	39245.9
1036.21877	40433.4
1039.92035	40131.1
1043.61937	38893.3
1047.31584	37200.9
1051.00976	35645.5
1054.70114	34888.1
1058.38998	34729.4
1062.07627	34785.7
1065.76003	34746.9
1069.44126	34791
1073.11995	35051
1076.79611	35252
1080.46974	35450.2
1084.14085	35762.4
1087.80943	36100.7
1091.47549	36054.9
1095.13903	35712.8
1098.80005	35084.9
1102.45857	34639.4
1106.11456	34453.7
1109.76805	34571.6
1113.41903	34834.9
1117.06751	35209.5
1120.71348	35618.8
1124.35696	35999.6
1127.99793	36234.6
1131.63641	36191.1
1135.2724	35895
1138.90589	35588.7
1142.5369	35366.9
1146.16542	35296.5
1149.79145	35415.3
1153.415	35711.9
1157.03607	36080.3
1160.65467	36748.7
1164.27079	37793.8
1167.88443	39476
1171.49561	41898.8
1175.10432	45372.3
1178.71056	49507.5
1182.31434	53112
1185.91565	54780.8
1189.51451	54224.3
1193.11091	51916.7
1196.70485	49152.3
1200.29634	46811.9
1203.88538	45095.5
1207.47197	43690.4
1211.05612	42745.5
1214.63782	42469.4
1218.21708	42853
1221.79391	43460.3
1225.36829	43790.1
1228.94024	43313.9
1232.50976	42365
1236.07685	41552.5
1239.6415	41203.1
1243.20374	41145.6
1246.76355	41445.8
1250.32093	42018.8
1253.8759	43044.9
1257.42845	44325
1260.97859	45304.6
1264.52631	46154.7
1268.07163	47078.2
1271.61453	48327.8
1275.15503	49896.4
1278.69312	51686.2
1282.22882	53173.8
1285.76211	54247.8
1289.29301	55128.1
1292.82151	56358.3
1296.34761	58192.3
1299.87133	61040.2
1303.39266	64940.9
1306.9116	69988.9
1310.42815	75303.3
1313.94233	78614
1317.45412	78102.4
1320.96354	75214.1
1324.47058	71942.7
1327.97525	69143
1331.47754	67383.6
1334.97747	66816.6
1338.47502	67097
1341.97022	67658.6
1345.46305	67672.2
1348.95352	67206.2
1352.44163	66846.9
1355.92738	68198.8
1359.41078	71678.8
1362.89183	74239
1366.37053	72101.9
1369.84688	65799.6
1373.32088	59110
1376.79254	54771.5
1380.26186	52789
1383.72883	52174.6
1387.19347	51930.4
1390.65578	51534.1
1394.11575	51783.7
1397.57339	52644.7
1401.0287	54082.9
1404.48168	55290.1
1407.93234	56071.6
1411.38068	56338.6
1414.82669	55500.6
1418.27039	53726.9
1421.71177	51479.4
1425.15083	49709.1
1428.58758	48912.2
1432.02203	49127.5
1435.45416	49805.8
1438.88399	50576.2
1442.31151	51193
1445.73673	51712.9
1449.15965	52112.9
1452.58027	52106.6
1455.9986	51898.2
1459.41463	51882
1462.82837	52340.5
1466.23982	53237.9
1469.64898	54062.6
1473.05586	54627
1476.46045	55005.5
1479.86276	55153.8
1483.26279	55269.7
1486.66054	55438.8
1490.05602	55870
1493.44922	56417.6
1496.84016	56814.4
1500.22882	57353.2
1503.61521	58289
1506.99934	59821.9
1510.38121	61404.1
1513.76081	61977.3
1517.13816	60868.3
1520.51324	58675
1523.88607	56602.6
1527.25665	55248.6
1530.62498	54564.5
1533.99105	54241.6
1537.35488	54039.8
1540.71647	53886.9
1544.07581	53443.8
1547.4329	52799.6
1550.78776	51996.5
1554.14038	51166.1
1557.49077	50641.1
1560.83892	50445
1564.18484	50257.9
1567.52853	50041.8
1570.86999	49879.9
1574.20922	50003.2
1577.54624	50086.8
1580.88103	49834.7
1584.2136	49940.1
1587.54395	51316.5
1590.87208	54370.9
1594.19801	58897.6
1597.52172	63635
1600.84321	65794.1
1604.16251	63735.6
1607.47959	58715.1
1610.79447	53187
1614.10715	48389.9
1617.41763	44875.6
1620.7259	42721.5
1624.03199	41817.2
1627.33587	42018.3
1630.63757	43224.1
1633.93707	45678.1
1637.23439	49140.2
1640.52951	53361.6
1643.82246	57617.7
1647.11321	60480.6
1650.40179	60095.7
1653.68819	56152.2
1656.97241	50053.6
1660.25446	44359.3
1663.53433	40179.1
1666.81203	37517.6
1670.08756	35882.4
1673.36092	34765.1
1676.63211	34002.8
1679.90115	33474.1
1683.16801	33104.3
1686.43272	32763.9
1689.69527	32556
1692.95567	32420.5
1696.2139	32351.4
1699.46999	32304.7
1702.72392	32230.3
1705.97571	32260.7
1709.22535	32234
1712.47284	32209.3
1715.71819	32194.6
1718.96139	32203.3
1722.20246	32136.5
1725.44139	32000.9
1728.67818	31908
1731.91284	31771.3
1735.14537	31619.2
1738.37576	31519.9
1741.60403	31418.9
1744.83017	31344.4
1748.05418	31347.9
1751.27607	31334.9
1754.49584	31321.3
1757.71349	31284.5
1760.92903	31224.1
1764.14244	31176.5
1767.35375	31199.7
1770.56294	31199.1
1773.77002	31208.3
1776.97499	31146.8
1780.17785	31138.2
1783.37861	31138.6
1786.57727	31091.1
1789.77382	31072.6
1792.96828	31097.3
1796.16064	31072
1799.3509	31041.8
1802.53907	31037.1
1805.72514	30996.8
1808.90913	30939.1
1812.09102	30875.5
1815.27083	30824.9
1818.44856	30736.3
1821.6242	30697.1
1824.79776	30695
1827.96924	30689
1831.13864	30659.5
1834.30597	30637.2
1837.47122	30635.9
1840.6344	30662.7
1843.7955	30633.7
1846.95454	30618.3
1850.11151	30637.5
1853.26642	30624.2
1856.41926	30634.7
1859.57004	30681.6
1862.71876	30703.5
1865.86542	30725.1
1869.01003	30692.8
1872.15258	30668.7
1875.29308	30677.2
1878.43152	30685.1
1881.56792	30697.4
1884.70227	30693.6
1887.83457	30706
1890.96482	30683
1894.09304	30703.7
1897.21921	30701.4
1900.34335	30689.6
1903.46544	30707.6
1906.58551	30700.3
1909.70353	30681.2
1912.81953	30699.2
1915.93349	30678.7
1919.04543	30641.8
1922.15534	30598.4
1925.26322	30565.2
1928.36908	30542.6
1931.47292	30506.5
1934.57473	30468.2
1937.67453	30388.4
1940.77232	30317.8
1943.86808	30213.7
1946.96184	30197.7
1950.05358	30060.4
1953.14331	29979.1
1956.23103	29908.7
1959.31675	29836.5
1962.40046	29727.9
1965.48217	29671.9
1968.56188	29591.9
1971.63959	29489.9
1974.7153	29404.3
1977.78901	29365.4
1980.86073	29240.7
1983.93046	29162.6
1986.99819	29060.8
1990.06394	29038.3
1993.1277	28972.8
1996.18947	28914.4
1999.24925	28861.6
2002.30706	28807.4
2005.36288	28729.3
2008.41672	28665.9
2011.46859	28582.5
2014.51848	28496.3
2017.56639	28417.1
2020.61233	28391.9
2023.6563	28285.9
2026.6983	28299.4
2029.73833	28269.3
2032.7764	28218.8
2035.8125	28175.8
2038.84664	28138.7
2041.87881	28103.4
2044.90903	28101.4
2047.93729	28043.8
2050.96359	28050.2
2053.98794	28024
2057.01034	28036.6
2060.03078	27984.4
2063.04927	27948.9
2066.06582	27950.7
2069.08042	27923.4
2072.09307	27926.3
2075.10378	27885.4
2078.11255	27886.2
2081.11938	27828.9
2084.12426	27771.6
2087.12722	27768.6
2090.12824	27737.2
2093.12732	27737.9
2096.12447	27724.3
2099.11969	27792.5
2102.11299	27775.8
2105.10435	27777.3
2108.09379	27780.3
2111.08131	27844
2114.0669	27841.1
2117.05057	27878.7
2120.03233	27890.2
2123.01216	27933.7
2125.99008	27882.3
2128.96609	27960.2
2131.94018	28018.3
2134.91236	28038.2
2137.88263	28076.8
2140.851	28068.4
2143.81746	28124.1
2146.78201	28132.8
2149.74466	28188.4
2152.7054	28142.1
2155.66425	28171.4
2158.6212	28145.9
2161.57625	28146.7
2164.52941	28165.2
2167.48067	28185.6
2170.43004	28197.7
2173.37752	28142.9
2176.32311	28150.4
2179.26681	28164.8
2182.20863	28176.3
2185.14856	28229.8
2188.08661	28237.9
2191.02278	28279.5
2193.95707	28287.5
2196.88948	28258.6
2199.82001	28290.5
2202.74867	28255.7
2205.67545	28264
2208.60037	28260.4
2211.52341	28279.1
2214.44458	28256.6
2217.36388	28250.4
2220.28132	28211
2223.1969	28128.1
2226.11061	28182.9
2229.02246	28070.5
2231.93245	28029
2234.84058	27980.2
2237.74686	27949.1
2240.65128	27932.8
2243.55385	27915.2
2246.45456	27881.8
2249.35343	27853.2
2252.25044	27825.1
2255.14561	27819.7
2258.03893	27763.2
2260.93041	27771
2263.82004	27677.6
2266.70783	27590.2
2269.59378	27514.6
2272.4779	27472.8
2275.36017	27353.9
2278.24061	27321.8
2281.11922	27290.8
2283.996	27298
2286.87094	27242.9
2289.74405	27249.9
2292.61534	27238.3
2295.4848	27259.9
2298.35243	27288.4
2301.21824	27264
2304.08223	27305.7
2306.94439	27334.4
2309.80474	27371.6
2312.66327	27420.1
2315.51999	27452.2
2318.37489	27415.2
2321.22797	27440.1
2324.07925	27420.5
2326.92871	27424.4
2329.77637	27332.2
2332.62222	27400.5
2335.46626	27394.8
2338.3085	27406.9
2341.14893	27399.6
2343.98756	27472.1
2346.8244	27488
2349.65943	27508.2
2352.49267	27504.9
2355.32411	27532.1
2358.15376	27528.3
2360.98161	27415.5
2363.80768	27432.8
2366.63195	27380.4
2369.45444	27282.5
2372.27514	27270.7
2375.09405	27174.8
2377.91118	27139.1
2380.72652	27087.1
2383.54009	27022.6
2386.35187	27037.5
2389.16188	26944.6
2391.97011	26872.8
2394.77657	26861
2397.58125	26858.5
2400.38416	26825.2
2403.18529	26757.4
2405.98466	26707
2408.78226	26606.3
2411.57809	26579.7
2414.37216	26563.1
2417.16446	26519.1
2419.955	26446.1
2422.74378	26453.7
2425.5308	26428.1
2428.31606	26420.3
2431.09956	26399.2
2433.88131	26371.9
2436.6613	26371
2439.43954	26359.9
2442.21603	26386.1
2444.99077	26389.1
2447.76377	26382.8
2450.53501	26332.7
2453.30451	26384.3
2456.07226	26311.9
2458.83827	26333.6
2461.60254	26357.5
2464.36507	26302.5
2467.12586	26267.2
2469.88492	26234.3
2472.64224	26290.7
2475.39782	26306.4
2478.15167	26415.5
2480.90379	26416.9
2483.65417	26460.6
2486.40283	26446.7
2489.14976	26520.6
2491.89497	26500.1
2494.63845	26545.1
2497.3802	26601.1
2500.12024	26613.3
2502.85855	26588.8
2505.59514	26555.5
2508.33002	26520
2511.06318	26504.7
2513.79462	26383.1
2516.52435	26360.5
2519.25237	26358.8
2521.97867	26366.1
2524.70327	26335.4
2527.42616	26346
2530.14734	26346.5
2532.86681	26312.1
2535.58458	26310
2538.30065	26315.3
2541.01501	26345.7
2543.72768	26255.1
2546.43864	26306.8
2549.14791	26294.9
2551.85548	26257.7
2554.56136	26232.2
2557.26554	26198.5
2559.96803	26165
2562.66883	26123.3
2565.36794	26104.6
2568.06536	26107.1
2570.7611	26079.4
2573.45514	26105.2
2576.14751	26102.3
2578.83819	26058.9
2581.52719	26078
2584.21451	26108.8
2586.90015	26088.1
2589.58411	26078
2592.2664	26105.8
2594.94701	26080.6
2597.62594	26105.9
2600.30321	26106.5
2602.9788	26108.5
2605.65273	26048.2
2608.32498	26079
2610.99557	26039.7
2613.66449	26044.2
2616.33175	26162.7
2618.99734	26174.5
2621.66128	26179.1
2624.32355	26179.2
2626.98416	26229.8
2629.64311	26252.9
2632.30041	26259.9
2634.95605	26230.9
2637.61004	26167.6
2640.26238	26132.1
2642.91306	26067.2
2645.56209	26028.6
2648.20948	25998.5
2650.85521	25957.2
2653.4993	25959.6
2656.14175	25924.5
2658.78255	25982.7
2661.42171	25993.6
2664.05923	25996.3
2666.6951	26022.2
2669.32934	26028.1
2671.96194	26076.1
2674.59291	26078.4
2677.22224	26070.1
2679.84993	26081.3
2682.476	26042.9
2685.10043	26059.7
2687.72324	26032
2690.34441	25992.2
2692.96396	26009.1
2695.58188	25965.4
2698.19818	25964.2
2700.81285	25933.6
2703.4259	25938.6
2706.03733	25957.8
2708.64714	26043.2
2711.25533	25995.2
2713.86191	25994.5
2716.46687	26046
2719.07021	26008.2
2721.67194	26048.4
2724.27206	26020
2726.87057	26066
2729.46747	26079.4
2732.06276	26155.3
2734.65644	26153.2
2737.24852	26137.4
2739.83899	26108.9
2742.42786	26093.6
2745.01513	26036.5
2747.60079	26012.9
2750.18486	25996
2752.76733	25994.2
2755.3482	26017.2
2757.92747	26047.9
2760.50515	25982.8
2763.08123	25977
2765.65573	25948.1
2768.22863	25939.7
2770.79994	25993.4
2773.36967	26014.6
2775.9378	25971.6
2778.50435	26028.5
2781.06932	25975.2
2783.6327	26011.9
2786.1945	25954.7
2788.75471	25985.6
2791.31335	25907.9
2793.87041	25871
2796.42589	25862.2
2798.97979	25844.1
2801.53212	25810.9
2804.08288	25763.7
2806.63206	25681.4
2809.17967	25638.6
2811.72571	25597
2814.27018	25578.1
2816.81308	25556.1
2819.35442	25554.4
2821.89419	25473.7
2824.43239	25500.2
2826.96904	25502.7
2829.50412	25476.1
2832.03763	25463.4
2834.56959	25452.9
2837.1	25436.1
2839.62884	25442.4
2842.15613	25397.5
2844.68186	25422.5
2847.20604	25415.7
2849.72867	25396.8
2852.24974	25348.5
2854.76927	25378.9
2857.28724	25309.9
2859.80367	25299.1
2862.31855	25276.3
2864.83189	25242.5
2867.34368	25238.4
2869.85393	25208.1
2872.36264	25197.3
2874.8698	25161.8
2877.37543	25179.3
2879.87952	25175.7
2882.38207	25179.6
2884.88308	25201.7
2887.38256	25202.5
2889.88051	25193.7
2892.37692	25245.8
2894.8718	25289.9
2897.36515	25315.5
2899.85698	25281.7
2902.34727	25357.7
2904.83604	25410
2907.32328	25441.4
2909.809	25493.1
2912.29319	25502.3
2914.77587	25481.4
2917.25702	25496.4
2919.73665	25468.6
2922.21476	25442.6
2924.69136	25381.4
2927.16644	25396.9
2929.64	25344.7
2932.11205	25337.5
2934.58258	25274
2937.05161	25302.3
2939.51912	25293.1
2941.98513	25299.4
2944.44962	25259.7
2946.91261	25218
2949.37409	25305
2951.83407	25253.2
2954.29254	25268.1
2956.74951	25281.6
2959.20498	25302.2
2961.65895	25236.3
2964.11142	25241
2966.56239	25233.7
2969.01186	25212.3
2971.45984	25141.5
2973.90632	25118.7
2976.35131	25072.5
2978.7948	25071.6
2981.23681	24966.2
2983.67732	24969.2
2986.11635	24883.5
2988.55388	24881.7
2990.98993	24856.5
2993.4245	24757.9
2995.85758	24711.6
2998.28917	24626.1
3000.71928	24633.6
3003.14791	24594.4
3005.57506	24560.9
3008.00073	24503.8
3010.42493	24483.4
3012.84764	24413.9
3015.26888	24418.2
3017.68865	24364.8
3020.10694	24355.8
3022.52376	24299.9
3024.9391	24270.7
3027.35298	24255.1
3029.76539	24237.3
3032.17632	24286.9
3034.5858	24215.3
3036.9938	24200.7
3039.40034	24184.3
3041.80542	24153.8
3044.20903	24129.9
3046.61118	24111.2
3049.01187	24102.1
3051.4111	24090.3
3053.80888	24008.6
3056.20519	23984.1
3058.60005	23946.8
3060.99345	23887.6
3063.3854	23875.2
3065.7759	23800.9
3068.16494	23693.2
3070.55254	23615.3
3072.93868	23549.9
3075.32338	23515
3077.70662	23462.6
3080.08842	23382.3
3082.46878	23377
3084.84769	23385.2
3087.22515	23369
3089.60118	23392.3
3091.97576	23389.1
3094.3489	23345
3096.72061	23340.1
3099.09087	23353.3
3101.4597	23344.6
3103.82709	23335.2
3106.19305	23303.8
3108.55757	23347.8
3110.92066	23271.9
3113.28232	23261.5
3115.64255	23234.4
3118.00134	23221.3
3120.35871	23182.1
3122.71466	23136.2
3125.06917	23098.9
3127.42226	23072.6
3129.77393	23075.1
3132.12417	23014.5
3134.47299	22992.8
3136.82039	22975
3139.16636	22991.5
3141.51092	22951.2
3143.85406	22970.5
3146.19579	22986.1
3148.53609	22975.5
3150.87499	23008.4
3153.21246	23018.3
3155.54853	23011.1
3157.88318	22985.2
3160.21642	23009.1
3162.54826	23005.2
3164.87868	23012.6
3167.2077	22993
3169.5353	23017.9
3171.86151	22991.7
3174.18631	22960.6
3176.5097	22944.4
3178.83169	22892.3
3181.15228	22918.8
3183.47147	22884
3185.78926	22890.3
3188.10565	22858.6
3190.42065	22839.2
3192.73424	22855.8
3195.04645	22820.7
3197.35725	22802.4
3199.66667	22815.4
3201.97469	22804.8
3204.28132	22826.3
3206.58656	22879.8
3208.8904	22837.2
3211.19287	22848.1
3213.49394	22856.8
3215.79363	22875.9
3218.09193	22848.9
3220.38884	22856.3
3222.68438	22886.6
3224.97853	22930.7
3227.2713	22916
3229.56269	22906.2
3231.8527	22906
3234.14133	22895.3
3236.42858	22846.3
3238.71446	22823.1
3240.99896	22735.7
3243.28209	22729.5
3245.56384	22708.9
3247.84423	22752.3
3250.12324	22710.5
3252.40088	22716.9
3254.67715	22667.6
3256.95205	22632.7
3259.22558	22658.5
3261.49775	22659.9
3263.76855	22688.7
3266.03799	22681.5
3268.30606	22627.2
3270.57277	22610
3272.83812	22598.4
3275.10211	22544.6
3277.36474	22515.2
3279.62601	22455.5
3281.88593	22428.7
3284.14448	22479.4
3286.40168	22497.3
3288.65753	22486.8
3290.91202	22491.4
3293.16516	22411.4
3295.41695	22411.6
3297.66738	22302.1
3299.91647	22247.6
3302.16421	22119.4
3304.4106	21990.2
3306.65564	21866.6
3308.89933	21696.1
3311.14169	21603.9
3313.38269	21430.5
3315.62236	21332.8
3317.86068	21180.9
3320.09766	21082.6
3322.3333	20929.6
3324.5676	20848.6
3326.80056	20583
3329.03219	20495.7
3331.26248	3.1
3333.49143	1.4
3335.71905	-0.1
