Data from AgNPs_UA_20uM_CRN_0uM_R6G_10uM_Q_RamanShift__3__12-39-52-005.txt Node

Date: Mon Jul 18 12:39:52 BST 2022
User: TCL
Spectrometer: QEP01345
Trigger mode: 4
Integration Time (sec): 7.000000E0
Scans to average: 10
Electric dark correction enabled: true
Nonlinearity correction enabled: false
Boxcar width: 0
XAxis mode: Raman Shifts
Number of Pixels in Spectrum: 1044
>>>>>Begin Spectral Data<<<<<
46.04893	-2.1625
50.45542	-1.7625
54.85868	-0.9625
59.25871	-1.5625
63.6555	136.2375
68.04907	148.7375
72.43941	153.2375
76.82654	155.8375
81.21044	160.2375
85.59113	168.0375
89.96862	173.0375
94.34289	177.4375
98.71396	186.5375
103.08183	191.7375
107.4465	196.8375
111.80798	203.5375
116.16626	207.4375
120.52136	217.5375
124.87327	229.6375
129.222	240.0375
133.56755	259.2375
137.90993	279.9375
142.24913	307.1375
146.58517	354.1375
150.91804	408.3375
155.24774	486.8375
159.57429	609.5375
163.89768	791.5375
168.21792	1054.7375
172.53501	1446.4375
176.84895	2020.6375
181.15975	2847.1375
185.46741	4012.7375
189.77193	5542.9375
194.07331	7421.5375
198.37157	9503.0375
202.6667	11712.3375
206.9587	13933.7375
211.24758	16081.8375
215.53334	18293.0375
219.81599	20692.3375
224.09553	23391.8375
228.37195	26311.5375
232.64527	29543.8375
236.91549	32743.0375
241.18261	35940.7375
245.44663	38551.4375
249.70755	40851.4375
253.96539	42770.4375
258.22014	44446.7375
262.4718	45829.7375
266.72039	46829.3375
270.96589	47276.4375
275.20832	47227.4375
279.44768	46794.9375
283.68397	46302.4375
287.91719	45846.7375
292.14735	45781.5375
296.37445	46278.8375
300.59849	47049.7375
304.81948	47989.7375
309.03742	48704.8375
313.25231	48922.8375
317.46415	48137.7375
321.67296	46714.5375
325.87872	45383.2375
330.08145	44851.8375
334.28114	44795.3375
338.47781	45188.6375
342.67145	46013.6375
346.86207	46974.9375
351.04966	48175.7375
355.23424	49505.4375
359.4158	50371.2375
363.59435	50964.8375
367.76989	51186.2375
371.94243	51120.6375
376.11196	51054.9375
380.27849	51060.7375
384.44203	51222.3375
388.60257	51426.3375
392.76012	51822.1375
396.91468	52342.4375
401.06626	53099.7375
405.21485	53503.5375
409.36047	52899.0375
413.50311	51661.7375
417.64277	50824.4375
421.77947	50468.4375
425.9132	50447.3375
430.04396	50698.4375
434.17176	51002.3375
438.2966	51568.0375
442.41849	52651.2375
446.53742	54248.0375
450.6534	55858.6375
454.76644	56716.2375
458.87653	56712.7375
462.98368	56158.7375
467.08789	55325.9375
471.18916	54353.7375
475.2875	53306.3375
479.38291	52481.5375
483.4754	51686.3375
487.56496	51139.0375
491.6516	50796.9375
495.73531	50639.7375
499.81612	50746.3375
503.89401	51129.6375
507.96899	51262.5375
512.04106	51360.4375
516.11023	51450.5375
520.1765	51517.2375
524.23987	51489.8375
528.30034	51451.0375
532.35792	51152.4375
536.41261	50659.0375
540.46441	50021.4375
544.51333	49904.1375
548.55936	50470.2375
552.60252	51561.7375
556.64279	52765.3375
560.6802	53596.3375
564.71473	53955.1375
568.7464	54686.6375
572.7752	55604.0375
576.80114	56103.9375
580.82422	56725.7375
584.84444	58016.2375
588.86181	59818.9375
592.87633	61761.0375
596.888	62208.2375
600.89682	61497.0375
604.9028	63557.1375
608.90594	71359.8375
612.90624	78755.6375
616.90371	72217.1375
620.89834	58620.5375
624.89015	53174.9375
628.87913	52606.6375
632.86528	53067.7375
636.84862	53137.3375
640.82913	52133.8375
644.80683	50638.8375
648.78172	49785.3375
652.75379	49956.1375
656.72306	51150.2375
660.68952	52310.7375
664.65319	51699.7375
668.61405	50623.3375
672.57211	50549.5375
676.52738	50785.1375
680.47986	50509.8375
684.42955	49926.0375
688.37646	49872.6375
692.32058	50337.4375
696.26192	51094.1375
700.20048	51842.3375
704.13626	52066.0375
708.06928	51778.3375
711.99952	51430.2375
715.927	51426.3375
719.85171	51710.8375
723.77365	51577.6375
727.69284	50919.0375
731.60928	50445.0375
735.52295	50355.4375
739.43388	50523.7375
743.34206	50718.9375
747.24749	50915.7375
751.15017	51167.4375
755.05012	52105.0375
758.94733	54039.3375
762.8418	57993.0375
766.73354	63944.6375
770.62254	68567.8375
774.50882	68915.8375
778.39237	65379.3375
782.27321	60348.8375
786.15132	55923.2375
790.02671	53093.2375
793.89938	51676.4375
797.76935	51094.8375
801.6366	50787.8375
805.50115	50496.2375
809.36299	50286.8375
813.22213	49930.4375
817.07857	49770.0375
820.93231	49727.0375
824.78336	49726.9375
828.63172	49772.8375
832.47738	49820.9375
836.32036	49730.8375
840.16066	49800.5375
843.99827	49881.5375
847.8332	49821.3375
851.66546	49889.7375
855.49504	49991.4375
859.32195	49955.2375
863.1462	49865.3375
866.96777	49792.4375
870.78668	49842.8375
874.60293	49866.4375
878.41652	50020.3375
882.22745	50341.2375
886.03573	50492.9375
889.84136	50455.6375
893.64433	50180.7375
897.44466	49999.5375
901.24235	49782.9375
905.0374	49631.7375
908.8298	49472.6375
912.61957	49536.2375
916.40671	49808.0375
920.19121	50299.9375
923.97308	50828.1375
927.75233	51176.8375
931.52895	51200.0375
935.30295	50582.6375
939.07433	49689.0375
942.84309	48956.0375
946.60924	48710.6375
950.37278	48618.0375
954.13371	48563.7375
957.89203	48543.3375
961.64774	48472.9375
965.40086	48444.2375
969.15137	48429.3375
972.89929	48362.6375
976.64461	48501.7375
980.38733	48524.4375
984.12747	48764.8375
987.86502	49069.2375
991.59999	49373.2375
995.33237	49930.4375
999.06217	50940.8375
1002.78939	52107.1375
1006.51404	52963.7375
1010.23611	53754.5375
1013.95561	54223.8375
1017.67255	54306.3375
1021.38692	53782.6375
1025.09872	53054.3375
1028.80796	52821.6375
1032.51465	53175.3375
1036.21877	53799.5375
1039.92035	54003.9375
1043.61937	53792.9375
1047.31584	53338.2375
1051.00976	52771.4375
1054.70114	52428.6375
1058.38998	52565.4375
1062.07627	52874.1375
1065.76003	53251.0375
1069.44126	53807.1375
1073.11995	54714.3375
1076.79611	55653.3375
1080.46974	56217.8375
1084.14085	56958.3375
1087.80943	57700.4375
1091.47549	58010.0375
1095.13903	57495.8375
1098.80005	56375.5375
1102.45857	55371.5375
1106.11456	54732.7375
1109.76805	54638.6375
1113.41903	55041.3375
1117.06751	55782.4375
1120.71348	56772.1375
1124.35696	57799.2375
1127.99793	58531.7375
1131.63641	58297.9375
1135.2724	57287.8375
1138.90589	56513.4375
1142.5369	56058.8375
1146.16542	55961.4375
1149.79145	56040.9375
1153.415	56267.7375
1157.03607	56704.7375
1160.65467	57766.1375
1164.27079	59664.0375
1167.88443	62356.9375
1171.49561	66127.6375
1175.10432	71373.5375
1178.71056	77872.2375
1182.31434	83282.7375
1185.91565	85062.8375
1189.51451	83762.3375
1193.11091	80672.5375
1196.70485	77329.5375
1200.29634	74194.0375
1203.88538	71612.0375
1207.47197	69129.7375
1211.05612	67035.4375
1214.63782	65545.2375
1218.21708	64712.2375
1221.79391	64289.6375
1225.36829	64369.6375
1228.94024	64004.3375
1232.50976	63128.4375
1236.07685	62174.1375
1239.6415	61650.1375
1243.20374	61677.7375
1246.76355	62061.3375
1250.32093	62883.4375
1253.8759	63997.4375
1257.42845	65645.3375
1260.97859	67470.5375
1264.52631	69299.4375
1268.07163	71278.9375
1271.61453	73079.9375
1275.15503	74794.2375
1278.69312	76281.5375
1282.22882	77502.2375
1285.76211	79234.6375
1289.29301	81562.3375
1292.82151	84340.0375
1296.34761	87621.9375
1299.87133	92015.7375
1303.39266	97823.9375
1306.9116	104883.6375
1310.42815	111645.7375
1313.94233	115083.6375
1317.45412	113046.7375
1320.96354	108298.4375
1324.47058	103428.7375
1327.97525	99067.9375
1331.47754	96147.4375
1334.97747	94782.2375
1338.47502	94540.5375
1341.97022	95092.5375
1345.46305	96468.1375
1348.95352	98699.9375
1352.44163	101626.0375
1355.92738	106365.3375
1359.41078	113532.3375
1362.89183	119620.8375
1366.37053	116353.1375
1369.84688	104055.8375
1373.32088	91091.0375
1376.79254	82873.1375
1380.26186	79373.8375
1383.72883	78174.9375
1387.19347	77220.4375
1390.65578	75773.7375
1394.11575	74925.8375
1397.57339	74420.8375
1401.0287	74427.0375
1404.48168	74316.3375
1407.93234	74086.9375
1411.38068	73584.3375
1414.82669	72749.5375
1418.27039	71429.1375
1421.71177	69946.2375
1425.15083	68712.2375
1428.58758	68247.7375
1432.02203	69003.5375
1435.45416	70511.5375
1438.88399	71749.2375
1442.31151	72207.4375
1445.73673	72594.9375
1449.15965	72637.6375
1452.58027	72346.6375
1455.9986	72026.0375
1459.41463	72100.3375
1462.82837	73040.0375
1466.23982	74282.5375
1469.64898	75528.4375
1473.05586	76478.4375
1476.46045	77116.1375
1479.86276	77254.6375
1483.26279	77494.4375
1486.66054	78376.1375
1490.05602	79878.3375
1493.44922	81898.8375
1496.84016	84952.1375
1500.22882	89474.3375
1503.61521	95607.8375
1506.99934	102193.6375
1510.38121	106762.5375
1513.76081	106490.8375
1517.13816	100851.1375
1520.51324	93025.4375
1523.88607	86740.5375
1527.25665	83248.7375
1530.62498	81713.2375
1533.99105	80723.6375
1537.35488	79600.3375
1540.71647	78218.4375
1544.07581	76647.0375
1547.4329	75039.3375
1550.78776	73747.5375
1554.14038	73105.3375
1557.49077	72983.8375
1560.83892	73427.2375
1564.18484	74285.4375
1567.52853	75507.3375
1570.86999	76563.7375
1574.20922	77411.9375
1577.54624	77351.5375
1580.88103	75723.3375
1584.2136	74024.1375
1587.54395	74117.2375
1590.87208	76280.6375
1594.19801	80354.1375
1597.52172	84777.2375
1600.84321	86278.4375
1604.16251	83730.1375
1607.47959	79020.3375
1610.79447	73683.6375
1614.10715	68501.2375
1617.41763	64343.7375
1620.7259	61469.1375
1624.03199	60107.6375
1627.33587	60250.3375
1630.63757	61841.2375
1633.93707	65034.8375
1637.23439	70573.3375
1640.52951	78865.3375
1643.82246	88858.5375
1647.11321	97117.5375
1650.40179	99127.0375
1653.68819	92572.6375
1656.97241	80656.6375
1660.25446	69508.8375
1663.53433	61615.4375
1666.81203	56805.4375
1670.08756	53767.2375
1673.36092	51954.5375
1676.63211	50794.1375
1679.90115	49914.7375
1683.16801	49268.1375
1686.43272	48731.5375
1689.69527	48333.6375
1692.95567	48025.3375
1696.2139	47838.9375
1699.46999	47646.4375
1702.72392	47590.3375
1705.97571	47549.3375
1709.22535	47562.2375
1712.47284	47529.8375
1715.71819	47501.3375
1718.96139	47389.0375
1722.20246	47289.6375
1725.44139	47092.1375
1728.67818	46867.0375
1731.91284	46612.5375
1735.14537	46433.8375
1738.37576	46243.9375
1741.60403	46091.0375
1744.83017	45922.4375
1748.05418	45843.4375
1751.27607	45725.5375
1754.49584	45673.5375
1757.71349	45701.9375
1760.92903	45605.5375
1764.14244	45527.4375
1767.35375	45521.7375
1770.56294	45458.3375
1773.77002	45401.2375
1776.97499	45335.8375
1780.17785	45253.7375
1783.37861	45173.5375
1786.57727	45067.1375
1789.77382	45022.8375
1792.96828	44983.0375
1796.16064	44878.0375
1799.3509	44775.9375
1802.53907	44682.1375
1805.72514	44550.3375
1808.90913	44458.6375
1812.09102	44458.3375
1815.27083	44341.4375
1818.44856	44353.9375
1821.6242	44266.9375
1824.79776	44225.3375
1827.96924	44109.0375
1831.13864	44054.3375
1834.30597	44037.3375
1837.47122	44016.4375
1840.6344	43961.5375
1843.7955	43894.8375
1846.95454	43907.6375
1850.11151	43953.1375
1853.26642	43950.1375
1856.41926	43907.4375
1859.57004	43946.0375
1862.71876	43855.1375
1865.86542	43891.7375
1869.01003	43883.5375
1872.15258	43781.1375
1875.29308	43750.4375
1878.43152	43733.2375
1881.56792	43649.0375
1884.70227	43603.4375
1887.83457	43597.1375
1890.96482	43603.1375
1894.09304	43523.4375
1897.21921	43549.4375
1900.34335	43498.0375
1903.46544	43366.7375
1906.58551	43312.7375
1909.70353	43292.1375
1912.81953	43324.5375
1915.93349	43202.6375
1919.04543	43141.0375
1922.15534	43056.4375
1925.26322	42985.8375
1928.36908	42959.7375
1931.47292	42854.4375
1934.57473	42845.5375
1937.67453	42710.6375
1940.77232	42566.5375
1943.86808	42361.1375
1946.96184	42279.1375
1950.05358	42130.6375
1953.14331	42002.4375
1956.23103	41929.0375
1959.31675	41806.1375
1962.40046	41715.4375
1965.48217	41574.9375
1968.56188	41543.8375
1971.63959	41405.2375
1974.7153	41238.5375
1977.78901	41144.5375
1980.86073	41059.9375
1983.93046	40970.7375
1986.99819	40887.7375
1990.06394	40753.0375
1993.1277	40590.4375
1996.18947	40519.1375
1999.24925	40449.0375
2002.30706	40327.8375
2005.36288	40270.0375
2008.41672	40199.6375
2011.46859	40098.4375
2014.51848	39938.9375
2017.56639	39888.7375
2020.61233	39820.4375
2023.6563	39752.7375
2026.6983	39640.6375
2029.73833	39522.3375
2032.7764	39466.3375
2035.8125	39381.4375
2038.84664	39316.4375
2041.87881	39271.2375
2044.90903	39177.6375
2047.93729	39071.0375
2050.96359	39095.6375
2053.98794	39051.5375
2057.01034	39007.5375
2060.03078	39011.7375
2063.04927	38968.2375
2066.06582	38952.9375
2069.08042	38973.8375
2072.09307	38961.4375
2075.10378	38936.0375
2078.11255	38925.3375
2081.11938	38900.5375
2084.12426	38844.5375
2087.12722	38864.9375
2090.12824	38862.7375
2093.12732	38864.0375
2096.12447	38885.2375
2099.11969	38840.4375
2102.11299	38878.1375
2105.10435	38900.8375
2108.09379	38883.6375
2111.08131	38993.1375
2114.0669	38946.9375
2117.05057	38902.6375
2120.03233	38962.7375
2123.01216	39027.7375
2125.99008	39037.8375
2128.96609	39187.7375
2131.94018	39341.1375
2134.91236	39333.0375
2137.88263	39343.6375
2140.851	39372.2375
2143.81746	39376.0375
2146.78201	39429.4375
2149.74466	39431.1375
2152.7054	39403.2375
2155.66425	39312.1375
2158.6212	39306.9375
2161.57625	39309.0375
2164.52941	39354.8375
2167.48067	39390.9375
2170.43004	39343.6375
2173.37752	39312.8375
2176.32311	39292.3375
2179.26681	39309.8375
2182.20863	39284.3375
2185.14856	39311.2375
2188.08661	39339.3375
2191.02278	39313.7375
2193.95707	39317.8375
2196.88948	39278.0375
2199.82001	39260.4375
2202.74867	39243.9375
2205.67545	39178.0375
2208.60037	39174.2375
2211.52341	39138.3375
2214.44458	39106.3375
2217.36388	39030.7375
2220.28132	38971.3375
2223.1969	38833.8375
2226.11061	38793.2375
2229.02246	38684.1375
2231.93245	38696.9375
2234.84058	38622.3375
2237.74686	38584.1375
2240.65128	38577.0375
2243.55385	38530.5375
2246.45456	38473.8375
2249.35343	38359.3375
2252.25044	38353.7375
2255.14561	38305.7375
2258.03893	38293.6375
2260.93041	38213.1375
2263.82004	38174.5375
2266.70783	38095.0375
2269.59378	38054.0375
2272.4779	38035.6375
2275.36017	37984.5375
2278.24061	37950.6375
2281.11922	37882.5375
2283.996	37826.7375
2286.87094	37746.4375
2289.74405	37679.5375
2292.61534	37665.7375
2295.4848	37707.7375
2298.35243	37757.1375
2301.21824	37705.7375
2304.08223	37735.8375
2306.94439	37645.4375
2309.80474	37649.3375
2312.66327	37599.3375
2315.51999	37571.5375
2318.37489	37582.6375
2321.22797	37616.9375
2324.07925	37501.6375
2326.92871	37463.3375
2329.77637	37462.0375
2332.62222	37422.9375
2335.46626	37336.4375
2338.3085	37301.1375
2341.14893	37301.1375
2343.98756	37265.6375
2346.8244	37350.5375
2349.65943	37421.9375
2352.49267	37410.4375
2355.32411	37376.3375
2358.15376	37347.7375
2360.98161	37306.6375
2363.80768	37368.9375
2366.63195	37303.5375
2369.45444	37346.1375
2372.27514	37286.5375
2375.09405	37186.1375
2377.91118	37028.2375
2380.72652	36948.6375
2383.54009	36898.8375
2386.35187	36847.8375
2389.16188	36821.7375
2391.97011	36859.3375
2394.77657	36746.0375
2397.58125	36694.6375
2400.38416	36607.7375
2403.18529	36599.7375
2405.98466	36542.4375
2408.78226	36497.5375
2411.57809	36413.6375
2414.37216	36375.3375
2417.16446	36323.3375
2419.955	36266.3375
2422.74378	36288.9375
2425.5308	36275.1375
2428.31606	36289.7375
2431.09956	36246.5375
2433.88131	36177.5375
2436.6613	36172.4375
2439.43954	36187.5375
2442.21603	36212.4375
2444.99077	36165.6375
2447.76377	36124.4375
2450.53501	36158.1375
2453.30451	36173.8375
2456.07226	36127.5375
2458.83827	36160.4375
2461.60254	36182.4375
2464.36507	36148.0375
2467.12586	36059.6375
2469.88492	36052.4375
2472.64224	36098.0375
2475.39782	36028.1375
2478.15167	36152.3375
2480.90379	36103.6375
2483.65417	36174.6375
2486.40283	36210.2375
2489.14976	36215.6375
2491.89497	36211.0375
2494.63845	36175.0375
2497.3802	36155.4375
2500.12024	36207.3375
2502.85855	36153.7375
2505.59514	36091.6375
2508.33002	36005.7375
2511.06318	35933.4375
2513.79462	35879.4375
2516.52435	35836.7375
2519.25237	35820.5375
2521.97867	35858.3375
2524.70327	35862.1375
2527.42616	35781.8375
2530.14734	35777.8375
2532.86681	35659.7375
2535.58458	35755.4375
2538.30065	35752.1375
2541.01501	35762.4375
2543.72768	35748.0375
2546.43864	35704.5375
2549.14791	35592.2375
2551.85548	35668.5375
2554.56136	35575.1375
2557.26554	35504.2375
2559.96803	35491.9375
2562.66883	35406.3375
2565.36794	35338.9375
2568.06536	35348.6375
2570.7611	35272.4375
2573.45514	35198.7375
2576.14751	35202.0375
2578.83819	35196.9375
2581.52719	35195.5375
2584.21451	35128.3375
2586.90015	35075.8375
2589.58411	35046.0375
2592.2664	35054.7375
2594.94701	35031.1375
2597.62594	35034.0375
2600.30321	34987.6375
2602.9788	34924.1375
2605.65273	34896.0375
2608.32498	34878.8375
2610.99557	34843.3375
2613.66449	34894.7375
2616.33175	34857.9375
2618.99734	34839.3375
2621.66128	34824.5375
2624.32355	34797.0375
2626.98416	34703.8375
2629.64311	34608.6375
2632.30041	34613.8375
2634.95605	34641.2375
2637.61004	34573.7375
2640.26238	34544.2375
2642.91306	34481.2375
2645.56209	34489.0375
2648.20948	34473.3375
2650.85521	34484.7375
2653.4993	34482.1375
2656.14175	34487.0375
2658.78255	34570.4375
2661.42171	34567.7375
2664.05923	34652.5375
2666.6951	34604.0375
2669.32934	34705.5375
2671.96194	34663.8375
2674.59291	34645.2375
2677.22224	34586.8375
2679.84993	34615.0375
2682.476	34603.2375
2685.10043	34644.4375
2687.72324	34568.8375
2690.34441	34536.3375
2692.96396	34531.1375
2695.58188	34593.3375
2698.19818	34495.3375
2700.81285	34575.6375
2703.4259	34497.0375
2706.03733	34477.2375
2708.64714	34560.3375
2711.25533	34583.2375
2713.86191	34559.6375
2716.46687	34626.7375
2719.07021	34623.9375
2721.67194	34694.0375
2724.27206	34700.8375
2726.87057	34740.6375
2729.46747	34716.2375
2732.06276	34752.0375
2734.65644	34736.3375
2737.24852	34778.8375
2739.83899	34634.4375
2742.42786	34643.4375
2745.01513	34568.3375
2747.60079	34549.9375
2750.18486	34547.1375
2752.76733	34590.2375
2755.3482	34513.5375
2757.92747	34494.6375
2760.50515	34501.3375
2763.08123	34444.3375
2765.65573	34393.4375
2768.22863	34437.7375
2770.79994	34390.8375
2773.36967	34391.7375
2775.9378	34314.1375
2778.50435	34285.0375
2781.06932	34247.8375
2783.6327	34192.2375
2786.1945	34180.9375
2788.75471	34154.6375
2791.31335	34090.1375
2793.87041	34142.5375
2796.42589	34019.1375
2798.97979	34045.4375
2801.53212	34032.4375
2804.08288	33957.9375
2806.63206	33910.3375
2809.17967	33832.6375
2811.72571	33727.5375
2814.27018	33701.9375
2816.81308	33622.0375
2819.35442	33572.6375
2821.89419	33510.1375
2824.43239	33563.4375
2826.96904	33504.4375
2829.50412	33565.7375
2832.03763	33437.5375
2834.56959	33457.2375
2837.1	33379.9375
2839.62884	33336.9375
2842.15613	33271.2375
2844.68186	33272.0375
2847.20604	33211.0375
2849.72867	33271.3375
2852.24974	33246.3375
2854.76927	33243.6375
2857.28724	33209.2375
2859.80367	33190.1375
2862.31855	33123.9375
2864.83189	33120.7375
2867.34368	33077.5375
2869.85393	33020.6375
2872.36264	32960.7375
2874.8698	32963.0375
2877.37543	32965.9375
2879.87952	32891.5375
2882.38207	32927.3375
2884.88308	32898.8375
2887.38256	32982.8375
2889.88051	32943.9375
2892.37692	32979.8375
2894.8718	32907.7375
2897.36515	32988.0375
2899.85698	32982.9375
2902.34727	33074.2375
2904.83604	33064.6375
2907.32328	33158.4375
2909.809	33207.7375
2912.29319	33262.8375
2914.77587	33230.9375
2917.25702	33254.8375
2919.73665	33245.6375
2922.21476	33263.8375
2924.69136	33163.6375
2927.16644	33096.4375
2929.64	33024.4375
2932.11205	32999.3375
2934.58258	32880.1375
2937.05161	32906.6375
2939.51912	32910.5375
2941.98513	32861.4375
2944.44962	32835.2375
2946.91261	32785.3375
2949.37409	32903.5375
2951.83407	32877.0375
2954.29254	32905.5375
2956.74951	32914.5375
2959.20498	32848.8375
2961.65895	32856.9375
2964.11142	32900.7375
2966.56239	32832.3375
2969.01186	32831.6375
2971.45984	32746.3375
2973.90632	32799.8375
2976.35131	32741.6375
2978.7948	32674.5375
2981.23681	32599.0375
2983.67732	32618.8375
2986.11635	32579.9375
2988.55388	32506.1375
2990.98993	32409.6375
2993.4245	32344.9375
2995.85758	32301.7375
2998.28917	32210.0375
3000.71928	32125.7375
3003.14791	32021.8375
3005.57506	31947.8375
3008.00073	31817.2375
3010.42493	31817.3375
3012.84764	31779.3375
3015.26888	31773.8375
3017.68865	31692.4375
3020.10694	31632.1375
3022.52376	31656.6375
3024.9391	31563.7375
3027.35298	31596.2375
3029.76539	31550.6375
3032.17632	31544.8375
3034.5858	31493.0375
3036.9938	31511.5375
3039.40034	31360.6375
3041.80542	31365.7375
3044.20903	31304.7375
3046.61118	31317.0375
3049.01187	31230.8375
3051.4111	31242.3375
3053.80888	31186.4375
3056.20519	31146.2375
3058.60005	31101.2375
3060.99345	31073.3375
3063.3854	30953.0375
3065.7759	30870.1375
3068.16494	30790.7375
3070.55254	30712.3375
3072.93868	30635.7375
3075.32338	30553.5375
3077.70662	30465.8375
3080.08842	30384.2375
3082.46878	30447.6375
3084.84769	30411.1375
3087.22515	30441.4375
3089.60118	30440.8375
3091.97576	30345.9375
3094.3489	30271.2375
3096.72061	30299.2375
3099.09087	30350.9375
3101.4597	30322.2375
3103.82709	30330.1375
3106.19305	30286.6375
3108.55757	30266.6375
3110.92066	30287.2375
3113.28232	30260.4375
3115.64255	30189.0375
3118.00134	30083.2375
3120.35871	30025.1375
3122.71466	29943.2375
3125.06917	29887.2375
3127.42226	29848.9375
3129.77393	29820.9375
3132.12417	29765.0375
3134.47299	29756.3375
3136.82039	29711.6375
3139.16636	29681.4375
3141.51092	29668.9375
3143.85406	29690.3375
3146.19579	29671.4375
3148.53609	29734.8375
3150.87499	29737.6375
3153.21246	29730.2375
3155.54853	29759.5375
3157.88318	29687.1375
3160.21642	29740.5375
3162.54826	29695.6375
3164.87868	29796.0375
3167.2077	29772.2375
3169.5353	29774.1375
3171.86151	29725.0375
3174.18631	29671.6375
3176.5097	29605.3375
3178.83169	29583.7375
3181.15228	29636.6375
3183.47147	29577.4375
3185.78926	29461.2375
3188.10565	29407.4375
3190.42065	29407.5375
3192.73424	29406.2375
3195.04645	29323.1375
3197.35725	29381.2375
3199.66667	29340.5375
3201.97469	29311.8375
3204.28132	29275.3375
3206.58656	29335.8375
3208.8904	29317.6375
3211.19287	29314.5375
3213.49394	29312.0375
3215.79363	29267.3375
3218.09193	29354.6375
3220.38884	29367.4375
3222.68438	29398.2375
3224.97853	29325.3375
3227.2713	29337.2375
3229.56269	29326.6375
3231.8527	29288.0375
3234.14133	29307.0375
3236.42858	29252.7375
3238.71446	29242.0375
3240.99896	29155.9375
3243.28209	29134.2375
3245.56384	29005.8375
3247.84423	28938.1375
3250.12324	28900.3375
3252.40088	28871.8375
3254.67715	28958.5375
3256.95205	28905.8375
3259.22558	28907.2375
3261.49775	28872.9375
3263.76855	28868.6375
3266.03799	28822.0375
3268.30606	28771.5375
3270.57277	28738.8375
3272.83812	28666.5375
3275.10211	28615.4375
3277.36474	28584.2375
3279.62601	28545.9375
3281.88593	28547.8375
3284.14448	28588.8375
3286.40168	28576.7375
3288.65753	28533.5375
3290.91202	28572.1375
3293.16516	28519.7375
3295.41695	28547.6375
3297.66738	28372.4375
3299.91647	28213.1375
3302.16421	28057.6375
3304.4106	27987.1375
3306.65564	27771.7375
3308.89933	27552.9375
3311.14169	27421.3375
3313.38269	27224.3375
3315.62236	27111.4375
3317.86068	26945.3375
3320.09766	26806.6375
3322.3333	26649.4375
3324.5676	26475.3375
3326.80056	26095.9375
3329.03219	25950.6375
3331.26248	5.8375
3333.49143	0.1375
3335.71905	0.4375
