Data from AgNPs_UA_20uM_CRN_0uM_R6G_10uM_Q_RamanShift__15__12-53-52-021.txt Node

Date: Mon Jul 18 12:53:52 BST 2022
User: TCL
Spectrometer: QEP01345
Trigger mode: 4
Integration Time (sec): 7.000000E0
Scans to average: 10
Electric dark correction enabled: true
Nonlinearity correction enabled: false
Boxcar width: 0
XAxis mode: Raman Shifts
Number of Pixels in Spectrum: 1044
>>>>>Begin Spectral Data<<<<<
46.04893	-1.8375
50.45542	-1.7375
54.85868	1.0625
59.25871	-1.3375
63.6555	148.6625
68.04907	157.1625
72.43941	165.7625
76.82654	171.9625
81.21044	176.2625
85.59113	177.2625
89.96862	186.8625
94.34289	192.3625
98.71396	203.2625
103.08183	208.0625
107.4465	212.8625
111.80798	218.5625
116.16626	223.6625
120.52136	236.8625
124.87327	243.6625
129.222	262.2625
133.56755	274.4625
137.90993	299.1625
142.24913	329.5625
146.58517	374.7625
150.91804	437.2625
155.24774	525.4625
159.57429	649.7625
163.89768	840.8625
168.21792	1112.6625
172.53501	1516.7625
176.84895	2134.5625
181.15975	3004.9625
185.46741	4242.5625
189.77193	5859.2625
194.07331	7856.5625
198.37157	10096.1625
202.6667	12439.8625
206.9587	14787.2625
211.24758	17077.7625
215.53334	19315.3625
219.81599	21713.0625
224.09553	24324.7625
228.37195	27242.3625
232.64527	30405.2625
236.91549	33769.3625
241.18261	37266.8625
245.44663	40510.1625
249.70755	43596.1625
253.96539	46317.5625
258.22014	48486.7625
262.4718	50267.6625
266.72039	51524.8625
270.96589	52089.8625
275.20832	52181.5625
279.44768	51933.1625
283.68397	51458.3625
287.91719	51013.0625
292.14735	50608.6625
296.37445	50530.1625
300.59849	50557.4625
304.81948	50627.9625
309.03742	50581.4625
313.25231	50412.1625
317.46415	49869.4625
321.67296	49058.3625
325.87872	48491.5625
330.08145	48458.3625
334.28114	48643.6625
338.47781	49164.0625
342.67145	49780.3625
346.86207	50352.3625
351.04966	51189.6625
355.23424	52056.6625
359.4158	52781.1625
363.59435	53496.4625
367.76989	53966.4625
371.94243	54320.1625
376.11196	54610.2625
380.27849	54952.3625
384.44203	55297.3625
388.60257	55708.3625
392.76012	56156.8625
396.91468	56728.8625
401.06626	57293.2625
405.21485	57770.5625
409.36047	57757.8625
413.50311	57381.3625
417.64277	57144.0625
421.77947	57137.0625
425.9132	57316.9625
430.04396	57621.2625
434.17176	57992.3625
438.2966	58467.2625
442.41849	58978.0625
446.53742	59814.1625
450.6534	60756.3625
454.76644	61438.6625
458.87653	61716.5625
462.98368	61860.9625
467.08789	61942.6625
471.18916	61820.7625
475.2875	61563.8625
479.38291	61415.8625
483.4754	61160.9625
487.56496	60939.0625
491.6516	60758.9625
495.73531	60721.6625
499.81612	60780.8625
503.89401	61042.9625
507.96899	61220.4625
512.04106	61391.6625
516.11023	61509.1625
520.1765	61432.2625
524.23987	61334.0625
528.30034	61269.8625
532.35792	61152.6625
536.41261	61044.5625
540.46441	60926.8625
544.51333	61039.8625
548.55936	61527.2625
552.60252	62145.8625
556.64279	62878.6625
560.6802	63356.5625
564.71473	63683.2625
568.7464	64048.3625
572.7752	64639.0625
576.80114	65164.3625
580.82422	65712.4625
584.84444	66073.1625
588.86181	66242.4625
592.87633	66304.7625
596.888	66488.2625
600.89682	67220.2625
604.9028	69109.7625
608.90594	73177.4625
612.90624	76432.8625
616.90371	72907.3625
620.89834	66530.9625
624.89015	64062.5625
628.87913	63975.2625
632.86528	64548.0625
636.84862	64766.3625
640.82913	64472.5625
644.80683	63706.7625
648.78172	63277.0625
652.75379	63317.2625
656.72306	63936.9625
660.68952	64711.9625
664.65319	64601.1625
668.61405	64285.2625
672.57211	64410.6625
676.52738	64571.7625
680.47986	64455.0625
684.42955	64344.5625
688.37646	64420.4625
692.32058	64600.3625
696.26192	65117.8625
700.20048	65509.9625
704.13626	65869.9625
708.06928	65916.1625
711.99952	65704.6625
715.927	65615.7625
719.85171	65596.3625
723.77365	65529.7625
727.69284	65322.9625
731.60928	65029.5625
735.52295	65008.6625
739.43388	65118.6625
743.34206	65245.0625
747.24749	65296.4625
751.15017	65523.4625
755.05012	65978.3625
758.94733	67000.1625
762.8418	69104.1625
766.73354	72066.8625
770.62254	74407.3625
774.50882	74863.3625
778.39237	73165.1625
782.27321	70734.5625
786.15132	68572.1625
790.02671	67051.7625
793.89938	66136.2625
797.76935	65782.6625
801.6366	65593.7625
805.50115	65477.4625
809.36299	65502.8625
813.22213	65264.9625
817.07857	65318.5625
820.93231	65445.4625
824.78336	65544.7625
828.63172	65687.6625
832.47738	65655.3625
836.32036	65662.7625
840.16066	65648.6625
843.99827	65704.0625
847.8332	65753.9625
851.66546	65878.5625
855.49504	66062.4625
859.32195	66119.3625
863.1462	66139.4625
866.96777	66252.1625
870.78668	66338.2625
874.60293	66412.8625
878.41652	66486.5625
882.22745	66724.1625
886.03573	66864.9625
889.84136	66860.6625
893.64433	66792.2625
897.44466	66706.6625
901.24235	66606.2625
905.0374	66558.8625
908.8298	66582.4625
912.61957	66589.0625
916.40671	66742.4625
920.19121	66898.6625
923.97308	67134.2625
927.75233	67200.5625
931.52895	67202.5625
935.30295	66897.2625
939.07433	66404.3625
942.84309	65924.3625
946.60924	65778.6625
950.37278	65650.0625
954.13371	65635.8625
957.89203	65670.9625
961.64774	65574.7625
965.40086	65479.1625
969.15137	65406.9625
972.89929	65345.9625
976.64461	65374.7625
980.38733	65399.4625
984.12747	65434.2625
987.86502	65655.7625
991.59999	65816.6625
995.33237	66046.8625
999.06217	66484.0625
1002.78939	67027.2625
1006.51404	67388.8625
1010.23611	67840.9625
1013.95561	68104.7625
1017.67255	68210.6625
1021.38692	68041.0625
1025.09872	67705.7625
1028.80796	67507.6625
1032.51465	67423.0625
1036.21877	67532.2625
1039.92035	67742.1625
1043.61937	67893.1625
1047.31584	67893.7625
1051.00976	68032.1625
1054.70114	68175.3625
1058.38998	68453.8625
1062.07627	68846.3625
1065.76003	69302.2625
1069.44126	69795.0625
1073.11995	70409.4625
1076.79611	71055.4625
1080.46974	71255.3625
1084.14085	71428.2625
1087.80943	71759.6625
1091.47549	72002.3625
1095.13903	71942.8625
1098.80005	71514.0625
1102.45857	71102.5625
1106.11456	70561.8625
1109.76805	70170.3625
1113.41903	70120.7625
1117.06751	70354.7625
1120.71348	70788.5625
1124.35696	71139.3625
1127.99793	71478.9625
1131.63641	71481.4625
1135.2724	71073.9625
1138.90589	70778.2625
1142.5369	70642.0625
1146.16542	70573.4625
1149.79145	70564.6625
1153.415	70627.7625
1157.03607	70745.2625
1160.65467	71325.4625
1164.27079	72343.8625
1167.88443	73684.1625
1171.49561	75635.1625
1175.10432	77993.4625
1178.71056	80919.6625
1182.31434	83495.7625
1185.91565	84876.4625
1189.51451	85189.6625
1193.11091	84755.6625
1196.70485	83635.3625
1200.29634	82181.8625
1203.88538	80611.0625
1207.47197	79051.6625
1211.05612	77679.9625
1214.63782	76661.3625
1218.21708	75901.1625
1221.79391	75171.1625
1225.36829	74739.4625
1228.94024	74474.8625
1232.50976	74424.8625
1236.07685	74406.6625
1239.6415	74485.4625
1243.20374	74641.3625
1246.76355	74940.3625
1250.32093	75402.6625
1253.8759	75926.1625
1257.42845	76831.0625
1260.97859	77774.7625
1264.52631	78726.3625
1268.07163	79578.7625
1271.61453	80241.5625
1275.15503	81025.9625
1278.69312	81724.8625
1282.22882	82254.6625
1285.76211	82980.6625
1289.29301	83875.1625
1292.82151	84852.6625
1296.34761	86069.9625
1299.87133	87777.6625
1303.39266	89957.3625
1306.9116	92416.8625
1310.42815	94845.6625
1313.94233	96141.3625
1317.45412	95956.4625
1320.96354	95103.8625
1324.47058	94207.8625
1327.97525	93324.5625
1331.47754	92744.6625
1334.97747	92750.5625
1338.47502	93309.8625
1341.97022	94470.3625
1345.46305	95922.6625
1348.95352	97352.2625
1352.44163	98038.2625
1355.92738	98683.0625
1359.41078	99728.8625
1362.89183	100726.5625
1366.37053	98557.8625
1369.84688	93368.4625
1373.32088	88106.4625
1376.79254	84468.1625
1380.26186	82433.6625
1383.72883	81380.5625
1387.19347	80456.8625
1390.65578	79505.7625
1394.11575	78795.2625
1397.57339	78074.8625
1401.0287	77777.1625
1404.48168	77550.2625
1407.93234	77317.3625
1411.38068	77057.8625
1414.82669	76557.6625
1418.27039	75659.1625
1421.71177	74876.2625
1425.15083	74213.6625
1428.58758	73807.0625
1432.02203	73809.5625
1435.45416	74234.9625
1438.88399	74676.8625
1442.31151	75127.6625
1445.73673	75446.4625
1449.15965	75798.6625
1452.58027	76121.4625
1455.9986	76130.9625
1459.41463	76397.9625
1462.82837	77019.6625
1466.23982	77755.5625
1469.64898	78588.9625
1473.05586	79312.8625
1476.46045	79583.6625
1479.86276	79864.9625
1483.26279	80142.3625
1486.66054	80586.9625
1490.05602	81293.6625
1493.44922	82462.9625
1496.84016	84342.9625
1500.22882	87087.7625
1503.61521	90480.5625
1506.99934	93684.8625
1510.38121	95596.2625
1513.76081	95278.8625
1517.13816	92757.6625
1520.51324	89512.9625
1523.88607	86712.7625
1527.25665	85007.7625
1530.62498	84089.6625
1533.99105	83453.2625
1537.35488	82756.3625
1540.71647	82147.5625
1544.07581	81538.8625
1547.4329	80794.1625
1550.78776	80099.7625
1554.14038	79783.7625
1557.49077	79641.6625
1560.83892	79749.3625
1564.18484	80130.5625
1567.52853	80578.2625
1570.86999	81047.0625
1574.20922	81426.0625
1577.54624	81411.0625
1580.88103	80679.9625
1584.2136	79810.1625
1587.54395	79483.7625
1590.87208	79916.5625
1594.19801	81254.9625
1597.52172	82708.7625
1600.84321	83282.9625
1604.16251	82333.1625
1607.47959	80815.9625
1610.79447	78679.2625
1614.10715	76340.3625
1617.41763	74194.1625
1620.7259	72387.8625
1624.03199	71322.2625
1627.33587	71044.1625
1630.63757	71468.1625
1633.93707	72695.3625
1637.23439	74964.9625
1640.52951	78442.4625
1643.82246	82522.8625
1647.11321	86224.4625
1650.40179	87583.0625
1653.68819	85332.5625
1656.97241	80501.5625
1660.25446	75426.8625
1663.53433	71415.3625
1666.81203	68713.8625
1670.08756	66966.2625
1673.36092	65809.5625
1676.63211	65081.5625
1679.90115	64564.1625
1683.16801	63976.7625
1686.43272	63591.6625
1689.69527	63294.2625
1692.95567	63049.6625
1696.2139	62844.1625
1699.46999	62702.0625
1702.72392	62653.6625
1705.97571	62670.5625
1709.22535	62664.3625
1712.47284	62583.2625
1715.71819	62586.1625
1718.96139	62525.3625
1722.20246	62454.9625
1725.44139	62342.6625
1728.67818	62093.2625
1731.91284	61951.6625
1735.14537	61766.9625
1738.37576	61641.3625
1741.60403	61525.3625
1744.83017	61320.4625
1748.05418	61275.3625
1751.27607	61182.4625
1754.49584	61081.1625
1757.71349	61104.1625
1760.92903	61093.2625
1764.14244	60927.1625
1767.35375	60979.9625
1770.56294	60879.7625
1773.77002	60794.6625
1776.97499	60840.9625
1780.17785	60738.2625
1783.37861	60612.1625
1786.57727	60449.1625
1789.77382	60356.0625
1792.96828	60301.4625
1796.16064	60250.3625
1799.3509	60171.8625
1802.53907	60005.1625
1805.72514	59845.5625
1808.90913	59796.0625
1812.09102	59808.0625
1815.27083	59674.4625
1818.44856	59661.2625
1821.6242	59552.7625
1824.79776	59529.0625
1827.96924	59395.0625
1831.13864	59342.3625
1834.30597	59285.8625
1837.47122	59240.6625
1840.6344	59217.1625
1843.7955	59091.5625
1846.95454	59071.5625
1850.11151	59161.3625
1853.26642	59119.5625
1856.41926	59059.3625
1859.57004	59101.9625
1862.71876	59010.5625
1865.86542	59048.0625
1869.01003	59032.0625
1872.15258	58915.7625
1875.29308	58771.2625
1878.43152	58761.6625
1881.56792	58652.1625
1884.70227	58534.7625
1887.83457	58457.8625
1890.96482	58444.5625
1894.09304	58376.9625
1897.21921	58419.9625
1900.34335	58212.7625
1903.46544	58077.1625
1906.58551	57953.3625
1909.70353	57950.3625
1912.81953	57981.2625
1915.93349	57849.9625
1919.04543	57680.2625
1922.15534	57598.8625
1925.26322	57544.1625
1928.36908	57565.0625
1931.47292	57388.2625
1934.57473	57219.1625
1937.67453	57129.4625
1940.77232	57001.4625
1943.86808	56797.9625
1946.96184	56584.6625
1950.05358	56442.1625
1953.14331	56306.6625
1956.23103	56053.6625
1959.31675	55884.2625
1962.40046	55816.6625
1965.48217	55618.8625
1968.56188	55437.5625
1971.63959	55296.9625
1974.7153	55153.0625
1977.78901	54984.8625
1980.86073	54808.6625
1983.93046	54668.4625
1986.99819	54522.0625
1990.06394	54459.2625
1993.1277	54239.9625
1996.18947	54116.8625
1999.24925	54002.0625
2002.30706	53847.0625
2005.36288	53721.9625
2008.41672	53663.9625
2011.46859	53481.5625
2014.51848	53349.7625
2017.56639	53242.0625
2020.61233	53124.0625
2023.6563	53030.5625
2026.6983	52839.8625
2029.73833	52655.0625
2032.7764	52465.4625
2035.8125	52381.8625
2038.84664	52291.8625
2041.87881	52233.6625
2044.90903	52046.7625
2047.93729	51861.5625
2050.96359	51884.0625
2053.98794	51823.3625
2057.01034	51757.0625
2060.03078	51704.2625
2063.04927	51725.9625
2066.06582	51710.0625
2069.08042	51661.3625
2072.09307	51701.4625
2075.10378	51742.8625
2078.11255	51644.6625
2081.11938	51659.5625
2084.12426	51532.7625
2087.12722	51549.0625
2090.12824	51541.6625
2093.12732	51486.6625
2096.12447	51547.0625
2099.11969	51527.9625
2102.11299	51525.5625
2105.10435	51498.5625
2108.09379	51546.0625
2111.08131	51575.1625
2114.0669	51519.8625
2117.05057	51521.6625
2120.03233	51588.3625
2123.01216	51587.5625
2125.99008	51665.6625
2128.96609	51802.5625
2131.94018	51982.8625
2134.91236	52047.1625
2137.88263	52026.8625
2140.851	52051.5625
2143.81746	52117.2625
2146.78201	52071.2625
2149.74466	52138.0625
2152.7054	52066.7625
2155.66425	52052.5625
2158.6212	51933.8625
2161.57625	51880.6625
2164.52941	51915.5625
2167.48067	52073.7625
2170.43004	51954.2625
2173.37752	51919.7625
2176.32311	51853.6625
2179.26681	51882.0625
2182.20863	51760.4625
2185.14856	51814.6625
2188.08661	51818.7625
2191.02278	51809.8625
2193.95707	51852.2625
2196.88948	51786.9625
2199.82001	51727.5625
2202.74867	51595.0625
2205.67545	51519.9625
2208.60037	51457.9625
2211.52341	51469.0625
2214.44458	51359.6625
2217.36388	51265.1625
2220.28132	51163.8625
2223.1969	50945.4625
2226.11061	50890.5625
2229.02246	50687.0625
2231.93245	50610.6625
2234.84058	50612.4625
2237.74686	50623.4625
2240.65128	50504.0625
2243.55385	50404.5625
2246.45456	50408.2625
2249.35343	50253.3625
2252.25044	50166.2625
2255.14561	50127.5625
2258.03893	50054.2625
2260.93041	49952.0625
2263.82004	49863.8625
2266.70783	49775.2625
2269.59378	49719.6625
2272.4779	49646.3625
2275.36017	49560.5625
2278.24061	49494.3625
2281.11922	49402.0625
2283.996	49304.6625
2286.87094	49224.7625
2289.74405	49080.1625
2292.61534	49090.9625
2295.4848	49056.3625
2298.35243	49103.5625
2301.21824	49034.5625
2304.08223	48967.7625
2306.94439	48861.2625
2309.80474	48802.4625
2312.66327	48771.5625
2315.51999	48719.2625
2318.37489	48704.1625
2321.22797	48636.0625
2324.07925	48504.6625
2326.92871	48419.7625
2329.77637	48440.8625
2332.62222	48347.1625
2335.46626	48186.8625
2338.3085	48043.0625
2341.14893	47983.0625
2343.98756	47960.9625
2346.8244	48052.1625
2349.65943	48117.0625
2352.49267	48007.5625
2355.32411	47937.0625
2358.15376	47886.0625
2360.98161	47836.3625
2363.80768	47843.7625
2366.63195	47786.8625
2369.45444	47767.7625
2372.27514	47724.6625
2375.09405	47572.5625
2377.91118	47462.2625
2380.72652	47342.9625
2383.54009	47237.5625
2386.35187	47177.5625
2389.16188	47089.2625
2391.97011	47067.8625
2394.77657	46905.6625
2397.58125	46906.9625
2400.38416	46765.7625
2403.18529	46736.2625
2405.98466	46738.7625
2408.78226	46578.9625
2411.57809	46533.3625
2414.37216	46405.4625
2417.16446	46336.5625
2419.955	46299.6625
2422.74378	46311.7625
2425.5308	46198.0625
2428.31606	46255.1625
2431.09956	46162.3625
2433.88131	46089.7625
2436.6613	45994.4625
2439.43954	46041.8625
2442.21603	45968.4625
2444.99077	45891.0625
2447.76377	45854.5625
2450.53501	45794.7625
2453.30451	45785.0625
2456.07226	45698.8625
2458.83827	45656.0625
2461.60254	45649.9625
2464.36507	45607.9625
2467.12586	45501.5625
2469.88492	45462.9625
2472.64224	45431.0625
2475.39782	45396.0625
2478.15167	45402.8625
2480.90379	45345.4625
2483.65417	45423.6625
2486.40283	45337.8625
2489.14976	45363.8625
2491.89497	45299.5625
2494.63845	45320.3625
2497.3802	45231.8625
2500.12024	45197.9625
2502.85855	45128.3625
2505.59514	45019.8625
2508.33002	44966.4625
2511.06318	44905.7625
2513.79462	44779.0625
2516.52435	44698.9625
2519.25237	44711.1625
2521.97867	44690.2625
2524.70327	44711.2625
2527.42616	44601.2625
2530.14734	44563.8625
2532.86681	44422.5625
2535.58458	44406.9625
2538.30065	44375.2625
2541.01501	44422.1625
2543.72768	44285.6625
2546.43864	44239.3625
2549.14791	44075.0625
2551.85548	44059.4625
2554.56136	43968.2625
2557.26554	43874.5625
2559.96803	43794.5625
2562.66883	43646.1625
2565.36794	43586.0625
2568.06536	43576.2625
2570.7611	43417.2625
2573.45514	43269.9625
2576.14751	43263.4625
2578.83819	43168.2625
2581.52719	43144.6625
2584.21451	43045.3625
2586.90015	42972.1625
2589.58411	42879.5625
2592.2664	42877.8625
2594.94701	42786.2625
2597.62594	42792.0625
2600.30321	42642.3625
2602.9788	42594.8625
2605.65273	42495.6625
2608.32498	42434.7625
2610.99557	42367.1625
2613.66449	42297.2625
2616.33175	42270.2625
2618.99734	42246.4625
2621.66128	42167.6625
2624.32355	42116.9625
2626.98416	41946.4625
2629.64311	41872.2625
2632.30041	41818.9625
2634.95605	41737.6625
2637.61004	41725.0625
2640.26238	41680.2625
2642.91306	41667.2625
2645.56209	41639.6625
2648.20948	41599.8625
2650.85521	41526.2625
2653.4993	41573.8625
2656.14175	41508.9625
2658.78255	41575.0625
2661.42171	41531.5625
2664.05923	41631.1625
2666.6951	41550.3625
2669.32934	41614.2625
2671.96194	41467.4625
2674.59291	41444.6625
2677.22224	41359.1625
2679.84993	41397.8625
2682.476	41403.8625
2685.10043	41385.5625
2687.72324	41320.0625
2690.34441	41289.3625
2692.96396	41283.3625
2695.58188	41364.7625
2698.19818	41264.9625
2700.81285	41247.7625
2703.4259	41168.8625
2706.03733	41229.2625
2708.64714	41205.7625
2711.25533	41285.9625
2713.86191	41155.6625
2716.46687	41225.0625
2719.07021	41192.8625
2721.67194	41256.9625
2724.27206	41261.0625
2726.87057	41270.7625
2729.46747	41209.3625
2732.06276	41284.6625
2734.65644	41235.8625
2737.24852	41250.6625
2739.83899	41144.0625
2742.42786	41044.7625
2745.01513	40892.5625
2747.60079	40951.4625
2750.18486	40951.1625
2752.76733	40906.7625
2755.3482	40828.9625
2757.92747	40801.6625
2760.50515	40753.1625
2763.08123	40605.9625
2765.65573	40524.4625
2768.22863	40554.0625
2770.79994	40558.7625
2773.36967	40489.3625
2775.9378	40350.4625
2778.50435	40271.5625
2781.06932	40141.6625
2783.6327	40133.9625
2786.1945	40074.2625
2788.75471	40023.4625
2791.31335	39918.4625
2793.87041	39898.8625
2796.42589	39773.9625
2798.97979	39774.4625
2801.53212	39727.6625
2804.08288	39741.1625
2806.63206	39589.9625
2809.17967	39473.2625
2811.72571	39286.4625
2814.27018	39242.3625
2816.81308	39111.1625
2819.35442	39062.4625
2821.89419	38921.0625
2824.43239	38863.1625
2826.96904	38906.7625
2829.50412	38908.6625
2832.03763	38739.7625
2834.56959	38737.3625
2837.1	38652.6625
2839.62884	38609.3625
2842.15613	38544.2625
2844.68186	38521.3625
2847.20604	38413.0625
2849.72867	38435.0625
2852.24974	38353.8625
2854.76927	38353.3625
2857.28724	38294.3625
2859.80367	38255.7625
2862.31855	38100.9625
2864.83189	38061.1625
2867.34368	37960.9625
2869.85393	37946.2625
2872.36264	37859.2625
2874.8698	37799.1625
2877.37543	37769.4625
2879.87952	37697.4625
2882.38207	37739.9625
2884.88308	37683.1625
2887.38256	37782.3625
2889.88051	37762.0625
2892.37692	37713.0625
2894.8718	37673.9625
2897.36515	37662.1625
2899.85698	37725.4625
2902.34727	37728.4625
2904.83604	37750.2625
2907.32328	37784.2625
2909.809	37742.8625
2912.29319	37807.6625
2914.77587	37744.2625
2917.25702	37796.4625
2919.73665	37782.0625
2922.21476	37774.5625
2924.69136	37680.9625
2927.16644	37663.9625
2929.64	37578.2625
2932.11205	37510.0625
2934.58258	37319.1625
2937.05161	37356.9625
2939.51912	37369.7625
2941.98513	37324.8625
2944.44962	37246.6625
2946.91261	37229.2625
2949.37409	37337.5625
2951.83407	37332.5625
2954.29254	37320.7625
2956.74951	37335.1625
2959.20498	37295.0625
2961.65895	37282.7625
2964.11142	37286.1625
2966.56239	37260.8625
2969.01186	37195.8625
2971.45984	37149.4625
2973.90632	37187.9625
2976.35131	37150.9625
2978.7948	37060.6625
2981.23681	36973.8625
2983.67732	36967.1625
2986.11635	36926.4625
2988.55388	36829.8625
2990.98993	36766.7625
2993.4245	36669.6625
2995.85758	36569.7625
2998.28917	36452.4625
3000.71928	36387.8625
3003.14791	36217.5625
3005.57506	36182.9625
3008.00073	36050.9625
3010.42493	36031.4625
3012.84764	35953.3625
3015.26888	35916.8625
3017.68865	35844.1625
3020.10694	35816.0625
3022.52376	35729.6625
3024.9391	35808.2625
3027.35298	35759.8625
3029.76539	35690.4625
3032.17632	35666.4625
3034.5858	35633.4625
3036.9938	35548.6625
3039.40034	35514.0625
3041.80542	35454.5625
3044.20903	35345.2625
3046.61118	35362.4625
3049.01187	35216.1625
3051.4111	35261.3625
3053.80888	35172.2625
3056.20519	35144.4625
3058.60005	35038.2625
3060.99345	34997.4625
3063.3854	34842.6625
3065.7759	34745.6625
3068.16494	34693.4625
3070.55254	34555.6625
3072.93868	34542.7625
3075.32338	34393.8625
3077.70662	34327.2625
3080.08842	34224.1625
3082.46878	34246.2625
3084.84769	34244.1625
3087.22515	34299.3625
3089.60118	34247.8625
3091.97576	34179.6625
3094.3489	34150.6625
3096.72061	34099.4625
3099.09087	34120.9625
3101.4597	34028.4625
3103.82709	34085.6625
3106.19305	34077.2625
3108.55757	34052.7625
3110.92066	33995.4625
3113.28232	34007.7625
3115.64255	33874.8625
3118.00134	33822.9625
3120.35871	33737.2625
3122.71466	33641.7625
3125.06917	33596.5625
3127.42226	33464.2625
3129.77393	33484.2625
3132.12417	33402.8625
3134.47299	33347.1625
3136.82039	33284.4625
3139.16636	33242.3625
3141.51092	33247.4625
3143.85406	33260.5625
3146.19579	33248.8625
3148.53609	33254.6625
3150.87499	33310.0625
3153.21246	33274.5625
3155.54853	33349.7625
3157.88318	33263.1625
3160.21642	33303.5625
3162.54826	33255.4625
3164.87868	33304.0625
3167.2077	33322.5625
3169.5353	33312.1625
3171.86151	33248.2625
3174.18631	33143.2625
3176.5097	33112.4625
3178.83169	33028.8625
3181.15228	33067.8625
3183.47147	32939.3625
3185.78926	32892.1625
3188.10565	32785.9625
3190.42065	32731.8625
3192.73424	32696.9625
3195.04645	32708.1625
3197.35725	32725.0625
3199.66667	32629.2625
3201.97469	32625.5625
3204.28132	32630.4625
3206.58656	32622.9625
3208.8904	32646.5625
3211.19287	32633.4625
3213.49394	32595.9625
3215.79363	32614.8625
3218.09193	32661.1625
3220.38884	32595.1625
3222.68438	32658.9625
3224.97853	32550.8625
3227.2713	32564.9625
3229.56269	32510.9625
3231.8527	32482.3625
3234.14133	32427.6625
3236.42858	32396.9625
3238.71446	32370.7625
3240.99896	32285.3625
3243.28209	32167.4625
3245.56384	32058.9625
3247.84423	32013.1625
3250.12324	31977.3625
3252.40088	31980.8625
3254.67715	31992.7625
3256.95205	31930.9625
3259.22558	31949.8625
3261.49775	31886.5625
3263.76855	31916.6625
3266.03799	31818.1625
3268.30606	31780.1625
3270.57277	31764.0625
3272.83812	31627.2625
3275.10211	31590.7625
3277.36474	31495.0625
3279.62601	31445.0625
3281.88593	31469.8625
3284.14448	31521.8625
3286.40168	31427.8625
3288.65753	31363.9625
3290.91202	31380.9625
3293.16516	31332.8625
3295.41695	31249.0625
3297.66738	31140.4625
3299.91647	30917.0625
3302.16421	30785.8625
3304.4106	30613.2625
3306.65564	30463.5625
3308.89933	30205.6625
3311.14169	30025.8625
3313.38269	29807.5625
3315.62236	29673.9625
3317.86068	29496.4625
3320.09766	29306.4625
3322.3333	29072.6625
3324.5676	28938.1625
3326.80056	28510.1625
3329.03219	28391.7625
3331.26248	4.6625
3333.49143	-0.1375
3335.71905	0.3625
