Data from AgNPs_UA_0uM_CRN_0uM_R6G_10uM_Q_RamanShift__1__11-19-38-745.txt Node

Date: Wed Jul 13 11:19:38 BST 2022
User: TCL
Spectrometer: QEP01345
Trigger mode: 4
Integration Time (sec): 7.000000E0
Scans to average: 10
Electric dark correction enabled: true
Nonlinearity correction enabled: false
Boxcar width: 0
XAxis mode: Raman Shifts
Number of Pixels in Spectrum: 1044
>>>>>Begin Spectral Data<<<<<
46.04893	0.1
50.45542	0.8
54.85868	-1.1
59.25871	-1.3
63.6555	44.2
68.04907	47.9
72.43941	55.3
76.82654	54.4
81.21044	60.6
85.59113	64.1
89.96862	68
94.34289	67.9
98.71396	67
103.08183	76.8
107.4465	74.1
111.80798	80.5
116.16626	76.4
120.52136	80.6
124.87327	80.9
129.222	80.8
133.56755	81.7
137.90993	91.3
142.24913	89
146.58517	100.5
150.91804	109.8
155.24774	125
159.57429	146.6
163.89768	177.6
168.21792	227.5
172.53501	297.4
176.84895	407
181.15975	559.4
185.46741	773.5
189.77193	1069.6
194.07331	1455.9
198.37157	1889.1
202.6667	2360.1
206.9587	2863.5
211.24758	3356
215.53334	3879.3
219.81599	4437.2
224.09553	5082.4
228.37195	5782.2
232.64527	6601
236.91549	7438.3
241.18261	8323.5
245.44663	9183.8
249.70755	9994.3
253.96539	10701.1
258.22014	11257.2
262.4718	11648.9
266.72039	11844.9
270.96589	11784.3
275.20832	11569.5
279.44768	11177.9
283.68397	10621.7
287.91719	10046.8
292.14735	9443.4
296.37445	8873.3
300.59849	8403
304.81948	8006
309.03742	7617.1
313.25231	7238.8
317.46415	6760.1
321.67296	6260.6
325.87872	5791.2
330.08145	5499.4
334.28114	5368.2
338.47781	5307.4
342.67145	5301.4
346.86207	5346.7
351.04966	5485.2
355.23424	5622
359.4158	5671.4
363.59435	5619.8
367.76989	5563.1
371.94243	5457.2
376.11196	5394.4
380.27849	5337.1
384.44203	5300.6
388.60257	5252
392.76012	5243.8
396.91468	5290.3
401.06626	5381.3
405.21485	5416.3
409.36047	5315.9
413.50311	5162.3
417.64277	5020.2
421.77947	4949.3
425.9132	4913.5
430.04396	4896.3
434.17176	4912
438.2966	4955
442.41849	4989.4
446.53742	5045.1
450.6534	5089.7
454.76644	5109.5
458.87653	5099.5
462.98368	5114.3
467.08789	5083.7
471.18916	5039.2
475.2875	4979.9
479.38291	4935.5
483.4754	4898
487.56496	4890.9
491.6516	4876.1
495.73531	4872.5
499.81612	4915.4
503.89401	4914
507.96899	4958.5
512.04106	5006
516.11023	5078.8
520.1765	5144.9
524.23987	5185.6
528.30034	5234.1
532.35792	5252.2
536.41261	5279.4
540.46441	5265
544.51333	5288.2
548.55936	5335
552.60252	5417.4
556.64279	5514.3
560.6802	5609.7
564.71473	5712.5
568.7464	5821.8
572.7752	5795.2
576.80114	5536.6
580.82422	5305.8
584.84444	5180.7
588.86181	5120.8
592.87633	5111
596.888	5186.3
600.89682	5418.3
604.9028	5954.7
608.90594	7157.8
612.90624	8532.8
616.90371	8217
620.89834	6648.7
624.89015	5884.6
628.87913	5671.6
632.86528	5582.8
636.84862	5512.5
640.82913	5356.2
644.80683	5167.2
648.78172	5068.9
652.75379	5128.2
656.72306	5312.3
660.68952	5526.5
664.65319	5638.4
668.61405	5725.6
672.57211	6001.6
676.52738	6350
680.47986	6697.9
684.42955	6929.8
688.37646	7068.9
692.32058	7090.1
696.26192	7055.1
700.20048	6990.5
704.13626	6882.6
708.06928	6775.8
711.99952	6595
715.927	6421
719.85171	6251.9
723.77365	6061.5
727.69284	5867.3
731.60928	5720.3
735.52295	5623.2
739.43388	5534.7
743.34206	5495.6
747.24749	5463.3
751.15017	5427.3
755.05012	5407.2
758.94733	5542.3
762.8418	5953.2
766.73354	6560.3
770.62254	7064
774.50882	7154.9
778.39237	6908
782.27321	6465.6
786.15132	5991.4
790.02671	5678.1
793.89938	5529.7
797.76935	5474.7
801.6366	5436.5
805.50115	5431.3
809.36299	5435.8
813.22213	5457.5
817.07857	5492.1
820.93231	5523.2
824.78336	5540.8
828.63172	5574.3
832.47738	5560.3
836.32036	5505.8
840.16066	5497.6
843.99827	5476.3
847.8332	5482
851.66546	5498.6
855.49504	5496.2
859.32195	5509.3
863.1462	5517.5
866.96777	5559.1
870.78668	5585.2
874.60293	5631.4
878.41652	5691.6
882.22745	5768.1
886.03573	5832.9
889.84136	5895.7
893.64433	6014.5
897.44466	6112.2
901.24235	6271.1
905.0374	6418
908.8298	6572.3
912.61957	6671.8
916.40671	6729.8
920.19121	6723
923.97308	6694.1
927.75233	6689.9
931.52895	6690.1
935.30295	6595.2
939.07433	6430.7
942.84309	6307.4
946.60924	6196
950.37278	6117.4
954.13371	6031.6
957.89203	6002.1
961.64774	5966.8
965.40086	5932.8
969.15137	5930.4
972.89929	5892.7
976.64461	5877.4
980.38733	5862.4
984.12747	5843.9
987.86502	5861.3
991.59999	5867.6
995.33237	5888.3
999.06217	5933.2
1002.78939	5987.9
1006.51404	6049.6
1010.23611	6140.3
1013.95561	6171.1
1017.67255	6203.5
1021.38692	6249.3
1025.09872	6267.2
1028.80796	6337.5
1032.51465	6451.8
1036.21877	6648.1
1039.92035	6972.6
1043.61937	7457
1047.31584	7948.8
1051.00976	8400.6
1054.70114	8576.6
1058.38998	8414.9
1062.07627	7958.2
1065.76003	7332.2
1069.44126	6797.4
1073.11995	6394.2
1076.79611	6186.5
1080.46974	6086.6
1084.14085	6094.8
1087.80943	6135.2
1091.47549	6122.7
1095.13903	6003.3
1098.80005	5898.3
1102.45857	5858.9
1106.11456	5837.3
1109.76805	5813.5
1113.41903	5861.6
1117.06751	5924.2
1120.71348	6057.2
1124.35696	6214
1127.99793	6349.8
1131.63641	6307.7
1135.2724	6092.4
1138.90589	5939.8
1142.5369	5804.7
1146.16542	5733.8
1149.79145	5692.7
1153.415	5662.2
1157.03607	5673.6
1160.65467	5675.6
1164.27079	5752.3
1167.88443	5880.1
1171.49561	6113.6
1175.10432	6477.2
1178.71056	6981.1
1182.31434	7398.9
1185.91565	7419.9
1189.51451	7205.9
1193.11091	6913.8
1196.70485	6672.1
1200.29634	6528.3
1203.88538	6388.9
1207.47197	6194.9
1211.05612	6020.1
1214.63782	5897.2
1218.21708	5837.8
1221.79391	5813.7
1225.36829	5805.5
1228.94024	5825.7
1232.50976	5851.8
1236.07685	5903.2
1239.6415	5933.9
1243.20374	5957
1246.76355	6032
1250.32093	6085.7
1253.8759	6144.9
1257.42845	6224.2
1260.97859	6373.2
1264.52631	6548
1268.07163	6688.7
1271.61453	6815.9
1275.15503	6856.6
1278.69312	6895.5
1282.22882	6943.8
1285.76211	7068.2
1289.29301	7247.4
1292.82151	7468.1
1296.34761	7658.2
1299.87133	7888.1
1303.39266	8321.7
1306.9116	8970.9
1310.42815	9718.3
1313.94233	10011.7
1317.45412	9680.2
1320.96354	9016.6
1324.47058	8495.6
1327.97525	8058.2
1331.47754	7810.3
1334.97747	7668.7
1338.47502	7686
1341.97022	7820.4
1345.46305	8148.6
1348.95352	8648.3
1352.44163	9175.6
1355.92738	9726.2
1359.41078	10617.2
1362.89183	11647.1
1366.37053	11543.5
1369.84688	10202.3
1373.32088	8876.9
1376.79254	8156.9
1380.26186	7862.4
1383.72883	7694.2
1387.19347	7542.2
1390.65578	7405.8
1394.11575	7357.3
1397.57339	7339.6
1401.0287	7378.2
1404.48168	7404.6
1407.93234	7449.2
1411.38068	7540.9
1414.82669	7662.7
1418.27039	7768.6
1421.71177	7865.5
1425.15083	7889.8
1428.58758	7930.5
1432.02203	7978.5
1435.45416	8037.4
1438.88399	8058.8
1442.31151	8068.4
1445.73673	8082
1449.15965	8074.4
1452.58027	8081.1
1455.9986	8042.8
1459.41463	8029.1
1462.82837	7989.8
1466.23982	8009.6
1469.64898	8027
1473.05586	7982.3
1476.46045	7952.3
1479.86276	7917.4
1483.26279	7909.8
1486.66054	7889.4
1490.05602	7934.4
1493.44922	8060.2
1496.84016	8356.2
1500.22882	8863.4
1503.61521	9630.9
1506.99934	10555.2
1510.38121	11285.4
1513.76081	11395.6
1517.13816	10585.2
1520.51324	9364.3
1523.88607	8273.5
1527.25665	7548.8
1530.62498	7131.3
1533.99105	6862.8
1537.35488	6687.1
1540.71647	6574.5
1544.07581	6484.4
1547.4329	6444.9
1550.78776	6449
1554.14038	6439
1557.49077	6493.4
1560.83892	6566.3
1564.18484	6696.8
1567.52853	6894.7
1570.86999	7091.2
1574.20922	7175
1577.54624	7124.7
1580.88103	6824.2
1584.2136	6450.7
1587.54395	6223.5
1590.87208	6123.4
1594.19801	6197
1597.52172	6295.5
1600.84321	6310.6
1604.16251	6185.5
1607.47959	6060.2
1610.79447	5984.6
1614.10715	5865.9
1617.41763	5764.8
1620.7259	5681.9
1624.03199	5652.9
1627.33587	5682.5
1630.63757	5712.9
1633.93707	5813.3
1637.23439	5979.4
1640.52951	6298.5
1643.82246	6808.1
1647.11321	7450.1
1650.40179	7968.3
1653.68819	7880.2
1656.97241	7230.5
1660.25446	6466.1
1663.53433	5946.4
1666.81203	5618.5
1670.08756	5439.2
1673.36092	5315.7
1676.63211	5248
1679.90115	5186.2
1683.16801	5146.4
1686.43272	5123
1689.69527	5075.4
1692.95567	5046
1696.2139	5037.1
1699.46999	5027.8
1702.72392	5006.3
1705.97571	5016.7
1709.22535	5027.1
1712.47284	5042.5
1715.71819	5040.2
1718.96139	5070.1
1722.20246	5071.1
1725.44139	5060.2
1728.67818	5072.4
1731.91284	5090.5
1735.14537	5098.2
1738.37576	5117.1
1741.60403	5169.1
1744.83017	5186.4
1748.05418	5225.2
1751.27607	5289.9
1754.49584	5319.8
1757.71349	5370.1
1760.92903	5405.5
1764.14244	5448
1767.35375	5462.7
1770.56294	5501.4
1773.77002	5504.3
1776.97499	5488.3
1780.17785	5468.8
1783.37861	5431.4
1786.57727	5373.1
1789.77382	5327.7
1792.96828	5270.7
1796.16064	5191.6
1799.3509	5119.6
1802.53907	5055.6
1805.72514	5004.2
1808.90913	4946
1812.09102	4895.8
1815.27083	4817.4
1818.44856	4794.4
1821.6242	4761
1824.79776	4720.6
1827.96924	4705.2
1831.13864	4696.8
1834.30597	4684
1837.47122	4662.7
1840.6344	4640.8
1843.7955	4660.4
1846.95454	4648.7
1850.11151	4630.6
1853.26642	4637.4
1856.41926	4620.9
1859.57004	4615.9
1862.71876	4626.1
1865.86542	4632.6
1869.01003	4628
1872.15258	4603.3
1875.29308	4601.1
1878.43152	4590.5
1881.56792	4595.6
1884.70227	4586
1887.83457	4594.8
1890.96482	4564.2
1894.09304	4559.3
1897.21921	4570.8
1900.34335	4559.9
1903.46544	4556.7
1906.58551	4559.4
1909.70353	4556.7
1912.81953	4583
1915.93349	4582.1
1919.04543	4589.1
1922.15534	4584.3
1925.26322	4588.8
1928.36908	4593.2
1931.47292	4588.8
1934.57473	4591.6
1937.67453	4582.6
1940.77232	4562.2
1943.86808	4557.1
1946.96184	4550.1
1950.05358	4528.7
1953.14331	4502.3
1956.23103	4479.6
1959.31675	4460.9
1962.40046	4439.7
1965.48217	4420
1968.56188	4397.1
1971.63959	4398.2
1974.7153	4369.4
1977.78901	4362.6
1980.86073	4361.7
1983.93046	4350
1986.99819	4313
1990.06394	4300.2
1993.1277	4299.2
1996.18947	4287.6
1999.24925	4283.4
2002.30706	4268.7
2005.36288	4254.8
2008.41672	4269.1
2011.46859	4269.8
2014.51848	4267.6
2017.56639	4269.5
2020.61233	4282.5
2023.6563	4273.6
2026.6983	4273
2029.73833	4299.2
2032.7764	4322.6
2035.8125	4340
2038.84664	4359.4
2041.87881	4387.6
2044.90903	4419.3
2047.93729	4453.5
2050.96359	4499.3
2053.98794	4511.4
2057.01034	4567.5
2060.03078	4587.5
2063.04927	4620.3
2066.06582	4651.6
2069.08042	4673
2072.09307	4689.1
2075.10378	4681.4
2078.11255	4683.3
2081.11938	4689.9
2084.12426	4665.2
2087.12722	4654
2090.12824	4611.3
2093.12732	4584.6
2096.12447	4561.6
2099.11969	4508.8
2102.11299	4475.8
2105.10435	4447.9
2108.09379	4397.4
2111.08131	4376.8
2114.0669	4332.2
2117.05057	4291.3
2120.03233	4267.7
2123.01216	4236.7
2125.99008	4223.2
2128.96609	4186.1
2131.94018	4173.6
2134.91236	4153.1
2137.88263	4152.3
2140.851	4144.1
2143.81746	4132.6
2146.78201	4114.9
2149.74466	4109.8
2152.7054	4098
2155.66425	4085.5
2158.6212	4083
2161.57625	4078.1
2164.52941	4070.8
2167.48067	4071
2170.43004	4057.1
2173.37752	4055.3
2176.32311	4056.9
2179.26681	4050.7
2182.20863	4046.6
2185.14856	4048.4
2188.08661	4049.2
2191.02278	4047.3
2193.95707	4041.9
2196.88948	4038.2
2199.82001	4041.6
2202.74867	4011.7
2205.67545	4013.8
2208.60037	4006.8
2211.52341	4011.1
2214.44458	3994.5
2217.36388	3983
2220.28132	3965.7
2223.1969	3955.2
2226.11061	3964.5
2229.02246	3948
2231.93245	3931.3
2234.84058	3936.4
2237.74686	3943.3
2240.65128	3928.2
2243.55385	3921.9
2246.45456	3922.9
2249.35343	3902.8
2252.25044	3907.1
2255.14561	3902.1
2258.03893	3908
2260.93041	3896.3
2263.82004	3902.7
2266.70783	3887.2
2269.59378	3880
2272.4779	3881.3
2275.36017	3858.5
2278.24061	3850.9
2281.11922	3840.7
2283.996	3845.4
2286.87094	3826.7
2289.74405	3826.6
2292.61534	3812.4
2295.4848	3814.4
2298.35243	3817.1
2301.21824	3818.4
2304.08223	3802.6
2306.94439	3806.4
2309.80474	3804.9
2312.66327	3804.3
2315.51999	3783.7
2318.37489	3802.1
2321.22797	3774.1
2324.07925	3763
2326.92871	3772.3
2329.77637	3765.6
2332.62222	3758.6
2335.46626	3754
2338.3085	3735.2
2341.14893	3741.3
2343.98756	3731.8
2346.8244	3725.8
2349.65943	3731.4
2352.49267	3735.1
2355.32411	3730.1
2358.15376	3739.9
2360.98161	3729.8
2363.80768	3726.2
2366.63195	3724.4
2369.45444	3729.5
2372.27514	3724.3
2375.09405	3724.1
2377.91118	3703.7
2380.72652	3703.8
2383.54009	3704.2
2386.35187	3691.6
2389.16188	3685.4
2391.97011	3672.9
2394.77657	3653.9
2397.58125	3651.2
2400.38416	3653
2403.18529	3649.6
2405.98466	3637.4
2408.78226	3629.5
2411.57809	3621.8
2414.37216	3622.4
2417.16446	3604
2419.955	3609.9
2422.74378	3599.1
2425.5308	3596.9
2428.31606	3605.1
2431.09956	3603
2433.88131	3599.8
2436.6613	3602.2
2439.43954	3586.7
2442.21603	3581.3
2444.99077	3577.3
2447.76377	3586.3
2450.53501	3592.2
2453.30451	3580.2
2456.07226	3571
2458.83827	3571
2461.60254	3568.5
2464.36507	3573.6
2467.12586	3559.2
2469.88492	3562.8
2472.64224	3561.3
2475.39782	3564.6
2478.15167	3563.8
2480.90379	3554.2
2483.65417	3556.2
2486.40283	3548.3
2489.14976	3557.7
2491.89497	3538.4
2494.63845	3557.3
2497.3802	3533.6
2500.12024	3530.3
2502.85855	3548.3
2505.59514	3525.8
2508.33002	3531.8
2511.06318	3513.7
2513.79462	3499.9
2516.52435	3503.5
2519.25237	3502.7
2521.97867	3485
2524.70327	3484.2
2527.42616	3471.6
2530.14734	3474.3
2532.86681	3481.8
2535.58458	3460.4
2538.30065	3449.2
2541.01501	3451.8
2543.72768	3448.3
2546.43864	3450.4
2549.14791	3436.2
2551.85548	3443.2
2554.56136	3435.8
2557.26554	3440.2
2559.96803	3418.9
2562.66883	3420.8
2565.36794	3422.2
2568.06536	3408.7
2570.7611	3393.1
2573.45514	3400.8
2576.14751	3399.9
2578.83819	3382.9
2581.52719	3375.9
2584.21451	3367.6
2586.90015	3371.3
2589.58411	3376.5
2592.2664	3354.1
2594.94701	3359.9
2597.62594	3351.7
2600.30321	3329
2602.9788	3334.5
2605.65273	3339.5
2608.32498	3318.4
2610.99557	3328.1
2613.66449	3304.9
2616.33175	3303.8
2618.99734	3318.9
2621.66128	3298
2624.32355	3296.5
2626.98416	3292.2
2629.64311	3298.1
2632.30041	3300.6
2634.95605	3292.7
2637.61004	3286.8
2640.26238	3270.7
2642.91306	3264
2645.56209	3258.6
2648.20948	3249.3
2650.85521	3242.1
2653.4993	3246.3
2656.14175	3250.4
2658.78255	3238.8
2661.42171	3234
2664.05923	3248.6
2666.6951	3247.3
2669.32934	3248.6
2671.96194	3242.4
2674.59291	3239.9
2677.22224	3237.4
2679.84993	3236.9
2682.476	3230.9
2685.10043	3232.7
2687.72324	3232.7
2690.34441	3217.7
2692.96396	3230.4
2695.58188	3220.6
2698.19818	3217.1
2700.81285	3222.9
2703.4259	3211
2706.03733	3223.4
2708.64714	3230.3
2711.25533	3217.2
2713.86191	3222.4
2716.46687	3222.2
2719.07021	3244.1
2721.67194	3232.3
2724.27206	3206.1
2726.87057	3221.1
2729.46747	3210
2732.06276	3230.5
2734.65644	3213.3
2737.24852	3211.9
2739.83899	3210.1
2742.42786	3209.7
2745.01513	3202.4
2747.60079	3204.5
2750.18486	3188.5
2752.76733	3165.8
2755.3482	3170.3
2757.92747	3176.3
2760.50515	3159.7
2763.08123	3163.1
2765.65573	3134.3
2768.22863	3150.5
2770.79994	3140.7
2773.36967	3137.5
2775.9378	3126.4
2778.50435	3131.2
2781.06932	3133
2783.6327	3127.5
2786.1945	3109.5
2788.75471	3129.3
2791.31335	3097.2
2793.87041	3098.2
2796.42589	3106.1
2798.97979	3093.5
2801.53212	3084.3
2804.08288	3086.7
2806.63206	3077
2809.17967	3061.4
2811.72571	3060.5
2814.27018	3052.6
2816.81308	3049.1
2819.35442	3040.3
2821.89419	3031.7
2824.43239	3034.1
2826.96904	3024.1
2829.50412	3035.6
2832.03763	3021.4
2834.56959	3023.4
2837.1	3025.3
2839.62884	3009.7
2842.15613	3006.6
2844.68186	3004.2
2847.20604	2997.6
2849.72867	2999.5
2852.24974	3006.3
2854.76927	2997.6
2857.28724	2997.7
2859.80367	3000.4
2862.31855	2991.8
2864.83189	2994.4
2867.34368	2998.3
2869.85393	2994.9
2872.36264	2987.7
2874.8698	2971.3
2877.37543	2976.4
2879.87952	2966.8
2882.38207	2970.6
2884.88308	2973.1
2887.38256	2976.7
2889.88051	2965.7
2892.37692	2963.4
2894.8718	2973.7
2897.36515	2970.5
2899.85698	2965.7
2902.34727	2982.8
2904.83604	2984.6
2907.32328	2988.2
2909.809	2986.7
2912.29319	2995.7
2914.77587	2990.5
2917.25702	2993.8
2919.73665	3002.8
2922.21476	3001.4
2924.69136	2985.5
2927.16644	2992
2929.64	2981.5
2932.11205	2969.3
2934.58258	2961.4
2937.05161	2967.3
2939.51912	2968.2
2941.98513	2950.9
2944.44962	2949.9
2946.91261	2942.2
2949.37409	2944.7
2951.83407	2945.6
2954.29254	2946.6
2956.74951	2942.3
2959.20498	2936.5
2961.65895	2945.9
2964.11142	2936.2
2966.56239	2940.2
2969.01186	2936
2971.45984	2939.7
2973.90632	2930.6
2976.35131	2931
2978.7948	2917.6
2981.23681	2928.2
2983.67732	2920.9
2986.11635	2923
2988.55388	2914.1
2990.98993	2918.9
2993.4245	2908.7
2995.85758	2896.1
2998.28917	2878.4
3000.71928	2893.2
3003.14791	2879.1
3005.57506	2883.5
3008.00073	2864.4
3010.42493	2873.2
3012.84764	2880.9
3015.26888	2874.5
3017.68865	2861.7
3020.10694	2855.1
3022.52376	2853
3024.9391	2854.5
3027.35298	2855.2
3029.76539	2855.8
3032.17632	2854.6
3034.5858	2852.8
3036.9938	2838.3
3039.40034	2836.2
3041.80542	2830.2
3044.20903	2824.2
3046.61118	2823.3
3049.01187	2837.9
3051.4111	2823.6
3053.80888	2824
3056.20519	2815.8
3058.60005	2822.9
3060.99345	2818.1
3063.3854	2807.6
3065.7759	2816.1
3068.16494	2804.4
3070.55254	2805.7
3072.93868	2794.4
3075.32338	2806.1
3077.70662	2784
3080.08842	2785.6
3082.46878	2786.5
3084.84769	2781.1
3087.22515	2775
3089.60118	2802.2
3091.97576	2794
3094.3489	2791.3
3096.72061	2796.6
3099.09087	2799.5
3101.4597	2801.9
3103.82709	2813.7
3106.19305	2801.9
3108.55757	2816.6
3110.92066	2804.6
3113.28232	2806.6
3115.64255	2799.8
3118.00134	2805.9
3120.35871	2823.2
3122.71466	2816.9
3125.06917	2806.9
3127.42226	2812.8
3129.77393	2813.5
3132.12417	2803.9
3134.47299	2807.2
3136.82039	2813.5
3139.16636	2815.6
3141.51092	2829.3
3143.85406	2844.2
3146.19579	2823.9
3148.53609	2850.1
3150.87499	2863.1
3153.21246	2865
3155.54853	2857.7
3157.88318	2863.8
3160.21642	2888.6
3162.54826	2892.6
3164.87868	2889.9
3167.2077	2897.2
3169.5353	2896.6
3171.86151	2896.4
3174.18631	2906.5
3176.5097	2894.7
3178.83169	2900.8
3181.15228	2903.3
3183.47147	2892.1
3185.78926	2905.7
3188.10565	2890.7
3190.42065	2901.4
3192.73424	2903.8
3195.04645	2903.9
3197.35725	2903.1
3199.66667	2910.9
3201.97469	2910.4
3204.28132	2924.3
3206.58656	2906.4
3208.8904	2919.3
3211.19287	2921.8
3213.49394	2928.7
3215.79363	2953.5
3218.09193	2941.6
3220.38884	2951.7
3222.68438	2953.6
3224.97853	2936
3227.2713	2950.6
3229.56269	2950.9
3231.8527	2933.1
3234.14133	2936.7
3236.42858	2933.3
3238.71446	2939.3
3240.99896	2927.1
3243.28209	2933.6
3245.56384	2916.6
3247.84423	2917.4
3250.12324	2920.8
3252.40088	2917.3
3254.67715	2910.8
3256.95205	2917.4
3259.22558	2923.6
3261.49775	2917.6
3263.76855	2911.8
3266.03799	2909.1
3268.30606	2918.4
3270.57277	2909
3272.83812	2888.7
3275.10211	2883
3277.36474	2876
3279.62601	2900.4
3281.88593	2866.6
3284.14448	2886.5
3286.40168	2869.6
3288.65753	2886.3
3290.91202	2886.2
3293.16516	2873.8
3295.41695	2875.2
3297.66738	2860.3
3299.91647	2843.5
3302.16421	2824.5
3304.4106	2804.2
3306.65564	2792.9
3308.89933	2784.4
3311.14169	2768.8
3313.38269	2743.7
3315.62236	2731.1
3317.86068	2719.3
3320.09766	2700.4
3322.3333	2675
3324.5676	2661.9
3326.80056	2632.8
3329.03219	2610.9
3331.26248	0.4
3333.49143	1
3335.71905	0.9
