Data from AgNPs_UA_5uM_CRN_0uM_R6G_10uM_Q_RamanShift__34__11-28-55-332.txt Node

Date: Mon Jul 18 11:28:55 BST 2022
User: TCL
Spectrometer: QEP01345
Trigger mode: 4
Integration Time (sec): 7.000000E0
Scans to average: 10
Electric dark correction enabled: true
Nonlinearity correction enabled: false
Boxcar width: 0
XAxis mode: Raman Shifts
Number of Pixels in Spectrum: 1044
>>>>>Begin Spectral Data<<<<<
46.04893	-1.9375
50.45542	-0.7375
54.85868	-0.7375
59.25871	-1.9375
63.6555	108.5625
68.04907	114.7625
72.43941	119.1625
76.82654	124.6625
81.21044	127.2625
85.59113	129.3625
89.96862	137.4625
94.34289	137.4625
98.71396	145.8625
103.08183	150.8625
107.4465	154.4625
111.80798	160.1625
116.16626	165.3625
120.52136	171.9625
124.87327	175.9625
129.222	186.7625
133.56755	200.2625
137.90993	218.5625
142.24913	239.5625
146.58517	266.2625
150.91804	313.9625
155.24774	372.3625
159.57429	462.1625
163.89768	600.1625
168.21792	795.3625
172.53501	1102.2625
176.84895	1525.9625
181.15975	2147.6625
185.46741	3005.4625
189.77193	4144.9625
194.07331	5501.7625
198.37157	7073.7625
202.6667	8752.0625
206.9587	10361.5625
211.24758	11960.9625
215.53334	13630.5625
219.81599	15401.1625
224.09553	17452.2625
228.37195	19720.3625
232.64527	22154.7625
236.91549	24624.8625
241.18261	26918.7625
245.44663	28909.9625
249.70755	30665.3625
253.96539	32125.5625
258.22014	33481.4625
262.4718	34572.0625
266.72039	35346.7625
270.96589	35694.7625
275.20832	35685.8625
279.44768	35252.0625
283.68397	34714.4625
287.91719	34350.5625
292.14735	34166.3625
296.37445	34471.6625
300.59849	35228.5625
304.81948	36092.9625
309.03742	36723.3625
313.25231	36762.5625
317.46415	35998.5625
321.67296	34625.2625
325.87872	33623.9625
330.08145	33259.1625
334.28114	33371.6625
338.47781	33787.0625
342.67145	34446.7625
346.86207	35383.8625
351.04966	36553.7625
355.23424	37841.2625
359.4158	38851.5625
363.59435	39575.0625
367.76989	39938.6625
371.94243	40149.2625
376.11196	40240.0625
380.27849	40439.0625
384.44203	40572.8625
388.60257	40563.0625
392.76012	40641.3625
396.91468	41086.7625
401.06626	41797.0625
405.21485	42286.7625
409.36047	41792.5625
413.50311	40672.6625
417.64277	39668.2625
421.77947	39263.8625
425.9132	39205.4625
430.04396	39522.0625
434.17176	40093.9625
438.2966	41156.0625
442.41849	42636.0625
446.53742	44744.9625
450.6534	46765.9625
454.76644	47983.9625
458.87653	47959.9625
462.98368	46924.1625
467.08789	45634.9625
471.18916	44223.5625
475.2875	42782.8625
479.38291	41571.9625
483.4754	40665.6625
487.56496	39897.4625
491.6516	39262.5625
495.73531	38959.3625
499.81612	38838.5625
503.89401	39110.9625
507.96899	39296.6625
512.04106	39499.0625
516.11023	39857.9625
520.1765	40193.9625
524.23987	40389.9625
528.30034	40431.9625
532.35792	40217.9625
536.41261	39688.6625
540.46441	39016.0625
544.51333	38760.2625
548.55936	39171.1625
552.60252	39986.0625
556.64279	40906.1625
560.6802	41379.4625
564.71473	41605.9625
568.7464	42328.7625
572.7752	42965.9625
576.80114	42754.7625
580.82422	42765.5625
584.84444	43830.1625
588.86181	46196.4625
592.87633	49159.4625
596.888	50790.4625
600.89682	50693.2625
604.9028	52918.7625
608.90594	60750.3625
612.90624	68368.4625
616.90371	62203.4625
620.89834	48604.9625
624.89015	43083.3625
628.87913	42152.7625
632.86528	42006.0625
636.84862	41635.8625
640.82913	40691.6625
644.80683	39383.7625
648.78172	38616.8625
652.75379	38971.7625
656.72306	40294.6625
660.68952	41508.2625
664.65319	41044.2625
668.61405	39848.3625
672.57211	39555.6625
676.52738	39556.9625
680.47986	39236.5625
684.42955	38851.5625
688.37646	38838.0625
692.32058	39102.1625
696.26192	39611.2625
700.20048	40156.5625
704.13626	40349.0625
708.06928	39951.9625
711.99952	39583.8625
715.927	39748.8625
719.85171	39977.7625
723.77365	39823.8625
727.69284	39313.5625
731.60928	39056.2625
735.52295	39277.2625
739.43388	39539.3625
743.34206	39864.1625
747.24749	40054.3625
751.15017	40417.7625
755.05012	41057.9625
758.94733	42566.2625
762.8418	45794.6625
766.73354	50916.5625
770.62254	55946.3625
774.50882	57625.6625
778.39237	54779.5625
782.27321	49367.6625
786.15132	44645.4625
790.02671	41832.1625
793.89938	40641.4625
797.76935	40095.3625
801.6366	39880.4625
805.50115	39693.0625
809.36299	39472.3625
813.22213	39305.8625
817.07857	39137.9625
820.93231	39068.8625
824.78336	39242.9625
828.63172	39336.5625
832.47738	39461.0625
836.32036	39517.3625
840.16066	39608.8625
843.99827	39606.3625
847.8332	39431.8625
851.66546	39359.4625
855.49504	39410.9625
859.32195	39338.1625
863.1462	39157.4625
866.96777	39032.1625
870.78668	38988.0625
874.60293	39065.7625
878.41652	39223.4625
882.22745	39517.1625
886.03573	39658.5625
889.84136	39541.8625
893.64433	39297.6625
897.44466	39134.2625
901.24235	39078.5625
905.0374	39002.3625
908.8298	38925.8625
912.61957	38921.7625
916.40671	39163.7625
920.19121	39639.5625
923.97308	40169.8625
927.75233	40689.2625
931.52895	40768.5625
935.30295	40419.0625
939.07433	39510.5625
942.84309	38889.6625
946.60924	38635.0625
950.37278	38479.6625
954.13371	38331.1625
957.89203	38114.7625
961.64774	38014.5625
965.40086	37924.7625
969.15137	37822.5625
972.89929	37841.2625
976.64461	37973.3625
980.38733	38190.5625
984.12747	38541.5625
987.86502	39065.5625
991.59999	39694.7625
995.33237	40670.3625
999.06217	42210.5625
1002.78939	43855.1625
1006.51404	44733.3625
1010.23611	45309.1625
1013.95561	45910.2625
1017.67255	46114.2625
1021.38692	45635.4625
1025.09872	44927.6625
1028.80796	44832.2625
1032.51465	45643.8625
1036.21877	46442.8625
1039.92035	46389.2625
1043.61937	45692.3625
1047.31584	44501.4625
1051.00976	43346.6625
1054.70114	42705.7625
1058.38998	42559.2625
1062.07627	42702.6625
1065.76003	42884.3625
1069.44126	43111.1625
1073.11995	43689.5625
1076.79611	44286.1625
1080.46974	44892.1625
1084.14085	45644.3625
1087.80943	46462.6625
1091.47549	46808.9625
1095.13903	46250.2625
1098.80005	45242.8625
1102.45857	44406.8625
1106.11456	44259.0625
1109.76805	44555.5625
1113.41903	45184.4625
1117.06751	46002.3625
1120.71348	46964.9625
1124.35696	47978.5625
1127.99793	48744.1625
1131.63641	48635.3625
1135.2724	47596.3625
1138.90589	46485.5625
1142.5369	45823.8625
1146.16542	45542.0625
1149.79145	45534.5625
1153.415	45797.9625
1157.03607	46216.8625
1160.65467	47121.1625
1164.27079	48833.8625
1167.88443	51526.8625
1171.49561	55500.6625
1175.10432	61097.4625
1178.71056	68338.3625
1182.31434	74804.6625
1185.91565	77684.2625
1189.51451	76389.9625
1193.11091	72047.3625
1196.70485	66913.4625
1200.29634	62753.7625
1203.88538	59668.1625
1207.47197	57129.2625
1211.05612	55317.0625
1214.63782	54424.0625
1218.21708	54642.1625
1221.79391	55516.2625
1225.36829	56289.1625
1228.94024	56174.1625
1232.50976	55208.5625
1236.07685	54244.9625
1239.6415	53785.3625
1243.20374	53792.9625
1246.76355	54143.5625
1250.32093	54942.2625
1253.8759	56376.4625
1257.42845	58106.1625
1260.97859	59930.0625
1264.52631	61712.4625
1268.07163	63356.2625
1271.61453	64839.5625
1275.15503	66406.4625
1278.69312	67873.7625
1282.22882	69318.7625
1285.76211	71164.4625
1289.29301	73563.5625
1292.82151	76090.4625
1296.34761	79044.1625
1299.87133	82855.6625
1303.39266	88393.5625
1306.9116	95878.6625
1310.42815	104024.6625
1313.94233	109125.1625
1317.45412	108499.0625
1320.96354	104144.4625
1324.47058	98939.8625
1327.97525	94462.2625
1331.47754	91780.2625
1334.97747	90654.9625
1338.47502	89801.0625
1341.97022	89249.4625
1345.46305	89240.8625
1348.95352	90799.4625
1352.44163	94654.4625
1355.92738	101105.1625
1359.41078	110490.6625
1362.89183	118272.1625
1366.37053	115708.9625
1369.84688	102193.0625
1373.32088	87316.9625
1376.79254	78145.0625
1380.26186	74630.9625
1383.72883	73701.2625
1387.19347	72480.1625
1390.65578	70152.9625
1394.11575	68380.4625
1397.57339	68160.4625
1401.0287	69329.7625
1404.48168	71015.5625
1407.93234	72342.1625
1411.38068	73154.2625
1414.82669	72586.8625
1418.27039	70521.9625
1421.71177	68092.8625
1425.15083	66433.7625
1428.58758	66191.8625
1432.02203	67164.6625
1435.45416	68821.3625
1438.88399	69968.7625
1442.31151	70502.4625
1445.73673	70559.7625
1449.15965	70393.4625
1452.58027	69508.1625
1455.9986	68225.0625
1459.41463	67674.7625
1462.82837	68362.4625
1466.23982	69919.1625
1469.64898	71710.9625
1473.05586	73037.4625
1476.46045	73997.3625
1479.86276	74715.5625
1483.26279	75089.2625
1486.66054	75430.3625
1490.05602	76057.0625
1493.44922	77039.4625
1496.84016	78472.7625
1500.22882	81146.2625
1503.61521	85557.1625
1506.99934	90969.8625
1510.38121	95397.4625
1513.76081	96244.2625
1517.13816	92185.6625
1520.51324	85525.7625
1523.88607	79809.2625
1527.25665	76475.0625
1530.62498	75082.6625
1533.99105	74345.5625
1537.35488	73339.3625
1540.71647	72264.7625
1544.07581	71116.0625
1547.4329	69647.0625
1550.78776	68008.4625
1554.14038	66570.8625
1557.49077	65668.3625
1560.83892	65378.4625
1564.18484	65687.3625
1567.52853	66612.5625
1570.86999	67638.7625
1574.20922	68602.9625
1577.54624	68729.5625
1580.88103	67302.6625
1584.2136	65973.9625
1587.54395	66701.9625
1590.87208	70210.0625
1594.19801	76517.3625
1597.52172	84052.8625
1600.84321	88316.7625
1604.16251	86220.6625
1607.47959	79289.7625
1610.79447	70652.5625
1614.10715	63170.1625
1617.41763	57979.0625
1620.7259	54884.2625
1624.03199	53608.9625
1627.33587	53992.7625
1630.63757	55974.7625
1633.93707	59762.9625
1637.23439	65485.7625
1640.52951	73590.4625
1643.82246	83021.5625
1647.11321	90254.9625
1650.40179	91257.0625
1653.68819	83832.9625
1656.97241	71654.4625
1660.25446	60534.1625
1663.53433	53009.0625
1666.81203	48389.3625
1670.08756	45607.7625
1673.36092	43830.6625
1676.63211	42641.4625
1679.90115	41870.2625
1683.16801	41165.6625
1686.43272	40690.9625
1689.69527	40346.5625
1692.95567	40086.5625
1696.2139	39923.3625
1699.46999	39771.1625
1702.72392	39742.8625
1705.97571	39709.6625
1709.22535	39646.7625
1712.47284	39677.0625
1715.71819	39747.2625
1718.96139	39634.0625
1722.20246	39499.4625
1725.44139	39248.3625
1728.67818	39066.9625
1731.91284	38871.7625
1735.14537	38611.3625
1738.37576	38475.2625
1741.60403	38370.5625
1744.83017	38262.3625
1748.05418	38181.9625
1751.27607	38117.1625
1754.49584	38042.0625
1757.71349	37990.7625
1760.92903	37957.9625
1764.14244	37938.3625
1767.35375	37939.9625
1770.56294	37829.3625
1773.77002	37795.9625
1776.97499	37747.0625
1780.17785	37730.8625
1783.37861	37622.5625
1786.57727	37558.6625
1789.77382	37635.3625
1792.96828	37530.9625
1796.16064	37464.1625
1799.3509	37478.3625
1802.53907	37363.9625
1805.72514	37355.9625
1808.90913	37309.9625
1812.09102	37250.5625
1815.27083	37103.8625
1818.44856	37114.8625
1821.6242	37076.4625
1824.79776	36999.6625
1827.96924	36989.9625
1831.13864	36874.8625
1834.30597	36839.9625
1837.47122	36807.2625
1840.6344	36801.7625
1843.7955	36868.1625
1846.95454	36856.2625
1850.11151	36781.0625
1853.26642	36772.0625
1856.41926	36731.4625
1859.57004	36743.8625
1862.71876	36798.3625
1865.86542	36833.8625
1869.01003	36850.9625
1872.15258	36891.7625
1875.29308	36852.4625
1878.43152	36781.1625
1881.56792	36793.5625
1884.70227	36764.8625
1887.83457	36698.4625
1890.96482	36729.2625
1894.09304	36712.3625
1897.21921	36723.2625
1900.34335	36735.1625
1903.46544	36696.6625
1906.58551	36682.9625
1909.70353	36653.5625
1912.81953	36595.8625
1915.93349	36580.8625
1919.04543	36561.0625
1922.15534	36519.7625
1925.26322	36489.2625
1928.36908	36405.5625
1931.47292	36392.1625
1934.57473	36308.1625
1937.67453	36231.4625
1940.77232	36151.3625
1943.86808	36020.8625
1946.96184	35904.4625
1950.05358	35834.9625
1953.14331	35713.3625
1956.23103	35623.3625
1959.31675	35487.9625
1962.40046	35500.5625
1965.48217	35425.0625
1968.56188	35237.8625
1971.63959	35182.6625
1974.7153	35147.1625
1977.78901	35024.8625
1980.86073	34956.8625
1983.93046	34798.3625
1986.99819	34700.8625
1990.06394	34625.8625
1993.1277	34538.1625
1996.18947	34406.8625
1999.24925	34414.9625
2002.30706	34297.7625
2005.36288	34263.2625
2008.41672	34233.9625
2011.46859	34093.4625
2014.51848	34044.8625
2017.56639	33993.3625
2020.61233	33989.1625
2023.6563	33905.9625
2026.6983	33771.4625
2029.73833	33635.7625
2032.7764	33576.0625
2035.8125	33560.3625
2038.84664	33498.8625
2041.87881	33495.1625
2044.90903	33403.5625
2047.93729	33401.2625
2050.96359	33379.7625
2053.98794	33339.3625
2057.01034	33341.9625
2060.03078	33298.4625
2063.04927	33287.8625
2066.06582	33264.2625
2069.08042	33164.1625
2072.09307	33180.8625
2075.10378	33167.3625
2078.11255	33140.4625
2081.11938	33153.2625
2084.12426	33109.7625
2087.12722	33054.8625
2090.12824	33003.4625
2093.12732	33047.1625
2096.12447	33104.0625
2099.11969	33142.4625
2102.11299	33166.0625
2105.10435	33180.8625
2108.09379	33170.8625
2111.08131	33175.3625
2114.0669	33181.6625
2117.05057	33198.5625
2120.03233	33186.8625
2123.01216	33220.3625
2125.99008	33252.5625
2128.96609	33317.3625
2131.94018	33337.6625
2134.91236	33339.3625
2137.88263	33412.3625
2140.851	33396.5625
2143.81746	33373.8625
2146.78201	33425.3625
2149.74466	33474.4625
2152.7054	33452.2625
2155.66425	33445.6625
2158.6212	33419.8625
2161.57625	33419.3625
2164.52941	33401.8625
2167.48067	33405.6625
2170.43004	33456.3625
2173.37752	33386.5625
2176.32311	33433.6625
2179.26681	33402.5625
2182.20863	33469.6625
2185.14856	33485.0625
2188.08661	33506.3625
2191.02278	33538.7625
2193.95707	33507.6625
2196.88948	33588.7625
2199.82001	33547.3625
2202.74867	33499.9625
2205.67545	33516.2625
2208.60037	33476.8625
2211.52341	33418.8625
2214.44458	33386.2625
2217.36388	33320.4625
2220.28132	33268.8625
2223.1969	33163.4625
2226.11061	33161.0625
2229.02246	33073.3625
2231.93245	33086.6625
2234.84058	33033.2625
2237.74686	32922.6625
2240.65128	32949.5625
2243.55385	32882.8625
2246.45456	32880.9625
2249.35343	32842.8625
2252.25044	32802.9625
2255.14561	32778.2625
2258.03893	32745.0625
2260.93041	32712.9625
2263.82004	32608.7625
2266.70783	32509.4625
2269.59378	32463.8625
2272.4779	32447.0625
2275.36017	32329.6625
2278.24061	32266.9625
2281.11922	32222.7625
2283.996	32204.7625
2286.87094	32139.6625
2289.74405	32089.9625
2292.61534	32030.3625
2295.4848	32008.4625
2298.35243	32042.0625
2301.21824	32039.6625
2304.08223	32037.4625
2306.94439	32061.9625
2309.80474	32074.6625
2312.66327	32121.5625
2315.51999	32132.8625
2318.37489	32153.7625
2321.22797	32180.9625
2324.07925	32113.6625
2326.92871	32057.3625
2329.77637	32067.9625
2332.62222	32019.0625
2335.46626	32041.6625
2338.3085	32073.1625
2341.14893	32075.0625
2343.98756	32075.0625
2346.8244	32145.8625
2349.65943	32228.7625
2352.49267	32214.9625
2355.32411	32167.9625
2358.15376	32178.4625
2360.98161	32116.6625
2363.80768	32102.9625
2366.63195	32115.2625
2369.45444	31988.2625
2372.27514	31946.1625
2375.09405	31890.6625
2377.91118	31825.7625
2380.72652	31730.8625
2383.54009	31648.0625
2386.35187	31670.1625
2389.16188	31595.2625
2391.97011	31538.0625
2394.77657	31493.5625
2397.58125	31425.1625
2400.38416	31404.7625
2403.18529	31323.1625
2405.98466	31307.5625
2408.78226	31292.9625
2411.57809	31222.6625
2414.37216	31179.3625
2417.16446	31108.5625
2419.955	31000.1625
2422.74378	31057.7625
2425.5308	31046.2625
2428.31606	31016.9625
2431.09956	31051.6625
2433.88131	30976.7625
2436.6613	31027.7625
2439.43954	31012.7625
2442.21603	31007.9625
2444.99077	30976.7625
2447.76377	30989.3625
2450.53501	30955.5625
2453.30451	30960.7625
2456.07226	30906.3625
2458.83827	30865.0625
2461.60254	30873.3625
2464.36507	30916.6625
2467.12586	30928.6625
2469.88492	30932.3625
2472.64224	30887.2625
2475.39782	30845.5625
2478.15167	30906.1625
2480.90379	31005.8625
2483.65417	31080.7625
2486.40283	31090.1625
2489.14976	31185.5625
2491.89497	31209.1625
2494.63845	31178.4625
2497.3802	31149.5625
2500.12024	31173.8625
2502.85855	31113.8625
2505.59514	31089.0625
2508.33002	31014.9625
2511.06318	30991.7625
2513.79462	30977.2625
2516.52435	30903.4625
2519.25237	30880.3625
2521.97867	30850.9625
2524.70327	30871.8625
2527.42616	30827.6625
2530.14734	30839.5625
2532.86681	30792.2625
2535.58458	30791.0625
2538.30065	30765.9625
2541.01501	30829.1625
2543.72768	30814.4625
2546.43864	30779.5625
2549.14791	30734.2625
2551.85548	30711.9625
2554.56136	30713.0625
2557.26554	30674.9625
2559.96803	30642.1625
2562.66883	30607.0625
2565.36794	30560.3625
2568.06536	30525.7625
2570.7611	30498.9625
2573.45514	30464.5625
2576.14751	30442.5625
2578.83819	30439.1625
2581.52719	30455.7625
2584.21451	30408.7625
2586.90015	30487.9625
2589.58411	30412.4625
2592.2664	30468.6625
2594.94701	30428.8625
2597.62594	30449.3625
2600.30321	30429.4625
2602.9788	30442.3625
2605.65273	30330.2625
2608.32498	30281.9625
2610.99557	30325.2625
2613.66449	30411.0625
2616.33175	30410.3625
2618.99734	30434.2625
2621.66128	30370.8625
2624.32355	30420.5625
2626.98416	30451.3625
2629.64311	30468.3625
2632.30041	30469.3625
2634.95605	30411.5625
2637.61004	30335.2625
2640.26238	30360.7625
2642.91306	30337.3625
2645.56209	30306.0625
2648.20948	30262.8625
2650.85521	30218.4625
2653.4993	30215.0625
2656.14175	30180.4625
2658.78255	30308.2625
2661.42171	30357.7625
2664.05923	30461.0625
2666.6951	30429.9625
2669.32934	30479.1625
2671.96194	30467.0625
2674.59291	30495.9625
2677.22224	30474.8625
2679.84993	30421.9625
2682.476	30385.3625
2685.10043	30403.7625
2687.72324	30318.5625
2690.34441	30350.1625
2692.96396	30254.2625
2695.58188	30279.4625
2698.19818	30227.6625
2700.81285	30323.5625
2703.4259	30274.3625
2706.03733	30336.4625
2708.64714	30282.1625
2711.25533	30377.5625
2713.86191	30417.3625
2716.46687	30518.1625
2719.07021	30504.0625
2721.67194	30521.0625
2724.27206	30484.3625
2726.87057	30507.2625
2729.46747	30484.8625
2732.06276	30485.2625
2734.65644	30509.4625
2737.24852	30533.6625
2739.83899	30503.5625
2742.42786	30484.6625
2745.01513	30370.9625
2747.60079	30356.3625
2750.18486	30369.8625
2752.76733	30395.3625
2755.3482	30400.7625
2757.92747	30405.9625
2760.50515	30439.7625
2763.08123	30378.5625
2765.65573	30291.8625
2768.22863	30318.7625
2770.79994	30326.7625
2773.36967	30357.8625
2775.9378	30366.9625
2778.50435	30320.6625
2781.06932	30382.9625
2783.6327	30401.0625
2786.1945	30355.8625
2788.75471	30292.0625
2791.31335	30239.6625
2793.87041	30219.3625
2796.42589	30107.5625
2798.97979	30136.6625
2801.53212	30069.8625
2804.08288	30059.4625
2806.63206	30001.2625
2809.17967	30006.7625
2811.72571	29951.8625
2814.27018	29873.5625
2816.81308	29770.2625
2819.35442	29698.5625
2821.89419	29667.3625
2824.43239	29688.7625
2826.96904	29664.2625
2829.50412	29651.0625
2832.03763	29646.9625
2834.56959	29703.3625
2837.1	29665.7625
2839.62884	29685.5625
2842.15613	29619.8625
2844.68186	29556.9625
2847.20604	29524.0625
2849.72867	29555.2625
2852.24974	29483.9625
2854.76927	29475.6625
2857.28724	29458.6625
2859.80367	29483.9625
2862.31855	29461.6625
2864.83189	29550.9625
2867.34368	29476.8625
2869.85393	29474.6625
2872.36264	29419.9625
2874.8698	29345.6625
2877.37543	29380.5625
2879.87952	29348.1625
2882.38207	29322.8625
2884.88308	29331.3625
2887.38256	29278.4625
2889.88051	29256.0625
2892.37692	29299.3625
2894.8718	29354.4625
2897.36515	29412.6625
2899.85698	29407.8625
2902.34727	29425.0625
2904.83604	29464.3625
2907.32328	29541.4625
2909.809	29662.0625
2912.29319	29680.1625
2914.77587	29675.9625
2917.25702	29647.8625
2919.73665	29599.6625
2922.21476	29635.6625
2924.69136	29598.5625
2927.16644	29524.8625
2929.64	29502.9625
2932.11205	29477.6625
2934.58258	29349.5625
2937.05161	29345.4625
2939.51912	29300.3625
2941.98513	29343.2625
2944.44962	29312.0625
2946.91261	29215.8625
2949.37409	29203.4625
2951.83407	29175.8625
2954.29254	29186.5625
2956.74951	29181.1625
2959.20498	29165.3625
2961.65895	29120.4625
2964.11142	29135.2625
2966.56239	29107.2625
2969.01186	29114.3625
2971.45984	29042.8625
2973.90632	28994.5625
2976.35131	28899.9625
2978.7948	28874.0625
2981.23681	28763.7625
2983.67732	28698.4625
2986.11635	28602.6625
2988.55388	28577.1625
2990.98993	28491.8625
2993.4245	28438.7625
2995.85758	28345.3625
2998.28917	28310.9625
3000.71928	28231.6625
3003.14791	28205.2625
3005.57506	28115.2625
3008.00073	27988.1625
3010.42493	27923.4625
3012.84764	27892.9625
3015.26888	27874.8625
3017.68865	27825.7625
3020.10694	27751.8625
3022.52376	27706.4625
3024.9391	27671.0625
3027.35298	27663.7625
3029.76539	27656.3625
3032.17632	27629.9625
3034.5858	27533.2625
3036.9938	27550.9625
3039.40034	27554.1625
3041.80542	27519.3625
3044.20903	27437.2625
3046.61118	27418.6625
3049.01187	27396.3625
3051.4111	27345.3625
3053.80888	27303.2625
3056.20519	27274.2625
3058.60005	27137.8625
3060.99345	27080.7625
3063.3854	27015.5625
3065.7759	26953.4625
3068.16494	26873.6625
3070.55254	26763.6625
3072.93868	26671.2625
3075.32338	26616.0625
3077.70662	26596.6625
3080.08842	26515.1625
3082.46878	26481.8625
3084.84769	26450.4625
3087.22515	26460.9625
3089.60118	26417.6625
3091.97576	26372.4625
3094.3489	26362.7625
3096.72061	26299.3625
3099.09087	26321.8625
3101.4597	26238.4625
3103.82709	26221.5625
3106.19305	26173.3625
3108.55757	26161.8625
3110.92066	26125.5625
3113.28232	26118.1625
3115.64255	26057.4625
3118.00134	26054.5625
3120.35871	25976.6625
3122.71466	25878.4625
3125.06917	25831.7625
3127.42226	25743.1625
3129.77393	25753.6625
3132.12417	25719.1625
3134.47299	25707.8625
3136.82039	25673.2625
3139.16636	25647.3625
3141.51092	25601.3625
3143.85406	25580.2625
3146.19579	25544.5625
3148.53609	25534.5625
3150.87499	25583.9625
3153.21246	25584.4625
3155.54853	25535.2625
3157.88318	25520.8625
3160.21642	25597.8625
3162.54826	25546.1625
3164.87868	25546.6625
3167.2077	25604.3625
3169.5353	25585.1625
3171.86151	25519.0625
3174.18631	25436.8625
3176.5097	25427.6625
3178.83169	25370.3625
3181.15228	25425.0625
3183.47147	25323.0625
3185.78926	25310.4625
3188.10565	25225.5625
3190.42065	25275.3625
3192.73424	25266.1625
3195.04645	25216.4625
3197.35725	25228.6625
3199.66667	25193.0625
3201.97469	25218.6625
3204.28132	25157.7625
3206.58656	25160.8625
3208.8904	25153.9625
3211.19287	25180.4625
3213.49394	25146.9625
3215.79363	25163.2625
3218.09193	25212.2625
3220.38884	25181.8625
3222.68438	25211.4625
3224.97853	25179.6625
3227.2713	25121.8625
3229.56269	25092.8625
3231.8527	25149.6625
3234.14133	25161.6625
3236.42858	25093.8625
3238.71446	25078.5625
3240.99896	24996.7625
3243.28209	24980.8625
3245.56384	24918.9625
3247.84423	24850.8625
3250.12324	24859.7625
3252.40088	24806.1625
3254.67715	24813.6625
3256.95205	24838.4625
3259.22558	24815.3625
3261.49775	24799.0625
3263.76855	24776.7625
3266.03799	24666.8625
3268.30606	24642.8625
3270.57277	24615.2625
3272.83812	24607.7625
3275.10211	24535.5625
3277.36474	24501.3625
3279.62601	24582.8625
3281.88593	24503.9625
3284.14448	24560.9625
3286.40168	24565.9625
3288.65753	24523.0625
3290.91202	24526.4625
3293.16516	24430.3625
3295.41695	24427.0625
3297.66738	24343.9625
3299.91647	24186.6625
3302.16421	24085.4625
3304.4106	23999.9625
3306.65564	23848.0625
3308.89933	23690.0625
3311.14169	23581.9625
3313.38269	23399.9625
3315.62236	23294.9625
3317.86068	23098.8625
3320.09766	23011.1625
3322.3333	22901.2625
3324.5676	22817.8625
3326.80056	22545.8625
3329.03219	22403.9625
3331.26248	5.3625
3333.49143	0.5625
3335.71905	-0.4375
