Data from AgNPs_UA_10uM_CRN_0uM_R6G_10uM_Q_RamanShift__18__12-09-42-645.txt Node

Date: Mon Jul 18 12:09:42 BST 2022
User: TCL
Spectrometer: QEP01345
Trigger mode: 4
Integration Time (sec): 7.000000E0
Scans to average: 10
Electric dark correction enabled: true
Nonlinearity correction enabled: false
Boxcar width: 0
XAxis mode: Raman Shifts
Number of Pixels in Spectrum: 1044
>>>>>Begin Spectral Data<<<<<
46.04893	-0.9375
50.45542	-1.0375
54.85868	-1.3375
59.25871	-1.2375
63.6555	124.4625
68.04907	131.8625
72.43941	137.1625
76.82654	140.1625
81.21044	143.4625
85.59113	148.5625
89.96862	154.1625
94.34289	161.2625
98.71396	162.4625
103.08183	168.0625
107.4465	173.6625
111.80798	177.5625
116.16626	183.5625
120.52136	191.6625
124.87327	204.7625
129.222	210.3625
133.56755	226.3625
137.90993	249.1625
142.24913	264.6625
146.58517	307.1625
150.91804	355.5625
155.24774	424.8625
159.57429	534.2625
163.89768	689.1625
168.21792	908.9625
172.53501	1252.3625
176.84895	1742.5625
181.15975	2448.0625
185.46741	3423.1625
189.77193	4717.9625
194.07331	6298.3625
198.37157	8089.1625
202.6667	9931.2625
206.9587	11765.3625
211.24758	13591.6625
215.53334	15436.7625
219.81599	17381.3625
224.09553	19598.4625
228.37195	22060.3625
232.64527	24725.0625
236.91549	27471.4625
241.18261	30146.5625
245.44663	32572.5625
249.70755	34752.6625
253.96539	36639.8625
258.22014	38200.3625
262.4718	39551.2625
266.72039	40477.6625
270.96589	40974.2625
275.20832	41045.7625
279.44768	40721.7625
283.68397	40215.7625
287.91719	39837.8625
292.14735	39699.2625
296.37445	39828.8625
300.59849	40157.8625
304.81948	40535.2625
309.03742	40738.3625
313.25231	40455.1625
317.46415	39625.3625
321.67296	38467.8625
325.87872	37587.7625
330.08145	37175.4625
334.28114	37259.3625
338.47781	37605.3625
342.67145	38197.3625
346.86207	38904.1625
351.04966	39842.9625
355.23424	40883.9625
359.4158	41681.3625
363.59435	42179.0625
367.76989	42633.0625
371.94243	42828.2625
376.11196	42883.5625
380.27849	43087.4625
384.44203	43316.8625
388.60257	43410.5625
392.76012	43681.8625
396.91468	44181.6625
401.06626	44854.9625
405.21485	45266.6625
409.36047	44934.0625
413.50311	44169.6625
417.64277	43456.4625
421.77947	43316.3625
425.9132	43375.0625
430.04396	43510.4625
434.17176	43840.7625
438.2966	44348.1625
442.41849	45256.0625
446.53742	46523.0625
450.6534	47802.1625
454.76644	48764.1625
458.87653	48884.9625
462.98368	48491.4625
467.08789	47816.6625
471.18916	47034.9625
475.2875	46298.5625
479.38291	45856.9625
483.4754	45313.3625
487.56496	44797.9625
491.6516	44249.4625
495.73531	43910.1625
499.81612	43829.4625
503.89401	44042.7625
507.96899	44188.6625
512.04106	44228.0625
516.11023	44263.1625
520.1765	44244.0625
524.23987	44059.1625
528.30034	43829.8625
532.35792	43554.1625
536.41261	43062.0625
540.46441	42616.1625
544.51333	42648.0625
548.55936	43111.0625
552.60252	44040.7625
556.64279	45088.0625
560.6802	45660.2625
564.71473	46100.1625
568.7464	46909.7625
572.7752	47747.8625
576.80114	48134.9625
580.82422	48591.0625
584.84444	49376.5625
588.86181	50498.4625
592.87633	51615.6625
596.888	52209.3625
600.89682	52300.1625
604.9028	54533.3625
608.90594	60418.3625
612.90624	65358.2625
616.90371	59811.1625
620.89834	49724.6625
624.89015	45952.6625
628.87913	45686.6625
632.86528	45715.6625
636.84862	45285.5625
640.82913	44407.4625
644.80683	43151.8625
648.78172	42389.4625
652.75379	42499.3625
656.72306	43328.4625
660.68952	44124.0625
664.65319	43798.1625
668.61405	43049.4625
672.57211	42883.8625
676.52738	42945.7625
680.47986	42850.5625
684.42955	42585.7625
688.37646	42498.0625
692.32058	42725.2625
696.26192	43202.2625
700.20048	43721.8625
704.13626	43942.7625
708.06928	43736.2625
711.99952	43389.0625
715.927	43373.1625
719.85171	43457.5625
723.77365	43341.1625
727.69284	42892.2625
731.60928	42604.9625
735.52295	42663.5625
739.43388	42736.7625
743.34206	42941.7625
747.24749	43161.1625
751.15017	43370.7625
755.05012	44113.2625
758.94733	45579.5625
762.8418	48376.8625
766.73354	52582.8625
770.62254	56106.9625
774.50882	56665.9625
778.39237	53910.8625
782.27321	49862.7625
786.15132	46435.6625
790.02671	44353.6625
793.89938	43287.3625
797.76935	42924.9625
801.6366	42796.5625
805.50115	42652.6625
809.36299	42325.4625
813.22213	42000.8625
817.07857	41883.5625
820.93231	41871.4625
824.78336	41822.4625
828.63172	41854.1625
832.47738	41889.1625
836.32036	41980.4625
840.16066	42177.6625
843.99827	42350.1625
847.8332	42251.1625
851.66546	42022.5625
855.49504	42033.2625
859.32195	42010.6625
863.1462	41856.3625
866.96777	41796.0625
870.78668	41714.3625
874.60293	41606.5625
878.41652	41756.3625
882.22745	41914.1625
886.03573	42019.1625
889.84136	41944.1625
893.64433	41761.6625
897.44466	41602.1625
901.24235	41486.7625
905.0374	41345.8625
908.8298	41195.1625
912.61957	41285.8625
916.40671	41575.0625
920.19121	42129.6625
923.97308	42728.4625
927.75233	43026.0625
931.52895	43115.2625
935.30295	42535.4625
939.07433	41653.0625
942.84309	41052.7625
946.60924	40825.8625
950.37278	40747.3625
954.13371	40602.1625
957.89203	40463.1625
961.64774	40405.5625
965.40086	40370.0625
969.15137	40309.6625
972.89929	40209.3625
976.64461	40228.8625
980.38733	40350.5625
984.12747	40560.5625
987.86502	40909.9625
991.59999	41472.9625
995.33237	42280.6625
999.06217	43646.1625
1002.78939	45019.6625
1006.51404	45600.6625
1010.23611	45933.7625
1013.95561	46142.8625
1017.67255	46226.0625
1021.38692	45799.4625
1025.09872	45421.5625
1028.80796	45969.9625
1032.51465	47322.0625
1036.21877	48379.1625
1039.92035	48245.8625
1043.61937	47359.5625
1047.31584	46128.3625
1051.00976	44971.6625
1054.70114	44532.3625
1058.38998	44479.7625
1062.07627	44599.0625
1065.76003	44745.4625
1069.44126	45084.8625
1073.11995	45620.1625
1076.79611	46168.9625
1080.46974	46656.9625
1084.14085	47130.9625
1087.80943	47784.8625
1091.47549	48041.5625
1095.13903	47721.8625
1098.80005	46874.4625
1102.45857	46031.7625
1106.11456	45583.1625
1109.76805	45616.7625
1113.41903	45923.3625
1117.06751	46427.6625
1120.71348	47214.2625
1124.35696	47825.1625
1127.99793	48440.1625
1131.63641	48370.6625
1135.2724	47664.5625
1138.90589	47149.0625
1142.5369	46882.6625
1146.16542	46707.0625
1149.79145	46901.5625
1153.415	47215.7625
1157.03607	47933.2625
1160.65467	49030.2625
1164.27079	50868.8625
1167.88443	53359.5625
1171.49561	56840.1625
1175.10432	61397.3625
1178.71056	67082.4625
1182.31434	71993.7625
1185.91565	73994.4625
1189.51451	72962.3625
1193.11091	69913.3625
1196.70485	66261.8625
1200.29634	63323.6625
1203.88538	60879.4625
1207.47197	58845.2625
1211.05612	57404.4625
1214.63782	56543.2625
1218.21708	56236.7625
1221.79391	56369.4625
1225.36829	56497.2625
1228.94024	55952.8625
1232.50976	54719.2625
1236.07685	53646.7625
1239.6415	53172.2625
1243.20374	53111.2625
1246.76355	53504.8625
1250.32093	54331.0625
1253.8759	55538.1625
1257.42845	57116.6625
1260.97859	58677.1625
1264.52631	60279.9625
1268.07163	61936.2625
1271.61453	63677.5625
1275.15503	65531.5625
1278.69312	67378.8625
1282.22882	69018.2625
1285.76211	70581.6625
1289.29301	72112.5625
1292.82151	74133.2625
1296.34761	76904.2625
1299.87133	80915.9625
1303.39266	86071.0625
1306.9116	92680.6625
1310.42815	99476.9625
1313.94233	103366.6625
1317.45412	102774.5625
1320.96354	99329.8625
1324.47058	95312.8625
1327.97525	91768.2625
1331.47754	89091.1625
1334.97747	87644.3625
1338.47502	87110.8625
1341.97022	87092.0625
1345.46305	87041.9625
1348.95352	87043.2625
1352.44163	88034.1625
1355.92738	90837.6625
1359.41078	96210.6625
1362.89183	100921.1625
1366.37053	98562.2625
1369.84688	89005.8625
1373.32088	78982.4625
1376.79254	72491.6625
1380.26186	69487.9625
1383.72883	68447.2625
1387.19347	67823.2625
1390.65578	66765.9625
1394.11575	66299.5625
1397.57339	66788.5625
1401.0287	67751.0625
1404.48168	68436.0625
1407.93234	68455.8625
1411.38068	67664.8625
1414.82669	66223.1625
1418.27039	64261.3625
1421.71177	62153.2625
1425.15083	60507.2625
1428.58758	59835.6625
1432.02203	60393.5625
1435.45416	61672.9625
1438.88399	63023.5625
1442.31151	63932.8625
1445.73673	64595.0625
1449.15965	65018.2625
1452.58027	65337.9625
1455.9986	65372.5625
1459.41463	65805.1625
1462.82837	66632.4625
1466.23982	67978.1625
1469.64898	69178.4625
1473.05586	69917.9625
1476.46045	69936.2625
1479.86276	69689.7625
1483.26279	69242.3625
1486.66054	69162.3625
1490.05602	69549.8625
1493.44922	70503.6625
1496.84016	71901.8625
1500.22882	74402.2625
1503.61521	78091.9625
1506.99934	82483.3625
1510.38121	85858.8625
1513.76081	86459.4625
1517.13816	83605.0625
1520.51324	78648.1625
1523.88607	74285.2625
1527.25665	71719.5625
1530.62498	70442.5625
1533.99105	69623.7625
1537.35488	68880.2625
1540.71647	68067.8625
1544.07581	67158.0625
1547.4329	66159.6625
1550.78776	65120.4625
1554.14038	64349.0625
1557.49077	63922.2625
1560.83892	63931.0625
1564.18484	64308.3625
1567.52853	64857.0625
1570.86999	65522.8625
1574.20922	66255.5625
1577.54624	66552.3625
1580.88103	65794.6625
1584.2136	65291.6625
1587.54395	66198.1625
1590.87208	69155.7625
1594.19801	73765.0625
1597.52172	78208.3625
1600.84321	79527.6625
1604.16251	76314.4625
1607.47959	70870.5625
1610.79447	65046.1625
1614.10715	59830.5625
1617.41763	55673.9625
1620.7259	53003.6625
1624.03199	51812.1625
1627.33587	51933.5625
1630.63757	53640.8625
1633.93707	56914.0625
1637.23439	62143.9625
1640.52951	69132.3625
1643.82246	76809.8625
1647.11321	82449.5625
1650.40179	82938.4625
1653.68819	77093.0625
1656.97241	67278.0625
1660.25446	58153.3625
1663.53433	51510.5625
1666.81203	47355.1625
1670.08756	44713.9625
1673.36092	43074.6625
1676.63211	41981.7625
1679.90115	41168.6625
1683.16801	40561.5625
1686.43272	40142.6625
1689.69527	39739.5625
1692.95567	39540.5625
1696.2139	39297.0625
1699.46999	39171.3625
1702.72392	39057.6625
1705.97571	38985.6625
1709.22535	38966.5625
1712.47284	38934.7625
1715.71819	38945.3625
1718.96139	38825.3625
1722.20246	38672.5625
1725.44139	38475.4625
1728.67818	38310.1625
1731.91284	38076.2625
1735.14537	37918.0625
1738.37576	37770.5625
1741.60403	37688.9625
1744.83017	37549.3625
1748.05418	37513.5625
1751.27607	37442.7625
1754.49584	37373.7625
1757.71349	37276.9625
1760.92903	37284.7625
1764.14244	37212.9625
1767.35375	37249.9625
1770.56294	37116.8625
1773.77002	37087.4625
1776.97499	37070.9625
1780.17785	37035.0625
1783.37861	36936.2625
1786.57727	36904.8625
1789.77382	36852.0625
1792.96828	36815.4625
1796.16064	36740.4625
1799.3509	36736.6625
1802.53907	36609.8625
1805.72514	36471.3625
1808.90913	36410.5625
1812.09102	36342.8625
1815.27083	36287.7625
1818.44856	36249.8625
1821.6242	36211.0625
1824.79776	36146.4625
1827.96924	36164.8625
1831.13864	36107.6625
1834.30597	36132.4625
1837.47122	36067.8625
1840.6344	36093.3625
1843.7955	36074.5625
1846.95454	35991.1625
1850.11151	36055.8625
1853.26642	36026.6625
1856.41926	36025.3625
1859.57004	36030.3625
1862.71876	35976.8625
1865.86542	35946.2625
1869.01003	35982.5625
1872.15258	35999.6625
1875.29308	35939.1625
1878.43152	35933.3625
1881.56792	35836.5625
1884.70227	35822.2625
1887.83457	35865.3625
1890.96482	35878.1625
1894.09304	35808.7625
1897.21921	35788.1625
1900.34335	35789.3625
1903.46544	35710.0625
1906.58551	35701.6625
1909.70353	35644.6625
1912.81953	35654.9625
1915.93349	35647.1625
1919.04543	35586.6625
1922.15534	35519.7625
1925.26322	35415.0625
1928.36908	35392.8625
1931.47292	35319.2625
1934.57473	35220.8625
1937.67453	35140.1625
1940.77232	35072.1625
1943.86808	34987.0625
1946.96184	34945.4625
1950.05358	34847.5625
1953.14331	34661.2625
1956.23103	34547.7625
1959.31675	34479.5625
1962.40046	34461.8625
1965.48217	34374.9625
1968.56188	34332.2625
1971.63959	34258.8625
1974.7153	34147.7625
1977.78901	34143.0625
1980.86073	33930.1625
1983.93046	33856.4625
1986.99819	33785.9625
1990.06394	33709.5625
1993.1277	33588.2625
1996.18947	33522.5625
1999.24925	33473.0625
2002.30706	33353.0625
2005.36288	33341.3625
2008.41672	33260.1625
2011.46859	33164.1625
2014.51848	33094.0625
2017.56639	33064.1625
2020.61233	32972.4625
2023.6563	32853.7625
2026.6983	32774.4625
2029.73833	32687.2625
2032.7764	32659.2625
2035.8125	32626.7625
2038.84664	32610.5625
2041.87881	32559.8625
2044.90903	32486.7625
2047.93729	32412.7625
2050.96359	32417.1625
2053.98794	32345.5625
2057.01034	32381.8625
2060.03078	32378.8625
2063.04927	32385.8625
2066.06582	32365.7625
2069.08042	32322.3625
2072.09307	32309.9625
2075.10378	32243.3625
2078.11255	32234.7625
2081.11938	32236.7625
2084.12426	32216.5625
2087.12722	32218.8625
2090.12824	32186.7625
2093.12732	32190.9625
2096.12447	32226.1625
2099.11969	32281.7625
2102.11299	32352.6625
2105.10435	32287.6625
2108.09379	32318.5625
2111.08131	32371.4625
2114.0669	32310.2625
2117.05057	32339.6625
2120.03233	32370.8625
2123.01216	32454.3625
2125.99008	32482.7625
2128.96609	32513.8625
2131.94018	32658.1625
2134.91236	32663.4625
2137.88263	32656.7625
2140.851	32687.7625
2143.81746	32665.4625
2146.78201	32704.4625
2149.74466	32787.9625
2152.7054	32768.7625
2155.66425	32723.9625
2158.6212	32787.5625
2161.57625	32738.0625
2164.52941	32693.0625
2167.48067	32731.5625
2170.43004	32730.4625
2173.37752	32713.3625
2176.32311	32753.9625
2179.26681	32739.2625
2182.20863	32786.7625
2185.14856	32850.1625
2188.08661	32758.3625
2191.02278	32813.0625
2193.95707	32834.2625
2196.88948	32845.7625
2199.82001	32853.5625
2202.74867	32807.0625
2205.67545	32788.6625
2208.60037	32734.5625
2211.52341	32733.2625
2214.44458	32761.1625
2217.36388	32735.0625
2220.28132	32724.4625
2223.1969	32627.0625
2226.11061	32535.9625
2229.02246	32554.5625
2231.93245	32529.6625
2234.84058	32438.9625
2237.74686	32350.9625
2240.65128	32320.9625
2243.55385	32273.4625
2246.45456	32262.6625
2249.35343	32217.0625
2252.25044	32179.5625
2255.14561	32126.3625
2258.03893	32103.0625
2260.93041	32050.9625
2263.82004	32039.9625
2266.70783	31994.7625
2269.59378	31905.0625
2272.4779	31892.4625
2275.36017	31803.2625
2278.24061	31734.9625
2281.11922	31686.6625
2283.996	31668.0625
2286.87094	31660.0625
2289.74405	31593.7625
2292.61534	31619.8625
2295.4848	31564.5625
2298.35243	31647.8625
2301.21824	31652.8625
2304.08223	31644.4625
2306.94439	31656.3625
2309.80474	31718.7625
2312.66327	31701.4625
2315.51999	31718.3625
2318.37489	31767.4625
2321.22797	31758.6625
2324.07925	31699.0625
2326.92871	31633.8625
2329.77637	31635.9625
2332.62222	31685.0625
2335.46626	31681.0625
2338.3085	31723.0625
2341.14893	31714.8625
2343.98756	31688.0625
2346.8244	31829.6625
2349.65943	31866.5625
2352.49267	31829.9625
2355.32411	31839.6625
2358.15376	31768.5625
2360.98161	31787.3625
2363.80768	31758.0625
2366.63195	31754.5625
2369.45444	31674.2625
2372.27514	31619.2625
2375.09405	31574.2625
2377.91118	31490.6625
2380.72652	31425.5625
2383.54009	31331.7625
2386.35187	31299.9625
2389.16188	31307.0625
2391.97011	31280.3625
2394.77657	31223.9625
2397.58125	31174.3625
2400.38416	31144.8625
2403.18529	31147.3625
2405.98466	31136.8625
2408.78226	31046.2625
2411.57809	30993.6625
2414.37216	30974.4625
2417.16446	30992.5625
2419.955	30926.5625
2422.74378	30949.0625
2425.5308	30865.9625
2428.31606	30791.5625
2431.09956	30817.2625
2433.88131	30793.4625
2436.6613	30809.3625
2439.43954	30865.9625
2442.21603	30822.2625
2444.99077	30844.6625
2447.76377	30800.2625
2450.53501	30780.2625
2453.30451	30746.9625
2456.07226	30726.7625
2458.83827	30689.6625
2461.60254	30778.0625
2464.36507	30723.6625
2467.12586	30706.2625
2469.88492	30749.3625
2472.64224	30752.8625
2475.39782	30759.6625
2478.15167	30817.6625
2480.90379	30850.7625
2483.65417	30984.4625
2486.40283	31023.4625
2489.14976	31082.3625
2491.89497	31085.4625
2494.63845	31137.2625
2497.3802	31081.6625
2500.12024	31074.1625
2502.85855	31019.8625
2505.59514	30991.2625
2508.33002	30911.3625
2511.06318	30913.3625
2513.79462	30842.8625
2516.52435	30824.4625
2519.25237	30803.3625
2521.97867	30772.2625
2524.70327	30810.6625
2527.42616	30782.8625
2530.14734	30782.2625
2532.86681	30782.5625
2535.58458	30811.1625
2538.30065	30805.0625
2541.01501	30842.5625
2543.72768	30791.7625
2546.43864	30752.8625
2549.14791	30697.4625
2551.85548	30676.0625
2554.56136	30623.2625
2557.26554	30625.8625
2559.96803	30670.4625
2562.66883	30566.0625
2565.36794	30559.2625
2568.06536	30621.6625
2570.7611	30618.8625
2573.45514	30599.9625
2576.14751	30568.8625
2578.83819	30558.1625
2581.52719	30548.7625
2584.21451	30502.7625
2586.90015	30516.6625
2589.58411	30573.8625
2592.2664	30575.2625
2594.94701	30589.2625
2597.62594	30566.2625
2600.30321	30541.4625
2602.9788	30490.0625
2605.65273	30406.6625
2608.32498	30488.0625
2610.99557	30496.7625
2613.66449	30527.2625
2616.33175	30453.0625
2618.99734	30480.8625
2621.66128	30456.7625
2624.32355	30495.7625
2626.98416	30525.7625
2629.64311	30523.3625
2632.30041	30519.6625
2634.95605	30476.5625
2637.61004	30441.3625
2640.26238	30448.0625
2642.91306	30468.7625
2645.56209	30422.1625
2648.20948	30388.4625
2650.85521	30335.5625
2653.4993	30316.0625
2656.14175	30379.7625
2658.78255	30427.6625
2661.42171	30444.0625
2664.05923	30516.0625
2666.6951	30465.6625
2669.32934	30480.8625
2671.96194	30495.6625
2674.59291	30487.7625
2677.22224	30501.0625
2679.84993	30535.5625
2682.476	30436.7625
2685.10043	30520.2625
2687.72324	30403.2625
2690.34441	30411.9625
2692.96396	30385.2625
2695.58188	30392.4625
2698.19818	30293.1625
2700.81285	30326.2625
2703.4259	30348.5625
2706.03733	30415.3625
2708.64714	30519.2625
2711.25533	30514.3625
2713.86191	30448.8625
2716.46687	30537.7625
2719.07021	30507.6625
2721.67194	30593.5625
2724.27206	30576.5625
2726.87057	30601.8625
2729.46747	30603.0625
2732.06276	30639.5625
2734.65644	30613.3625
2737.24852	30614.1625
2739.83899	30562.1625
2742.42786	30530.4625
2745.01513	30496.8625
2747.60079	30530.5625
2750.18486	30515.3625
2752.76733	30566.9625
2755.3482	30487.0625
2757.92747	30527.5625
2760.50515	30494.9625
2763.08123	30486.0625
2765.65573	30444.2625
2768.22863	30435.6625
2770.79994	30423.9625
2773.36967	30432.0625
2775.9378	30418.1625
2778.50435	30421.3625
2781.06932	30404.9625
2783.6327	30427.0625
2786.1945	30411.5625
2788.75471	30440.1625
2791.31335	30299.2625
2793.87041	30273.3625
2796.42589	30194.4625
2798.97979	30243.5625
2801.53212	30205.4625
2804.08288	30206.7625
2806.63206	30094.4625
2809.17967	30096.9625
2811.72571	30008.4625
2814.27018	30022.7625
2816.81308	29880.9625
2819.35442	29898.5625
2821.89419	29858.4625
2824.43239	29845.9625
2826.96904	29822.4625
2829.50412	29842.5625
2832.03763	29743.8625
2834.56959	29709.8625
2837.1	29683.8625
2839.62884	29765.3625
2842.15613	29680.6625
2844.68186	29684.6625
2847.20604	29604.9625
2849.72867	29608.3625
2852.24974	29571.6625
2854.76927	29620.6625
2857.28724	29559.1625
2859.80367	29579.4625
2862.31855	29583.7625
2864.83189	29630.3625
2867.34368	29546.5625
2869.85393	29560.7625
2872.36264	29482.0625
2874.8698	29469.0625
2877.37543	29493.5625
2879.87952	29540.8625
2882.38207	29543.6625
2884.88308	29550.5625
2887.38256	29545.2625
2889.88051	29527.0625
2892.37692	29569.3625
2894.8718	29607.1625
2897.36515	29629.8625
2899.85698	29583.3625
2902.34727	29691.1625
2904.83604	29733.3625
2907.32328	29797.7625
2909.809	29828.9625
2912.29319	29821.4625
2914.77587	29815.1625
2917.25702	29829.5625
2919.73665	29807.0625
2922.21476	29814.4625
2924.69136	29795.3625
2927.16644	29800.7625
2929.64	29767.0625
2932.11205	29749.6625
2934.58258	29601.7625
2937.05161	29623.6625
2939.51912	29667.1625
2941.98513	29611.0625
2944.44962	29591.9625
2946.91261	29511.4625
2949.37409	29595.0625
2951.83407	29568.1625
2954.29254	29629.7625
2956.74951	29634.0625
2959.20498	29607.2625
2961.65895	29590.1625
2964.11142	29689.1625
2966.56239	29624.3625
2969.01186	29536.8625
2971.45984	29498.2625
2973.90632	29489.1625
2976.35131	29356.2625
2978.7948	29333.8625
2981.23681	29301.2625
2983.67732	29315.8625
2986.11635	29276.2625
2988.55388	29243.0625
2990.98993	29183.8625
2993.4245	29116.1625
2995.85758	29062.7625
2998.28917	29011.3625
3000.71928	28934.9625
3003.14791	28866.9625
3005.57506	28833.5625
3008.00073	28762.5625
3010.42493	28764.9625
3012.84764	28676.6625
3015.26888	28732.6625
3017.68865	28651.0625
3020.10694	28616.9625
3022.52376	28588.3625
3024.9391	28576.9625
3027.35298	28547.7625
3029.76539	28558.2625
3032.17632	28583.0625
3034.5858	28569.3625
3036.9938	28597.3625
3039.40034	28526.2625
3041.80542	28498.0625
3044.20903	28467.0625
3046.61118	28470.2625
3049.01187	28340.8625
3051.4111	28393.0625
3053.80888	28304.7625
3056.20519	28298.3625
3058.60005	28260.2625
3060.99345	28224.1625
3063.3854	28106.1625
3065.7759	28036.7625
3068.16494	27979.8625
3070.55254	27881.5625
3072.93868	27842.6625
3075.32338	27821.2625
3077.70662	27741.5625
3080.08842	27665.5625
3082.46878	27657.1625
3084.84769	27648.4625
3087.22515	27663.3625
3089.60118	27652.6625
3091.97576	27650.4625
3094.3489	27647.0625
3096.72061	27666.5625
3099.09087	27668.8625
3101.4597	27633.3625
3103.82709	27708.2625
3106.19305	27668.9625
3108.55757	27665.6625
3110.92066	27598.9625
3113.28232	27558.2625
3115.64255	27504.2625
3118.00134	27514.6625
3120.35871	27437.8625
3122.71466	27401.2625
3125.06917	27335.6625
3127.42226	27275.5625
3129.77393	27278.8625
3132.12417	27270.3625
3134.47299	27280.2625
3136.82039	27232.4625
3139.16636	27227.9625
3141.51092	27212.6625
3143.85406	27223.3625
3146.19579	27195.7625
3148.53609	27255.4625
3150.87499	27283.1625
3153.21246	27224.9625
3155.54853	27268.9625
3157.88318	27197.8625
3160.21642	27244.1625
3162.54826	27280.5625
3164.87868	27329.8625
3167.2077	27369.0625
3169.5353	27338.5625
3171.86151	27294.6625
3174.18631	27248.8625
3176.5097	27232.2625
3178.83169	27249.1625
3181.15228	27282.2625
3183.47147	27203.8625
3185.78926	27228.4625
3188.10565	27111.0625
3190.42065	27115.0625
3192.73424	27148.7625
3195.04645	27087.1625
3197.35725	27074.2625
3199.66667	27065.8625
3201.97469	27113.3625
3204.28132	27076.8625
3206.58656	27126.5625
3208.8904	27126.0625
3211.19287	27062.1625
3213.49394	27110.8625
3215.79363	27112.9625
3218.09193	27148.9625
3220.38884	27147.2625
3222.68438	27196.2625
3224.97853	27158.2625
3227.2713	27228.9625
3229.56269	27220.6625
3231.8527	27221.9625
3234.14133	27211.6625
3236.42858	27170.8625
3238.71446	27147.3625
3240.99896	27051.1625
3243.28209	27066.4625
3245.56384	26948.3625
3247.84423	26970.2625
3250.12324	26954.0625
3252.40088	26919.4625
3254.67715	26898.7625
3256.95205	26894.2625
3259.22558	26921.4625
3261.49775	26863.9625
3263.76855	26936.5625
3266.03799	26895.9625
3268.30606	26893.6625
3270.57277	26840.7625
3272.83812	26770.4625
3275.10211	26722.4625
3277.36474	26639.1625
3279.62601	26672.4625
3281.88593	26667.0625
3284.14448	26723.1625
3286.40168	26749.7625
3288.65753	26719.6625
3290.91202	26712.4625
3293.16516	26658.9625
3295.41695	26673.1625
3297.66738	26538.7625
3299.91647	26448.4625
3302.16421	26300.0625
3304.4106	26211.3625
3306.65564	26061.6625
3308.89933	25900.7625
3311.14169	25707.5625
3313.38269	25506.0625
3315.62236	25442.6625
3317.86068	25222.1625
3320.09766	25090.8625
3322.3333	24942.3625
3324.5676	24919.2625
3326.80056	24640.7625
3329.03219	24486.6625
3331.26248	5.6625
3333.49143	0.2625
3335.71905	0.4625
