Data from AgNPs_UA_20uM_CRN_0uM_R6G_10uM_Q_RamanShift__5__12-42-12-007.txt Node

Date: Mon Jul 18 12:42:12 BST 2022
User: TCL
Spectrometer: QEP01345
Trigger mode: 4
Integration Time (sec): 7.000000E0
Scans to average: 10
Electric dark correction enabled: true
Nonlinearity correction enabled: false
Boxcar width: 0
XAxis mode: Raman Shifts
Number of Pixels in Spectrum: 1044
>>>>>Begin Spectral Data<<<<<
46.04893	-0.5375
50.45542	-0.9375
54.85868	0.2625
59.25871	-1.9375
63.6555	131.0625
68.04907	140.3625
72.43941	146.9625
76.82654	151.0625
81.21044	158.0625
85.59113	159.4625
89.96862	165.9625
94.34289	173.2625
98.71396	181.7625
103.08183	185.6625
107.4465	188.4625
111.80798	194.5625
116.16626	202.1625
120.52136	208.1625
124.87327	226.3625
129.222	233.9625
133.56755	252.5625
137.90993	274.6625
142.24913	294.9625
146.58517	342.4625
150.91804	398.8625
155.24774	478.8625
159.57429	592.7625
163.89768	762.3625
168.21792	1030.1625
172.53501	1406.1625
176.84895	1969.9625
181.15975	2770.5625
185.46741	3887.9625
189.77193	5366.7625
194.07331	7180.0625
198.37157	9211.6625
202.6667	11320.9625
206.9587	13418.6625
211.24758	15496.1625
215.53334	17638.2625
219.81599	19927.8625
224.09553	22476.5625
228.37195	25260.2625
232.64527	28318.0625
236.91549	31450.2625
241.18261	34468.4625
245.44663	37053.5625
249.70755	39365.4625
253.96539	41229.4625
258.22014	42808.5625
262.4718	44220.9625
266.72039	45213.1625
270.96589	45656.1625
275.20832	45611.9625
279.44768	45242.5625
283.68397	44787.8625
287.91719	44505.5625
292.14735	44439.9625
296.37445	44729.8625
300.59849	45358.2625
304.81948	46130.9625
309.03742	46705.8625
313.25231	46795.0625
317.46415	46061.4625
321.67296	44826.3625
325.87872	43740.7625
330.08145	43269.7625
334.28114	43236.6625
338.47781	43585.8625
342.67145	44245.0625
346.86207	45147.2625
351.04966	46199.2625
355.23424	47269.2625
359.4158	48100.5625
363.59435	48555.9625
367.76989	48790.4625
371.94243	48790.9625
376.11196	48756.1625
380.27849	48871.7625
384.44203	49107.2625
388.60257	49395.9625
392.76012	49730.1625
396.91468	50236.4625
401.06626	50964.9625
405.21485	51298.0625
409.36047	50840.7625
413.50311	49867.4625
417.64277	49211.3625
421.77947	49068.4625
425.9132	49176.8625
430.04396	49463.1625
434.17176	49690.4625
438.2966	50307.1625
442.41849	51399.2625
446.53742	53076.2625
450.6534	54816.7625
454.76644	55712.4625
458.87653	55714.6625
462.98368	55114.1625
467.08789	54165.5625
471.18916	53104.0625
475.2875	52001.3625
479.38291	51102.8625
483.4754	50362.2625
487.56496	49753.4625
491.6516	49300.2625
495.73531	49066.5625
499.81612	49146.2625
503.89401	49516.0625
507.96899	49642.5625
512.04106	49719.2625
516.11023	49661.0625
520.1765	49544.5625
524.23987	49524.6625
528.30034	49431.1625
532.35792	49199.8625
536.41261	48624.3625
540.46441	48080.2625
544.51333	48031.7625
548.55936	48631.4625
552.60252	49720.5625
556.64279	51103.8625
560.6802	51939.2625
564.71473	52300.9625
568.7464	53034.0625
572.7752	54201.3625
576.80114	55214.9625
580.82422	56399.3625
584.84444	58028.9625
588.86181	60407.2625
592.87633	62552.8625
596.888	62644.4625
600.89682	60980.6625
604.9028	62017.4625
608.90594	68238.2625
612.90624	74084.0625
616.90371	67700.7625
620.89834	55582.2625
624.89015	50987.1625
628.87913	50503.9625
632.86528	50924.4625
636.84862	50809.3625
640.82913	49804.2625
644.80683	48437.8625
648.78172	47652.3625
652.75379	47822.7625
656.72306	48790.8625
660.68952	49769.8625
664.65319	49135.9625
668.61405	48170.4625
672.57211	48192.8625
676.52738	48398.2625
680.47986	48144.4625
684.42955	47642.1625
688.37646	47584.0625
692.32058	47992.0625
696.26192	48766.3625
700.20048	49467.8625
704.13626	49824.2625
708.06928	49609.7625
711.99952	49236.0625
715.927	49281.4625
719.85171	49476.6625
723.77365	49324.0625
727.69284	48691.9625
731.60928	48131.3625
735.52295	48148.8625
739.43388	48294.1625
743.34206	48486.3625
747.24749	48710.5625
751.15017	49106.3625
755.05012	50034.6625
758.94733	51948.2625
762.8418	55606.3625
766.73354	61038.7625
770.62254	65206.7625
774.50882	65316.5625
778.39237	61677.9625
782.27321	56979.3625
786.15132	53042.4625
790.02671	50497.0625
793.89938	49201.6625
797.76935	48696.4625
801.6366	48447.3625
805.50115	48201.5625
809.36299	47944.7625
813.22213	47589.1625
817.07857	47334.8625
820.93231	47295.6625
824.78336	47192.0625
828.63172	47188.6625
832.47738	47138.3625
836.32036	47193.0625
840.16066	47287.9625
843.99827	47350.2625
847.8332	47311.9625
851.66546	47400.4625
855.49504	47452.4625
859.32195	47425.8625
863.1462	47328.8625
866.96777	47259.9625
870.78668	47223.2625
874.60293	47343.3625
878.41652	47380.2625
882.22745	47612.7625
886.03573	47811.8625
889.84136	47739.8625
893.64433	47544.7625
897.44466	47361.1625
901.24235	47216.2625
905.0374	46991.8625
908.8298	46903.9625
912.61957	46958.0625
916.40671	47286.3625
920.19121	47819.5625
923.97308	48428.3625
927.75233	48679.2625
931.52895	48514.3625
935.30295	47823.8625
939.07433	46914.1625
942.84309	46308.1625
946.60924	45981.6625
950.37278	45888.4625
954.13371	45855.8625
957.89203	45822.3625
961.64774	45849.3625
965.40086	45785.6625
969.15137	45767.2625
972.89929	45713.5625
976.64461	45708.9625
980.38733	45788.2625
984.12747	45959.1625
987.86502	46230.7625
991.59999	46634.1625
995.33237	47231.3625
999.06217	48344.8625
1002.78939	49547.4625
1006.51404	50506.2625
1010.23611	51206.8625
1013.95561	51810.8625
1017.67255	51865.7625
1021.38692	51265.7625
1025.09872	50508.3625
1028.80796	50121.7625
1032.51465	50495.9625
1036.21877	51223.6625
1039.92035	51410.1625
1043.61937	51128.6625
1047.31584	50533.3625
1051.00976	49949.8625
1054.70114	49761.3625
1058.38998	49805.2625
1062.07627	50097.0625
1065.76003	50557.7625
1069.44126	51196.0625
1073.11995	52106.6625
1076.79611	52915.1625
1080.46974	53460.8625
1084.14085	54146.4625
1087.80943	54885.1625
1091.47549	55210.1625
1095.13903	54711.6625
1098.80005	53586.2625
1102.45857	52542.4625
1106.11456	51835.9625
1109.76805	51727.2625
1113.41903	52115.2625
1117.06751	52712.0625
1120.71348	53708.7625
1124.35696	54458.0625
1127.99793	55195.6625
1131.63641	55039.2625
1135.2724	54286.2625
1138.90589	53766.0625
1142.5369	53472.2625
1146.16542	53590.9625
1149.79145	53844.2625
1153.415	54239.2625
1157.03607	54753.7625
1160.65467	56045.7625
1164.27079	58334.3625
1167.88443	61284.8625
1171.49561	65209.4625
1175.10432	70493.2625
1178.71056	76941.0625
1182.31434	82325.9625
1185.91565	84098.9625
1189.51451	82848.4625
1193.11091	79857.1625
1196.70485	76465.8625
1200.29634	73255.7625
1203.88538	70608.5625
1207.47197	68406.7625
1211.05612	66514.9625
1214.63782	65133.0625
1218.21708	64196.7625
1221.79391	63664.6625
1225.36829	63669.4625
1228.94024	63203.1625
1232.50976	62011.8625
1236.07685	60855.6625
1239.6415	60157.2625
1243.20374	60033.7625
1246.76355	60490.9625
1250.32093	61375.8625
1253.8759	62549.4625
1257.42845	64240.5625
1260.97859	66202.0625
1264.52631	68257.0625
1268.07163	70298.9625
1271.61453	72223.4625
1275.15503	74087.0625
1278.69312	75878.4625
1282.22882	77420.6625
1285.76211	79549.2625
1289.29301	82216.7625
1292.82151	85463.6625
1296.34761	89403.9625
1299.87133	94581.2625
1303.39266	100851.0625
1306.9116	107826.9625
1310.42815	114197.7625
1313.94233	117372.4625
1317.45412	115679.6625
1320.96354	111456.3625
1324.47058	107059.1625
1327.97525	103115.2625
1331.47754	100224.6625
1334.97747	98654.1625
1338.47502	97992.1625
1341.97022	98057.6625
1345.46305	98721.1625
1348.95352	99958.7625
1352.44163	102004.0625
1355.92738	105985.5625
1359.41078	112356.4625
1362.89183	117600.8625
1366.37053	114581.1625
1369.84688	103254.5625
1373.32088	90700.1625
1376.79254	82732.4625
1380.26186	79467.4625
1383.72883	78729.2625
1387.19347	78146.7625
1390.65578	77020.5625
1394.11575	76441.1625
1397.57339	76420.2625
1401.0287	76829.3625
1404.48168	77072.6625
1407.93234	76607.4625
1411.38068	75617.2625
1414.82669	74112.1625
1418.27039	72166.3625
1421.71177	70197.2625
1425.15083	68634.2625
1428.58758	68079.1625
1432.02203	69010.6625
1435.45416	70732.2625
1438.88399	72287.1625
1442.31151	73110.9625
1445.73673	73444.7625
1449.15965	73561.7625
1452.58027	73342.4625
1455.9986	73008.6625
1459.41463	73265.2625
1462.82837	74215.4625
1466.23982	75508.9625
1469.64898	76782.8625
1473.05586	77628.1625
1476.46045	78067.3625
1479.86276	77989.1625
1483.26279	77809.0625
1486.66054	78341.3625
1490.05602	79625.3625
1493.44922	81278.2625
1496.84016	83808.8625
1500.22882	87515.1625
1503.61521	92653.9625
1506.99934	98136.8625
1510.38121	101845.3625
1513.76081	101492.9625
1517.13816	96841.9625
1520.51324	90538.0625
1523.88607	85627.4625
1527.25665	83271.6625
1530.62498	82314.0625
1533.99105	81684.2625
1537.35488	80548.5625
1540.71647	78970.1625
1544.07581	77208.2625
1547.4329	75209.5625
1550.78776	73610.8625
1554.14038	72633.2625
1557.49077	72286.5625
1560.83892	72339.8625
1564.18484	73031.5625
1567.52853	73936.1625
1570.86999	74875.1625
1574.20922	75832.2625
1577.54624	76109.8625
1580.88103	74999.0625
1584.2136	74139.2625
1587.54395	75008.5625
1590.87208	77967.2625
1594.19801	82716.3625
1597.52172	87380.2625
1600.84321	88599.4625
1604.16251	85287.1625
1607.47959	79547.6625
1610.79447	73379.5625
1614.10715	67625.6625
1617.41763	63064.2625
1620.7259	59970.8625
1624.03199	58541.6625
1627.33587	58752.9625
1630.63757	60617.4625
1633.93707	64410.6625
1637.23439	70890.1625
1640.52951	80300.1625
1643.82246	90958.4625
1647.11321	99195.1625
1650.40179	100101.3625
1653.68819	92196.5625
1656.97241	79491.6625
1660.25446	67806.2625
1663.53433	59561.0625
1666.81203	54444.6625
1670.08756	51343.6625
1673.36092	49461.4625
1676.63211	48159.7625
1679.90115	47204.2625
1683.16801	46476.0625
1686.43272	45977.5625
1689.69527	45588.6625
1692.95567	45208.8625
1696.2139	45031.6625
1699.46999	44863.9625
1702.72392	44761.2625
1705.97571	44738.6625
1709.22535	44645.3625
1712.47284	44682.1625
1715.71819	44597.4625
1718.96139	44516.8625
1722.20246	44333.9625
1725.44139	44112.6625
1728.67818	43890.1625
1731.91284	43679.3625
1735.14537	43424.2625
1738.37576	43305.6625
1741.60403	43158.2625
1744.83017	42932.6625
1748.05418	42866.2625
1751.27607	42786.5625
1754.49584	42727.5625
1757.71349	42683.2625
1760.92903	42681.0625
1764.14244	42571.5625
1767.35375	42558.7625
1770.56294	42503.6625
1773.77002	42424.9625
1776.97499	42374.7625
1780.17785	42233.2625
1783.37861	42189.0625
1786.57727	42095.0625
1789.77382	42018.0625
1792.96828	41916.3625
1796.16064	41899.7625
1799.3509	41823.6625
1802.53907	41671.3625
1805.72514	41559.0625
1808.90913	41536.1625
1812.09102	41493.5625
1815.27083	41398.3625
1818.44856	41330.6625
1821.6242	41282.3625
1824.79776	41266.9625
1827.96924	41143.8625
1831.13864	41124.4625
1834.30597	41136.1625
1837.47122	41078.8625
1840.6344	41002.8625
1843.7955	40993.3625
1846.95454	40990.6625
1850.11151	41018.6625
1853.26642	41024.2625
1856.41926	40958.0625
1859.57004	41026.1625
1862.71876	40915.0625
1865.86542	40996.3625
1869.01003	41014.4625
1872.15258	40876.3625
1875.29308	40833.3625
1878.43152	40786.1625
1881.56792	40738.3625
1884.70227	40712.4625
1887.83457	40689.9625
1890.96482	40619.4625
1894.09304	40623.2625
1897.21921	40595.3625
1900.34335	40544.9625
1903.46544	40420.9625
1906.58551	40353.8625
1909.70353	40360.6625
1912.81953	40361.7625
1915.93349	40273.8625
1919.04543	40159.0625
1922.15534	40112.0625
1925.26322	40046.7625
1928.36908	40021.0625
1931.47292	39934.2625
1934.57473	39813.0625
1937.67453	39787.9625
1940.77232	39641.5625
1943.86808	39429.6625
1946.96184	39370.4625
1950.05358	39248.7625
1953.14331	39147.8625
1956.23103	38976.0625
1959.31675	38883.6625
1962.40046	38832.8625
1965.48217	38694.4625
1968.56188	38602.2625
1971.63959	38495.8625
1974.7153	38377.9625
1977.78901	38286.7625
1980.86073	38181.4625
1983.93046	38099.1625
1986.99819	37960.2625
1990.06394	37908.3625
1993.1277	37750.7625
1996.18947	37695.7625
1999.24925	37643.2625
2002.30706	37480.5625
2005.36288	37391.9625
2008.41672	37345.3625
2011.46859	37247.6625
2014.51848	37121.2625
2017.56639	37029.1625
2020.61233	37002.5625
2023.6563	36979.9625
2026.6983	36805.9625
2029.73833	36712.8625
2032.7764	36676.7625
2035.8125	36592.5625
2038.84664	36518.1625
2041.87881	36481.1625
2044.90903	36400.2625
2047.93729	36329.9625
2050.96359	36352.3625
2053.98794	36284.9625
2057.01034	36247.4625
2060.03078	36216.9625
2063.04927	36216.5625
2066.06582	36220.7625
2069.08042	36183.4625
2072.09307	36167.2625
2075.10378	36114.6625
2078.11255	36187.4625
2081.11938	36163.1625
2084.12426	36112.9625
2087.12722	36018.2625
2090.12824	36096.8625
2093.12732	36113.3625
2096.12447	36093.7625
2099.11969	36097.1625
2102.11299	36138.4625
2105.10435	36145.8625
2108.09379	36129.3625
2111.08131	36128.9625
2114.0669	36106.3625
2117.05057	36131.1625
2120.03233	36180.9625
2123.01216	36215.5625
2125.99008	36266.1625
2128.96609	36341.2625
2131.94018	36459.3625
2134.91236	36482.9625
2137.88263	36478.9625
2140.851	36507.1625
2143.81746	36533.1625
2146.78201	36539.0625
2149.74466	36552.6625
2152.7054	36517.4625
2155.66425	36472.6625
2158.6212	36435.7625
2161.57625	36403.7625
2164.52941	36457.3625
2167.48067	36450.4625
2170.43004	36463.3625
2173.37752	36433.9625
2176.32311	36355.5625
2179.26681	36385.1625
2182.20863	36390.4625
2185.14856	36416.7625
2188.08661	36415.6625
2191.02278	36413.7625
2193.95707	36458.6625
2196.88948	36427.9625
2199.82001	36393.2625
2202.74867	36341.4625
2205.67545	36317.1625
2208.60037	36244.4625
2211.52341	36238.9625
2214.44458	36201.7625
2217.36388	36093.5625
2220.28132	36128.7625
2223.1969	36002.1625
2226.11061	35968.9625
2229.02246	35805.6625
2231.93245	35895.1625
2234.84058	35803.8625
2237.74686	35739.5625
2240.65128	35697.7625
2243.55385	35622.0625
2246.45456	35642.2625
2249.35343	35520.7625
2252.25044	35486.1625
2255.14561	35463.7625
2258.03893	35414.5625
2260.93041	35346.8625
2263.82004	35292.1625
2266.70783	35235.8625
2269.59378	35192.1625
2272.4779	35161.9625
2275.36017	35101.0625
2278.24061	35101.0625
2281.11922	35039.0625
2283.996	34976.0625
2286.87094	34903.8625
2289.74405	34814.7625
2292.61534	34813.6625
2295.4848	34884.4625
2298.35243	34888.2625
2301.21824	34898.2625
2304.08223	34873.7625
2306.94439	34782.4625
2309.80474	34775.5625
2312.66327	34794.9625
2315.51999	34805.7625
2318.37489	34803.5625
2321.22797	34784.2625
2324.07925	34679.2625
2326.92871	34678.4625
2329.77637	34664.6625
2332.62222	34640.4625
2335.46626	34548.8625
2338.3085	34528.3625
2341.14893	34493.8625
2343.98756	34504.1625
2346.8244	34572.6625
2349.65943	34655.6625
2352.49267	34587.5625
2355.32411	34635.1625
2358.15376	34560.4625
2360.98161	34532.2625
2363.80768	34539.9625
2366.63195	34577.5625
2369.45444	34525.3625
2372.27514	34499.0625
2375.09405	34373.8625
2377.91118	34271.6625
2380.72652	34210.5625
2383.54009	34086.5625
2386.35187	34135.6625
2389.16188	34058.3625
2391.97011	34068.7625
2394.77657	33964.6625
2397.58125	33931.5625
2400.38416	33843.6625
2403.18529	33843.4625
2405.98466	33880.3625
2408.78226	33741.7625
2411.57809	33698.4625
2414.37216	33634.5625
2417.16446	33614.9625
2419.955	33552.4625
2422.74378	33545.2625
2425.5308	33550.3625
2428.31606	33524.6625
2431.09956	33525.1625
2433.88131	33399.3625
2436.6613	33445.6625
2439.43954	33421.6625
2442.21603	33477.3625
2444.99077	33433.7625
2447.76377	33401.2625
2450.53501	33394.7625
2453.30451	33447.8625
2456.07226	33443.6625
2458.83827	33401.5625
2461.60254	33442.1625
2464.36507	33429.6625
2467.12586	33359.4625
2469.88492	33374.1625
2472.64224	33406.7625
2475.39782	33381.2625
2478.15167	33457.2625
2480.90379	33414.7625
2483.65417	33474.6625
2486.40283	33517.4625
2489.14976	33557.9625
2491.89497	33535.2625
2494.63845	33498.2625
2497.3802	33542.3625
2500.12024	33578.7625
2502.85855	33506.8625
2505.59514	33396.6625
2508.33002	33336.6625
2511.06318	33313.1625
2513.79462	33211.5625
2516.52435	33177.6625
2519.25237	33276.6625
2521.97867	33225.3625
2524.70327	33218.4625
2527.42616	33192.0625
2530.14734	33186.6625
2532.86681	33068.7625
2535.58458	33136.4625
2538.30065	33096.3625
2541.01501	33132.9625
2543.72768	33130.1625
2546.43864	33054.3625
2549.14791	33036.6625
2551.85548	33016.3625
2554.56136	32980.4625
2557.26554	32894.7625
2559.96803	32917.2625
2562.66883	32803.3625
2565.36794	32780.6625
2568.06536	32752.0625
2570.7611	32780.2625
2573.45514	32701.7625
2576.14751	32656.5625
2578.83819	32653.4625
2581.52719	32644.2625
2584.21451	32597.1625
2586.90015	32611.7625
2589.58411	32528.2625
2592.2664	32576.1625
2594.94701	32526.6625
2597.62594	32577.5625
2600.30321	32497.1625
2602.9788	32471.6625
2605.65273	32460.3625
2608.32498	32408.1625
2610.99557	32408.0625
2613.66449	32397.9625
2616.33175	32434.4625
2618.99734	32445.3625
2621.66128	32428.1625
2624.32355	32334.6625
2626.98416	32340.8625
2629.64311	32257.2625
2632.30041	32227.7625
2634.95605	32221.1625
2637.61004	32163.5625
2640.26238	32153.7625
2642.91306	32146.4625
2645.56209	32083.2625
2648.20948	32130.1625
2650.85521	32139.2625
2653.4993	32141.0625
2656.14175	32135.5625
2658.78255	32177.1625
2661.42171	32206.5625
2664.05923	32301.2625
2666.6951	32223.2625
2669.32934	32320.4625
2671.96194	32255.7625
2674.59291	32267.7625
2677.22224	32170.3625
2679.84993	32204.3625
2682.476	32259.1625
2685.10043	32257.5625
2687.72324	32169.4625
2690.34441	32145.5625
2692.96396	32146.3625
2695.58188	32165.3625
2698.19818	32129.4625
2700.81285	32145.8625
2703.4259	32119.6625
2706.03733	32182.2625
2708.64714	32152.9625
2711.25533	32203.8625
2713.86191	32196.3625
2716.46687	32252.2625
2719.07021	32284.4625
2721.67194	32327.5625
2724.27206	32337.2625
2726.87057	32353.9625
2729.46747	32361.8625
2732.06276	32366.8625
2734.65644	32379.1625
2737.24852	32392.3625
2739.83899	32294.3625
2742.42786	32262.0625
2745.01513	32194.0625
2747.60079	32206.5625
2750.18486	32239.2625
2752.76733	32268.3625
2755.3482	32176.6625
2757.92747	32203.6625
2760.50515	32148.7625
2763.08123	32181.0625
2765.65573	32105.8625
2768.22863	32133.4625
2770.79994	32069.8625
2773.36967	32138.3625
2775.9378	32043.6625
2778.50435	32022.9625
2781.06932	32022.1625
2783.6327	31947.4625
2786.1945	31926.1625
2788.75471	31887.4625
2791.31335	31848.2625
2793.87041	31872.5625
2796.42589	31779.6625
2798.97979	31802.2625
2801.53212	31735.7625
2804.08288	31726.3625
2806.63206	31681.8625
2809.17967	31658.6625
2811.72571	31542.7625
2814.27018	31457.1625
2816.81308	31383.9625
2819.35442	31369.9625
2821.89419	31330.2625
2824.43239	31280.8625
2826.96904	31310.6625
2829.50412	31321.3625
2832.03763	31209.8625
2834.56959	31238.7625
2837.1	31173.1625
2839.62884	31156.9625
2842.15613	31102.3625
2844.68186	31075.9625
2847.20604	31048.8625
2849.72867	31081.6625
2852.24974	31032.1625
2854.76927	31045.3625
2857.28724	31026.8625
2859.80367	30981.3625
2862.31855	30933.1625
2864.83189	30915.7625
2867.34368	30831.0625
2869.85393	30839.8625
2872.36264	30843.0625
2874.8698	30764.5625
2877.37543	30779.9625
2879.87952	30730.4625
2882.38207	30746.7625
2884.88308	30766.4625
2887.38256	30804.4625
2889.88051	30805.4625
2892.37692	30781.9625
2894.8718	30791.0625
2897.36515	30828.4625
2899.85698	30812.1625
2902.34727	30909.4625
2904.83604	30923.7625
2907.32328	31027.6625
2909.809	31048.3625
2912.29319	31054.9625
2914.77587	31062.5625
2917.25702	31094.8625
2919.73665	31067.2625
2922.21476	31069.1625
2924.69136	31022.9625
2927.16644	30948.8625
2929.64	30876.7625
2932.11205	30798.3625
2934.58258	30703.8625
2937.05161	30704.5625
2939.51912	30746.5625
2941.98513	30703.4625
2944.44962	30678.2625
2946.91261	30643.7625
2949.37409	30721.0625
2951.83407	30714.0625
2954.29254	30728.5625
2956.74951	30710.5625
2959.20498	30742.6625
2961.65895	30689.9625
2964.11142	30710.4625
2966.56239	30685.6625
2969.01186	30637.4625
2971.45984	30572.0625
2973.90632	30611.2625
2976.35131	30575.9625
2978.7948	30550.4625
2981.23681	30459.9625
2983.67732	30421.2625
2986.11635	30384.8625
2988.55388	30292.9625
2990.98993	30217.2625
2993.4245	30169.7625
2995.85758	30100.3625
2998.28917	30012.8625
3000.71928	29924.9625
3003.14791	29848.1625
3005.57506	29788.5625
3008.00073	29700.1625
3010.42493	29710.6625
3012.84764	29643.5625
3015.26888	29624.1625
3017.68865	29527.3625
3020.10694	29498.2625
3022.52376	29448.3625
3024.9391	29464.0625
3027.35298	29441.3625
3029.76539	29445.6625
3032.17632	29396.7625
3034.5858	29351.1625
3036.9938	29363.1625
3039.40034	29306.4625
3041.80542	29242.0625
3044.20903	29211.5625
3046.61118	29190.8625
3049.01187	29165.2625
3051.4111	29142.5625
3053.80888	29095.8625
3056.20519	29050.9625
3058.60005	29028.3625
3060.99345	29007.8625
3063.3854	28903.3625
3065.7759	28779.8625
3068.16494	28685.9625
3070.55254	28613.1625
3072.93868	28541.2625
3075.32338	28434.3625
3077.70662	28379.4625
3080.08842	28305.3625
3082.46878	28340.2625
3084.84769	28332.9625
3087.22515	28353.6625
3089.60118	28318.1625
3091.97576	28257.7625
3094.3489	28241.0625
3096.72061	28204.7625
3099.09087	28290.6625
3101.4597	28226.5625
3103.82709	28226.3625
3106.19305	28240.0625
3108.55757	28264.6625
3110.92066	28162.6625
3113.28232	28162.8625
3115.64255	28091.8625
3118.00134	28005.7625
3120.35871	27949.1625
3122.71466	27909.7625
3125.06917	27817.4625
3127.42226	27744.9625
3129.77393	27793.2625
3132.12417	27761.2625
3134.47299	27696.9625
3136.82039	27668.8625
3139.16636	27599.8625
3141.51092	27637.4625
3143.85406	27638.2625
3146.19579	27637.1625
3148.53609	27640.2625
3150.87499	27696.1625
3153.21246	27674.4625
3155.54853	27746.6625
3157.88318	27640.8625
3160.21642	27636.5625
3162.54826	27628.9625
3164.87868	27715.6625
3167.2077	27723.9625
3169.5353	27720.3625
3171.86151	27700.3625
3174.18631	27594.3625
3176.5097	27570.9625
3178.83169	27571.6625
3181.15228	27578.7625
3183.47147	27510.0625
3185.78926	27450.3625
3188.10565	27420.2625
3190.42065	27387.4625
3192.73424	27375.6625
3195.04645	27310.6625
3197.35725	27373.0625
3199.66667	27303.2625
3201.97469	27319.1625
3204.28132	27254.3625
3206.58656	27306.2625
3208.8904	27300.7625
3211.19287	27255.1625
3213.49394	27279.1625
3215.79363	27281.7625
3218.09193	27317.1625
3220.38884	27296.0625
3222.68438	27355.1625
3224.97853	27314.1625
3227.2713	27337.8625
3229.56269	27275.1625
3231.8527	27304.9625
3234.14133	27257.5625
3236.42858	27176.9625
3238.71446	27251.6625
3240.99896	27138.8625
3243.28209	27087.8625
3245.56384	27008.9625
3247.84423	26906.6625
3250.12324	26911.8625
3252.40088	26944.9625
3254.67715	26904.5625
3256.95205	26917.2625
3259.22558	26863.6625
3261.49775	26841.6625
3263.76855	26851.6625
3266.03799	26773.1625
3268.30606	26774.8625
3270.57277	26708.2625
3272.83812	26671.4625
3275.10211	26625.2625
3277.36474	26593.4625
3279.62601	26598.5625
3281.88593	26526.5625
3284.14448	26648.5625
3286.40168	26632.3625
3288.65753	26551.7625
3290.91202	26598.3625
3293.16516	26533.3625
3295.41695	26515.6625
3297.66738	26405.6625
3299.91647	26267.9625
3302.16421	26080.7625
3304.4106	25983.7625
3306.65564	25850.2625
3308.89933	25605.6625
3311.14169	25455.9625
3313.38269	25303.4625
3315.62236	25186.9625
3317.86068	25034.3625
3320.09766	24917.1625
3322.3333	24729.1625
3324.5676	24584.7625
3326.80056	24244.9625
3329.03219	24142.8625
3331.26248	5.9625
3333.49143	0.1625
3335.71905	-0.9375
