Data from AgNPs_UA_10uM_CRN_0uM_R6G_10uM_Q_RamanShift__25__12-17-52-654.txt Node

Date: Mon Jul 18 12:17:52 BST 2022
User: TCL
Spectrometer: QEP01345
Trigger mode: 4
Integration Time (sec): 7.000000E0
Scans to average: 10
Electric dark correction enabled: true
Nonlinearity correction enabled: false
Boxcar width: 0
XAxis mode: Raman Shifts
Number of Pixels in Spectrum: 1044
>>>>>Begin Spectral Data<<<<<
46.04893	-1.4625
50.45542	-2.2625
54.85868	-1.3625
59.25871	-2.3625
63.6555	119.7375
68.04907	124.9375
72.43941	130.5375
76.82654	135.8375
81.21044	137.4375
85.59113	140.4375
89.96862	145.1375
94.34289	153.6375
98.71396	162.8375
103.08183	164.8375
107.4465	167.5375
111.80798	172.4375
116.16626	177.6375
120.52136	184.0375
124.87327	198.1375
129.222	201.5375
133.56755	217.3375
137.90993	233.9375
142.24913	250.7375
146.58517	285.2375
150.91804	330.7375
155.24774	392.2375
159.57429	490.4375
163.89768	635.5375
168.21792	831.7375
172.53501	1134.0375
176.84895	1579.5375
181.15975	2225.3375
185.46741	3105.2375
189.77193	4260.0375
194.07331	5703.9375
198.37157	7303.0375
202.6667	8982.4375
206.9587	10648.4375
211.24758	12315.4375
215.53334	13980.1375
219.81599	15767.2375
224.09553	17824.6375
228.37195	20161.2375
232.64527	22629.5375
236.91549	25184.1375
241.18261	27694.9375
245.44663	29915.8375
249.70755	31942.7375
253.96539	33714.5375
258.22014	35238.8375
262.4718	36422.7375
266.72039	37302.9375
270.96589	37725.7375
275.20832	37860.2375
279.44768	37589.5375
283.68397	37161.7375
287.91719	36839.3375
292.14735	36865.6375
296.37445	36982.4375
300.59849	37392.7375
304.81948	37799.9375
309.03742	37998.3375
313.25231	37617.1375
317.46415	36630.1375
321.67296	35295.8375
325.87872	34297.5375
330.08145	33923.2375
334.28114	34011.7375
338.47781	34428.2375
342.67145	35080.0375
346.86207	35886.7375
351.04966	37046.5375
355.23424	38250.8375
359.4158	39284.4375
363.59435	39880.1375
367.76989	40255.5375
371.94243	40518.7375
376.11196	40508.8375
380.27849	40692.3375
384.44203	40777.0375
388.60257	40713.1375
392.76012	40905.1375
396.91468	41408.4375
401.06626	42257.8375
405.21485	42780.2375
409.36047	42478.6375
413.50311	41609.4375
417.64277	40837.4375
421.77947	40606.4375
425.9132	40685.0375
430.04396	40931.3375
434.17176	41309.2375
438.2966	42007.6375
442.41849	43011.4375
446.53742	44317.5375
450.6534	45757.6375
454.76644	46726.1375
458.87653	46982.2375
462.98368	46483.0375
467.08789	45713.0375
471.18916	44695.7375
475.2875	43775.8375
479.38291	43152.2375
483.4754	42540.0375
487.56496	42017.1375
491.6516	41492.1375
495.73531	41061.7375
499.81612	40918.6375
503.89401	41204.7375
507.96899	41281.5375
512.04106	41393.9375
516.11023	41605.4375
520.1765	41627.0375
524.23987	41507.4375
528.30034	41205.2375
532.35792	40878.0375
536.41261	40347.8375
540.46441	39923.0375
544.51333	39990.9375
548.55936	40380.5375
552.60252	41319.2375
556.64279	42238.9375
560.6802	42651.2375
564.71473	43071.6375
568.7464	43932.4375
572.7752	44638.1375
576.80114	44621.4375
580.82422	44570.1375
584.84444	45001.1375
588.86181	45814.9375
592.87633	46949.7375
596.888	47757.7375
600.89682	48679.1375
604.9028	52012.1375
608.90594	59359.5375
612.90624	65463.8375
616.90371	59498.9375
620.89834	48411.1375
624.89015	44481.5375
628.87913	44095.7375
632.86528	43751.0375
636.84862	43053.2375
640.82913	42090.1375
644.80683	40797.7375
648.78172	39996.2375
652.75379	40189.2375
656.72306	41089.6375
660.68952	42158.8375
664.65319	41829.9375
668.61405	41010.1375
672.57211	40714.8375
676.52738	40750.8375
680.47986	40582.3375
684.42955	40406.2375
688.37646	40414.1375
692.32058	40676.7375
696.26192	41099.1375
700.20048	41506.2375
704.13626	41720.7375
708.06928	41489.2375
711.99952	41149.2375
715.927	41128.7375
719.85171	41145.9375
723.77365	40871.9375
727.69284	40469.5375
731.60928	40253.5375
735.52295	40414.2375
739.43388	40594.6375
743.34206	40955.3375
747.24749	41184.4375
751.15017	41590.6375
755.05012	42386.2375
758.94733	43932.2375
762.8418	46999.1375
766.73354	51464.8375
770.62254	55432.6375
774.50882	56367.6375
778.39237	53390.5375
782.27321	48664.8375
786.15132	44731.6375
790.02671	42461.2375
793.89938	41452.4375
797.76935	41047.3375
801.6366	40947.7375
805.50115	40754.8375
809.36299	40497.0375
813.22213	40226.5375
817.07857	40206.9375
820.93231	40185.4375
824.78336	40317.6375
828.63172	40417.3375
832.47738	40534.1375
836.32036	40668.4375
840.16066	40994.2375
843.99827	41113.8375
847.8332	40945.8375
851.66546	40610.3375
855.49504	40530.0375
859.32195	40443.3375
863.1462	40285.8375
866.96777	40064.6375
870.78668	39969.2375
874.60293	39953.7375
878.41652	40045.5375
882.22745	40270.9375
886.03573	40371.6375
889.84136	40251.0375
893.64433	40042.6375
897.44466	39912.5375
901.24235	39888.3375
905.0374	39774.1375
908.8298	39723.1375
912.61957	39835.0375
916.40671	40241.4375
920.19121	40893.6375
923.97308	41557.5375
927.75233	42058.2375
931.52895	42123.3375
935.30295	41568.8375
939.07433	40556.7375
942.84309	39888.9375
946.60924	39691.4375
950.37278	39470.4375
954.13371	39198.7375
957.89203	38912.2375
961.64774	38819.4375
965.40086	38739.4375
969.15137	38577.5375
972.89929	38560.8375
976.64461	38566.0375
980.38733	38733.5375
984.12747	39004.7375
987.86502	39387.9375
991.59999	39996.7375
995.33237	41049.9375
999.06217	42921.0375
1002.78939	44919.2375
1006.51404	45747.1375
1010.23611	46013.2375
1013.95561	46379.8375
1017.67255	46513.6375
1021.38692	46202.8375
1025.09872	46233.2375
1028.80796	47432.5375
1032.51465	49598.6375
1036.21877	51107.7375
1039.92035	50785.2375
1043.61937	49255.9375
1047.31584	47184.5375
1051.00976	45227.2375
1054.70114	44295.7375
1058.38998	44088.3375
1062.07627	44062.6375
1065.76003	43994.8375
1069.44126	44133.8375
1073.11995	44519.0375
1076.79611	44909.0375
1080.46974	45278.2375
1084.14085	45809.1375
1087.80943	46376.6375
1091.47549	46378.5375
1095.13903	45705.6375
1098.80005	44856.9375
1102.45857	44048.9375
1106.11456	43745.5375
1109.76805	43975.7375
1113.41903	44498.3375
1117.06751	45164.5375
1120.71348	46114.8375
1124.35696	46900.8375
1127.99793	47486.1375
1131.63641	47333.9375
1135.2724	46522.6375
1138.90589	45803.6375
1142.5369	45358.8375
1146.16542	45072.5375
1149.79145	45192.5375
1153.415	45483.6375
1157.03607	46105.3375
1160.65467	47053.4375
1164.27079	48683.1375
1167.88443	50962.8375
1171.49561	54534.5375
1175.10432	59520.9375
1178.71056	65736.3375
1182.31434	71118.5375
1185.91565	73727.2375
1189.51451	72947.5375
1193.11091	69461.2375
1196.70485	65224.6375
1200.29634	61668.5375
1203.88538	58928.9375
1207.47197	56515.8375
1211.05612	54789.0375
1214.63782	54114.6375
1218.21708	54404.5375
1221.79391	55018.7375
1225.36829	55369.2375
1228.94024	54799.5375
1232.50976	53726.6375
1236.07685	53018.9375
1239.6415	52789.9375
1243.20374	52843.1375
1246.76355	53294.2375
1250.32093	54205.0375
1253.8759	55574.5375
1257.42845	57352.3375
1260.97859	58816.4375
1264.52631	60102.7375
1268.07163	61458.5375
1271.61453	63140.0375
1275.15503	65166.3375
1278.69312	67384.2375
1282.22882	69155.6375
1285.76211	70567.2375
1289.29301	71905.6375
1292.82151	73551.1375
1296.34761	75957.8375
1299.87133	79696.3375
1303.39266	85239.1375
1306.9116	92585.0375
1310.42815	100197.5375
1313.94233	104337.0375
1317.45412	103143.8375
1320.96354	98798.0375
1324.47058	93898.5375
1327.97525	89815.8375
1331.47754	87359.6375
1334.97747	86472.8375
1338.47502	87054.1375
1341.97022	88015.1375
1345.46305	88459.4375
1348.95352	88555.6375
1352.44163	89688.4375
1355.92738	93083.0375
1359.41078	99498.7375
1362.89183	104759.7375
1366.37053	101342.6375
1369.84688	90739.4375
1373.32088	80071.4375
1376.79254	73102.7375
1380.26186	69655.3375
1383.72883	68197.4375
1387.19347	67056.6375
1390.65578	65917.8375
1394.11575	65504.0375
1397.57339	66110.9375
1401.0287	67453.5375
1404.48168	68822.8375
1407.93234	69802.1375
1411.38068	70345.4375
1414.82669	69763.5375
1418.27039	67828.1375
1421.71177	65347.5375
1425.15083	63338.2375
1428.58758	62318.5375
1432.02203	62619.2375
1435.45416	63373.7375
1438.88399	64210.3375
1442.31151	64707.8375
1445.73673	65201.7375
1449.15965	65578.0375
1452.58027	65724.3375
1455.9986	65546.1375
1459.41463	65597.1375
1462.82837	66307.0375
1466.23982	67554.5375
1469.64898	68873.1375
1473.05586	69863.2375
1476.46045	70407.1375
1479.86276	70821.7375
1483.26279	71196.1375
1486.66054	71643.3375
1490.05602	72548.8375
1493.44922	73823.1375
1496.84016	75374.4375
1500.22882	77650.0375
1503.61521	80960.6375
1506.99934	85232.7375
1510.38121	88666.9375
1513.76081	89567.2375
1517.13816	86622.2375
1520.51324	81533.4375
1523.88607	76867.9375
1527.25665	73838.8375
1530.62498	72055.9375
1533.99105	71026.7375
1537.35488	70365.0375
1540.71647	69920.6375
1544.07581	69427.1375
1547.4329	68646.4375
1550.78776	67579.9375
1554.14038	66732.2375
1557.49077	66297.6375
1560.83892	66088.9375
1564.18484	66257.4375
1567.52853	66397.0375
1570.86999	66541.5375
1574.20922	66920.2375
1577.54624	66853.0375
1580.88103	65925.5375
1584.2136	65347.0375
1587.54395	66453.4375
1590.87208	69899.5375
1594.19801	75469.0375
1597.52172	81195.3375
1600.84321	83581.9375
1604.16251	80759.3375
1607.47959	74681.7375
1610.79447	67795.0375
1614.10715	61701.2375
1617.41763	57248.7375
1620.7259	54548.1375
1624.03199	53343.9375
1627.33587	53660.7375
1630.63757	55356.7375
1633.93707	58515.6375
1637.23439	63047.7375
1640.52951	68502.8375
1643.82246	74308.3375
1647.11321	78771.3375
1650.40179	79332.5375
1653.68819	74296.2375
1656.97241	65688.4375
1660.25446	57379.2375
1663.53433	51418.1375
1666.81203	47519.9375
1670.08756	45136.5375
1673.36092	43645.3375
1676.63211	42604.6375
1679.90115	41846.4375
1683.16801	41294.4375
1686.43272	40898.1375
1689.69527	40587.3375
1692.95567	40354.2375
1696.2139	40179.8375
1699.46999	40021.4375
1702.72392	40009.2375
1705.97571	39917.8375
1709.22535	39961.3375
1712.47284	39927.8375
1715.71819	39955.7375
1718.96139	39848.3375
1722.20246	39685.0375
1725.44139	39530.0375
1728.67818	39367.0375
1731.91284	39143.3375
1735.14537	38969.5375
1738.37576	38829.4375
1741.60403	38751.1375
1744.83017	38714.0375
1748.05418	38592.8375
1751.27607	38544.2375
1754.49584	38563.2375
1757.71349	38471.5375
1760.92903	38426.6375
1764.14244	38377.7375
1767.35375	38417.2375
1770.56294	38345.9375
1773.77002	38321.9375
1776.97499	38332.5375
1780.17785	38303.8375
1783.37861	38258.9375
1786.57727	38199.5375
1789.77382	38153.8375
1792.96828	38154.0375
1796.16064	38150.3375
1799.3509	38088.7375
1802.53907	38039.8375
1805.72514	37893.9375
1808.90913	37843.2375
1812.09102	37825.4375
1815.27083	37737.7375
1818.44856	37710.2375
1821.6242	37663.4375
1824.79776	37601.4375
1827.96924	37582.8375
1831.13864	37578.2375
1834.30597	37550.9375
1837.47122	37589.9375
1840.6344	37529.3375
1843.7955	37544.4375
1846.95454	37513.8375
1850.11151	37536.9375
1853.26642	37521.3375
1856.41926	37560.5375
1859.57004	37585.8375
1862.71876	37625.1375
1865.86542	37584.3375
1869.01003	37626.8375
1872.15258	37643.2375
1875.29308	37611.1375
1878.43152	37615.9375
1881.56792	37618.2375
1884.70227	37609.4375
1887.83457	37620.9375
1890.96482	37661.6375
1894.09304	37548.0375
1897.21921	37664.4375
1900.34335	37629.7375
1903.46544	37568.8375
1906.58551	37554.2375
1909.70353	37537.6375
1912.81953	37621.2375
1915.93349	37615.0375
1919.04543	37552.1375
1922.15534	37497.6375
1925.26322	37445.3375
1928.36908	37385.1375
1931.47292	37299.4375
1934.57473	37209.5375
1937.67453	37098.8375
1940.77232	37055.4375
1943.86808	36955.5375
1946.96184	36859.6375
1950.05358	36677.8375
1953.14331	36547.0375
1956.23103	36406.3375
1959.31675	36356.9375
1962.40046	36318.7375
1965.48217	36256.8375
1968.56188	36190.5375
1971.63959	36096.9375
1974.7153	35991.1375
1977.78901	35873.3375
1980.86073	35776.4375
1983.93046	35652.4375
1986.99819	35586.4375
1990.06394	35512.7375
1993.1277	35395.5375
1996.18947	35290.1375
1999.24925	35274.9375
2002.30706	35171.7375
2005.36288	35168.1375
2008.41672	35075.0375
2011.46859	34977.7375
2014.51848	34915.8375
2017.56639	34871.9375
2020.61233	34743.3375
2023.6563	34674.5375
2026.6983	34587.4375
2029.73833	34513.3375
2032.7764	34428.6375
2035.8125	34475.0375
2038.84664	34403.7375
2041.87881	34392.5375
2044.90903	34312.7375
2047.93729	34253.8375
2050.96359	34267.6375
2053.98794	34149.3375
2057.01034	34150.9375
2060.03078	34192.3375
2063.04927	34165.2375
2066.06582	34188.0375
2069.08042	34104.5375
2072.09307	34052.3375
2075.10378	34022.4375
2078.11255	34001.5375
2081.11938	34005.3375
2084.12426	33960.0375
2087.12722	33957.0375
2090.12824	33948.6375
2093.12732	33921.6375
2096.12447	33988.6375
2099.11969	33995.5375
2102.11299	34069.6375
2105.10435	34023.5375
2108.09379	33998.7375
2111.08131	34072.7375
2114.0669	34015.6375
2117.05057	34007.5375
2120.03233	34105.5375
2123.01216	34190.9375
2125.99008	34164.8375
2128.96609	34213.8375
2131.94018	34301.8375
2134.91236	34360.0375
2137.88263	34367.1375
2140.851	34372.9375
2143.81746	34432.0375
2146.78201	34477.8375
2149.74466	34492.6375
2152.7054	34530.0375
2155.66425	34486.2375
2158.6212	34516.1375
2161.57625	34460.3375
2164.52941	34470.8375
2167.48067	34414.7375
2170.43004	34437.7375
2173.37752	34421.3375
2176.32311	34407.4375
2179.26681	34465.8375
2182.20863	34528.1375
2185.14856	34572.0375
2188.08661	34525.0375
2191.02278	34586.8375
2193.95707	34585.4375
2196.88948	34626.0375
2199.82001	34599.6375
2202.74867	34559.5375
2205.67545	34608.0375
2208.60037	34577.8375
2211.52341	34525.3375
2214.44458	34556.2375
2217.36388	34549.7375
2220.28132	34581.6375
2223.1969	34456.3375
2226.11061	34364.0375
2229.02246	34327.2375
2231.93245	34317.9375
2234.84058	34204.6375
2237.74686	34125.3375
2240.65128	34101.9375
2243.55385	34069.0375
2246.45456	34040.6375
2249.35343	34027.5375
2252.25044	33977.8375
2255.14561	33960.3375
2258.03893	33925.1375
2260.93041	33856.2375
2263.82004	33861.3375
2266.70783	33768.4375
2269.59378	33677.3375
2272.4779	33616.3375
2275.36017	33511.5375
2278.24061	33471.5375
2281.11922	33435.0375
2283.996	33460.3375
2286.87094	33392.3375
2289.74405	33310.1375
2292.61534	33345.4375
2295.4848	33320.7375
2298.35243	33411.0375
2301.21824	33404.3375
2304.08223	33462.3375
2306.94439	33485.8375
2309.80474	33526.4375
2312.66327	33543.5375
2315.51999	33554.4375
2318.37489	33635.2375
2321.22797	33581.4375
2324.07925	33604.6375
2326.92871	33551.4375
2329.77637	33562.6375
2332.62222	33557.4375
2335.46626	33643.8375
2338.3085	33679.8375
2341.14893	33696.2375
2343.98756	33671.1375
2346.8244	33784.4375
2349.65943	33847.7375
2352.49267	33847.7375
2355.32411	33783.1375
2358.15376	33767.3375
2360.98161	33752.6375
2363.80768	33714.4375
2366.63195	33663.6375
2369.45444	33592.9375
2372.27514	33530.3375
2375.09405	33402.8375
2377.91118	33346.0375
2380.72652	33260.9375
2383.54009	33149.5375
2386.35187	33173.3375
2389.16188	33106.7375
2391.97011	33131.2375
2394.77657	33020.0375
2397.58125	32961.3375
2400.38416	32975.6375
2403.18529	32994.1375
2405.98466	32908.8375
2408.78226	32761.1375
2411.57809	32752.5375
2414.37216	32688.8375
2417.16446	32672.1375
2419.955	32583.7375
2422.74378	32569.6375
2425.5308	32537.4375
2428.31606	32472.6375
2431.09956	32481.3375
2433.88131	32445.1375
2436.6613	32483.4375
2439.43954	32506.8375
2442.21603	32467.1375
2444.99077	32418.4375
2447.76377	32415.3375
2450.53501	32375.0375
2453.30451	32424.4375
2456.07226	32400.2375
2458.83827	32339.8375
2461.60254	32384.9375
2464.36507	32320.8375
2467.12586	32315.1375
2469.88492	32348.5375
2472.64224	32339.7375
2475.39782	32364.5375
2478.15167	32462.3375
2480.90379	32502.8375
2483.65417	32594.5375
2486.40283	32667.9375
2489.14976	32746.8375
2491.89497	32773.7375
2494.63845	32782.5375
2497.3802	32788.4375
2500.12024	32784.0375
2502.85855	32735.5375
2505.59514	32680.2375
2508.33002	32625.7375
2511.06318	32580.4375
2513.79462	32559.4375
2516.52435	32464.1375
2519.25237	32460.0375
2521.97867	32490.5375
2524.70327	32506.6375
2527.42616	32460.8375
2530.14734	32467.1375
2532.86681	32484.4375
2535.58458	32534.4375
2538.30065	32486.9375
2541.01501	32510.4375
2543.72768	32536.4375
2546.43864	32449.8375
2549.14791	32367.9375
2551.85548	32365.6375
2554.56136	32265.9375
2557.26554	32234.9375
2559.96803	32330.9375
2562.66883	32247.2375
2565.36794	32204.4375
2568.06536	32267.9375
2570.7611	32287.5375
2573.45514	32255.8375
2576.14751	32240.3375
2578.83819	32222.0375
2581.52719	32196.2375
2584.21451	32235.6375
2586.90015	32270.9375
2589.58411	32238.8375
2592.2664	32314.1375
2594.94701	32307.0375
2597.62594	32361.7375
2600.30321	32313.5375
2602.9788	32248.5375
2605.65273	32175.7375
2608.32498	32240.9375
2610.99557	32192.6375
2613.66449	32242.8375
2616.33175	32239.8375
2618.99734	32251.5375
2621.66128	32289.8375
2624.32355	32380.0375
2626.98416	32413.5375
2629.64311	32364.8375
2632.30041	32373.9375
2634.95605	32340.8375
2637.61004	32312.4375
2640.26238	32315.4375
2642.91306	32314.7375
2645.56209	32234.9375
2648.20948	32249.2375
2650.85521	32127.9375
2653.4993	32095.2375
2656.14175	32084.2375
2658.78255	32189.2375
2661.42171	32203.6375
2664.05923	32271.6375
2666.6951	32260.9375
2669.32934	32288.7375
2671.96194	32310.1375
2674.59291	32313.9375
2677.22224	32310.9375
2679.84993	32284.4375
2682.476	32308.9375
2685.10043	32285.6375
2687.72324	32219.2375
2690.34441	32153.7375
2692.96396	32160.3375
2695.58188	32159.5375
2698.19818	32040.5375
2700.81285	32070.2375
2703.4259	32089.0375
2706.03733	32161.8375
2708.64714	32167.7375
2711.25533	32204.2375
2713.86191	32163.1375
2716.46687	32229.2375
2719.07021	32171.2375
2721.67194	32311.3375
2724.27206	32246.9375
2726.87057	32241.3375
2729.46747	32268.8375
2732.06276	32341.7375
2734.65644	32316.0375
2737.24852	32297.8375
2739.83899	32235.9375
2742.42786	32239.2375
2745.01513	32191.1375
2747.60079	32214.7375
2750.18486	32228.8375
2752.76733	32278.8375
2755.3482	32216.4375
2757.92747	32197.7375
2760.50515	32155.4375
2763.08123	32167.6375
2765.65573	32091.4375
2768.22863	32111.6375
2770.79994	32120.5375
2773.36967	32202.3375
2775.9378	32117.1375
2778.50435	32103.6375
2781.06932	32111.1375
2783.6327	32132.4375
2786.1945	32143.1375
2788.75471	32087.2375
2791.31335	32006.1375
2793.87041	31984.7375
2796.42589	31947.5375
2798.97979	31964.4375
2801.53212	31941.7375
2804.08288	31929.2375
2806.63206	31765.0375
2809.17967	31738.7375
2811.72571	31686.0375
2814.27018	31674.1375
2816.81308	31620.1375
2819.35442	31614.3375
2821.89419	31619.1375
2824.43239	31595.7375
2826.96904	31552.5375
2829.50412	31605.2375
2832.03763	31513.0375
2834.56959	31563.3375
2837.1	31543.0375
2839.62884	31571.2375
2842.15613	31530.2375
2844.68186	31503.2375
2847.20604	31378.2375
2849.72867	31406.0375
2852.24974	31400.2375
2854.76927	31365.6375
2857.28724	31312.7375
2859.80367	31349.5375
2862.31855	31338.4375
2864.83189	31358.6375
2867.34368	31325.9375
2869.85393	31324.0375
2872.36264	31233.2375
2874.8698	31226.2375
2877.37543	31267.1375
2879.87952	31288.9375
2882.38207	31276.8375
2884.88308	31300.5375
2887.38256	31329.1375
2889.88051	31311.4375
2892.37692	31322.1375
2894.8718	31346.6375
2897.36515	31353.8375
2899.85698	31352.1375
2902.34727	31439.3375
2904.83604	31425.8375
2907.32328	31528.1375
2909.809	31533.4375
2912.29319	31571.3375
2914.77587	31551.8375
2917.25702	31542.0375
2919.73665	31548.7375
2922.21476	31544.8375
2924.69136	31506.8375
2927.16644	31482.3375
2929.64	31431.6375
2932.11205	31389.3375
2934.58258	31240.2375
2937.05161	31264.3375
2939.51912	31296.7375
2941.98513	31268.6375
2944.44962	31232.0375
2946.91261	31146.9375
2949.37409	31234.8375
2951.83407	31205.1375
2954.29254	31251.8375
2956.74951	31215.3375
2959.20498	31213.1375
2961.65895	31159.3375
2964.11142	31296.6375
2966.56239	31177.4375
2969.01186	31150.4375
2971.45984	31032.5375
2973.90632	31010.8375
2976.35131	30922.4375
2978.7948	30850.5375
2981.23681	30832.5375
2983.67732	30800.7375
2986.11635	30800.6375
2988.55388	30683.5375
2990.98993	30686.9375
2993.4245	30603.4375
2995.85758	30578.0375
2998.28917	30437.3375
3000.71928	30392.3375
3003.14791	30316.4375
3005.57506	30290.6375
3008.00073	30224.7375
3010.42493	30195.0375
3012.84764	30146.7375
3015.26888	30119.9375
3017.68865	30111.7375
3020.10694	30022.1375
3022.52376	29979.2375
3024.9391	29964.1375
3027.35298	29878.1375
3029.76539	29886.7375
3032.17632	29908.6375
3034.5858	29890.7375
3036.9938	29883.0375
3039.40034	29855.6375
3041.80542	29809.1375
3044.20903	29779.2375
3046.61118	29793.2375
3049.01187	29684.4375
3051.4111	29683.0375
3053.80888	29597.7375
3056.20519	29559.4375
3058.60005	29529.6375
3060.99345	29454.1375
3063.3854	29351.7375
3065.7759	29242.6375
3068.16494	29197.4375
3070.55254	29094.8375
3072.93868	29039.2375
3075.32338	28954.6375
3077.70662	28910.4375
3080.08842	28795.2375
3082.46878	28808.7375
3084.84769	28769.2375
3087.22515	28821.4375
3089.60118	28770.4375
3091.97576	28735.0375
3094.3489	28782.0375
3096.72061	28774.9375
3099.09087	28800.4375
3101.4597	28803.8375
3103.82709	28807.9375
3106.19305	28745.3375
3108.55757	28723.9375
3110.92066	28671.1375
3113.28232	28664.3375
3115.64255	28577.3375
3118.00134	28562.4375
3120.35871	28545.3375
3122.71466	28467.8375
3125.06917	28377.9375
3127.42226	28364.6375
3129.77393	28321.5375
3132.12417	28325.1375
3134.47299	28338.8375
3136.82039	28300.8375
3139.16636	28281.1375
3141.51092	28236.1375
3143.85406	28236.2375
3146.19579	28236.8375
3148.53609	28287.6375
3150.87499	28296.2375
3153.21246	28248.8375
3155.54853	28235.7375
3157.88318	28193.0375
3160.21642	28269.4375
3162.54826	28287.0375
3164.87868	28369.3375
3167.2077	28355.6375
3169.5353	28334.3375
3171.86151	28237.7375
3174.18631	28225.0375
3176.5097	28234.5375
3178.83169	28220.7375
3181.15228	28274.3375
3183.47147	28162.9375
3185.78926	28156.4375
3188.10565	28138.0375
3190.42065	28100.7375
3192.73424	28129.9375
3195.04645	28077.5375
3197.35725	28062.5375
3199.66667	28052.3375
3201.97469	28105.1375
3204.28132	28055.3375
3206.58656	28105.1375
3208.8904	28073.8375
3211.19287	28097.1375
3213.49394	28128.5375
3215.79363	28106.4375
3218.09193	28161.2375
3220.38884	28148.7375
3222.68438	28165.8375
3224.97853	28178.8375
3227.2713	28216.0375
3229.56269	28237.8375
3231.8527	28174.2375
3234.14133	28179.2375
3236.42858	28086.9375
3238.71446	28093.6375
3240.99896	28058.4375
3243.28209	28023.3375
3245.56384	27925.9375
3247.84423	27985.5375
3250.12324	27931.8375
3252.40088	27914.5375
3254.67715	27860.9375
3256.95205	27858.3375
3259.22558	27901.3375
3261.49775	27839.6375
3263.76855	27871.5375
3266.03799	27861.5375
3268.30606	27847.8375
3270.57277	27781.5375
3272.83812	27727.5375
3275.10211	27700.5375
3277.36474	27600.3375
3279.62601	27595.0375
3281.88593	27636.1375
3284.14448	27662.5375
3286.40168	27671.6375
3288.65753	27642.2375
3290.91202	27643.9375
3293.16516	27594.8375
3295.41695	27575.1375
3297.66738	27455.8375
3299.91647	27357.3375
3302.16421	27192.1375
3304.4106	27137.7375
3306.65564	26998.0375
3308.89933	26764.7375
3311.14169	26597.4375
3313.38269	26433.8375
3315.62236	26298.7375
3317.86068	26161.4375
3320.09766	25950.0375
3322.3333	25826.6375
3324.5676	25713.4375
3326.80056	25447.0375
3329.03219	25274.3375
3331.26248	7.1375
3333.49143	0.1375
3335.71905	0.9375
