EXPLAIN
TAG	CHRONOA
TITLE	LABEL	Chronoamperometry Scan	Test Identifier
DATE	LABEL	13/7/2022	Date
TIME	LABEL	13:24:05	Time
NOTES	NOTES	1	Notes...
	
PSTAT	PSTAT	IFC1010-21051	Potentiostat
VPRESTEP	POTEN	-3.50000E-001	F	Pre-step Voltage (V)
TPRESTEP	QUANT	5.00000E-001	Pre-step Delay Time (s)
VSTEP1	POTEN	-4.00000E-001	F	Step 1 Voltage (V)
TSTEP1	QUANT	3.00000E+002	Step 1 Time (s)
VSTEP2	POTEN	-4.50000E-001	F	Step 2 Voltage (V)
TSTEP2	QUANT	1.00000E+000	Step 2 Time (s)
SAMPLETIME	QUANT	1.00000E-001	Sample Period (s)
DECIMATE	TOGGLE	T	Decimate
ILIMIT	QUANT	1.00000E+000	Limit I (mA/cm^2)
IMODE	SELECTOR	1	I/E Range Mode
IRANGE	QUANT	3.00000E-001	Max Current (mA)
EQDELAY	QUANT	5.00000E+000	Equil. Time (s)
SAMPLINGMODE	SELECTOR	1	Sampling Mode
AREA	QUANT	1.00000E+000	Sample Area (cm^2)
IRCOMP	SELECTOR	0	IRComp
PFCOR	QUANT	5.00000E+001	PF Corr. (ohm)
SEQUENCER	TOGGLE	TRUE	Run as Sequence
PSTATMODEL	IQUANT	64	Pstat Model
PSTATSECTION	LABEL	IFC1010-21051	Pstat Section
PSTATSERIALNO	LABEL	21051	Pstat Serial Number
CTRLMODE	IQUANT	1	Control Mode
ELECTROMETER	IQUANT	0	RE=0 or CS=1
IESTAB	IQUANT	0	I/E Stability
CASPEED	IQUANT	4	Control Amp Speed
CONVENTION	IQUANT	1	Current Convention
ICHRANGE	IQUANT	2	Ich Range
ICHRANGEMODE	TOGGLE	T	Ich Auto Range
ICHOFFSETENABLE	TOGGLE	F	Ich Offset Enable
ICHOFFSET	QUANT	0	Ich Offset (V)
ICHFILTER	IQUANT	3	Ich Filter
VCHRANGE	IQUANT	3	Vch Range
VCHRANGEMODE	TOGGLE	T	Vch Auto Range
VCHOFFSETENABLE	TOGGLE	F	Vch Offset Enable
VCHOFFSET	QUANT	0	Vch Offset (V)
VCHFILTER	IQUANT	3	Vch Filter
IERANGELOWERLIMIT	IQUANT	4	I/E Range Lower Limit
IERANGEMODE	TOGGLE	F	I/E AutoRange
IERANGE	IQUANT	9	I/E Range
ACHSELECT	IQUANT	0	Ach Select
ACHRANGE	IQUANT	2	Ach Range
ACHOFFSETENABLE	TOGGLE	F	Ach Offset Enable
ACHOFFSET	QUANT	0	Ach Offset (V)
ACHFILTER	IQUANT	1	Ach Filter
SENSECABLEID	IQUANT	14	Sense Cable ID
PWRCABLEID	IQUANT	14	Power Cable ID
DCCALDATE	LABEL	7/12/2022	DC Calibration Date
ACCALDATE	LABEL	4/2/2018	AC Calibration Date
FRAMEWORKVERSION	QUANT	7.06	Framework Version
INSTRUMENTVERSION	LABEL	4.30	Instrument Version
CURVE	TABLE	98
	Pt	T	Vf	Im	Vu	Sig	Ach	IERange	Over	Temp
	#	s	V vs. Ref.	A	V	V	V	#	bits	deg C
	0	-0.4	-3.50436E-001	-1.24564E-004	0.00000E+000	-3.50011E-001	0.00000E+000	9	...........	1426.22
	1	-0.3	-3.50503E-001	-1.24056E-004	0.00000E+000	-3.50011E-001	0.00000E+000	9	...........	1426.22
	2	-0.2	-3.50486E-001	-1.23564E-004	0.00000E+000	-3.50011E-001	0.00000E+000	9	...........	1426.22
	3	-0.1	-3.50485E-001	-1.23095E-004	0.00000E+000	-3.50011E-001	0.00000E+000	9	...........	1426.22
	4	0	-3.50497E-001	-1.22660E-004	0.00000E+000	-3.50011E-001	0.00000E+000	9	...........	1426.22
	5	0.1	-4.00516E-001	-3.15681E-004	0.00000E+000	-4.00011E-001	0.00000E+000	9	...........	1426.22
	6	0.2	-4.00512E-001	-2.68226E-004	0.00000E+000	-4.00011E-001	0.00000E+000	9	...........	1426.22
	7	0.3	-4.00511E-001	-2.40810E-004	0.00000E+000	-4.00011E-001	0.00000E+000	9	...........	1426.22
	8	0.4	-4.00505E-001	-2.23742E-004	0.00000E+000	-4.00011E-001	0.00000E+000	9	...........	1426.22
	9	0.5	-4.00508E-001	-2.12332E-004	0.00000E+000	-4.00011E-001	0.00000E+000	9	...........	1426.22
	10	0.6	-4.00500E-001	-2.04295E-004	0.00000E+000	-4.00011E-001	0.00000E+000	9	...........	1426.22
	11	0.7	-4.00510E-001	-1.98346E-004	0.00000E+000	-4.00011E-001	0.00000E+000	9	...........	1426.22
	12	0.8	-4.00512E-001	-1.93693E-004	0.00000E+000	-4.00011E-001	0.00000E+000	9	...........	1426.22
	13	0.9	-4.00520E-001	-1.89955E-004	0.00000E+000	-4.00011E-001	0.00000E+000	9	...........	1426.22
	14	1	-4.00521E-001	-1.86844E-004	0.00000E+000	-4.00011E-001	0.00000E+000	9	...........	1426.22
	15	1.1	-4.00512E-001	-1.84175E-004	0.00000E+000	-4.00011E-001	0.00000E+000	9	...........	1426.22
	16	1.2	-4.00517E-001	-1.81824E-004	0.00000E+000	-4.00011E-001	0.00000E+000	9	...........	1426.22
	17	1.3	-4.00509E-001	-1.79713E-004	0.00000E+000	-4.00011E-001	0.00000E+000	9	...........	1426.22
	18	1.4	-4.00518E-001	-1.77828E-004	0.00000E+000	-4.00011E-001	0.00000E+000	9	...........	1425.87
	19	1.5	-4.00515E-001	-1.76095E-004	0.00000E+000	-4.00011E-001	0.00000E+000	9	...........	1425.87
	20	1.6	-4.00514E-001	-1.74500E-004	0.00000E+000	-4.00011E-001	0.00000E+000	9	...........	1425.87
	21	1.7	-4.00515E-001	-1.73042E-004	0.00000E+000	-4.00011E-001	0.00000E+000	9	...........	1425.87
	22	1.8	-4.00515E-001	-1.71630E-004	0.00000E+000	-4.00011E-001	0.00000E+000	9	...........	1425.87
	23	1.9	-4.00506E-001	-1.70317E-004	0.00000E+000	-4.00011E-001	0.00000E+000	9	...........	1425.87
	24	2	-4.00507E-001	-1.69059E-004	0.00000E+000	-4.00011E-001	0.00000E+000	9	...........	1425.87
	25	2.1	-4.00511E-001	-1.67891E-004	0.00000E+000	-4.00011E-001	0.00000E+000	9	...........	1425.87
	26	2.2	-4.00508E-001	-1.66757E-004	0.00000E+000	-4.00011E-001	0.00000E+000	9	...........	1425.87
	27	2.3	-4.00513E-001	-1.65686E-004	0.00000E+000	-4.00011E-001	0.00000E+000	9	...........	1425.87
	28	2.4	-4.00500E-001	-1.64603E-004	0.00000E+000	-4.00011E-001	0.00000E+000	9	...........	1425.78
	29	2.5	-4.00510E-001	-1.63632E-004	0.00000E+000	-4.00011E-001	0.00000E+000	9	...........	1425.78
	30	2.6	-4.00509E-001	-1.62713E-004	0.00000E+000	-4.00011E-001	0.00000E+000	9	...........	1425.78
	31	2.7	-4.00506E-001	-1.61779E-004	0.00000E+000	-4.00011E-001	0.00000E+000	9	...........	1425.78
	32	2.8	-4.00500E-001	-1.60845E-004	0.00000E+000	-4.00011E-001	0.00000E+000	9	...........	1425.78
	33	2.9	-4.00507E-001	-1.60007E-004	0.00000E+000	-4.00011E-001	0.00000E+000	9	...........	1425.78
	34	3	-4.00506E-001	-1.59163E-004	0.00000E+000	-4.00011E-001	0.00000E+000	9	...........	1425.78
	35	3.1	-4.00514E-001	-1.58354E-004	0.00000E+000	-4.00011E-001	0.00000E+000	9	...........	1425.78
	36	3.2	-4.00512E-001	-1.57542E-004	0.00000E+000	-4.00011E-001	0.00000E+000	9	...........	1425.78
	37	3.3	-4.00522E-001	-1.56806E-004	0.00000E+000	-4.00011E-001	0.00000E+000	9	...........	1425.78
	38	3.4	-4.00518E-001	-1.56055E-004	0.00000E+000	-4.00011E-001	0.00000E+000	9	...........	1426.04
	39	3.5	-4.00514E-001	-1.55271E-004	0.00000E+000	-4.00011E-001	0.00000E+000	9	...........	1426.04
	40	3.6	-4.00517E-001	-1.54639E-004	0.00000E+000	-4.00011E-001	0.00000E+000	9	...........	1426.04
	41	3.7	-4.00512E-001	-1.53949E-004	0.00000E+000	-4.00011E-001	0.00000E+000	9	...........	1426.04
	42	3.8	-4.00523E-001	-1.53276E-004	0.00000E+000	-4.00011E-001	0.00000E+000	9	...........	1426.04
	43	3.9	-4.00508E-001	-1.52595E-004	0.00000E+000	-4.00011E-001	0.00000E+000	9	...........	1426.04
	44	4	-4.00512E-001	-1.51980E-004	0.00000E+000	-4.00011E-001	0.00000E+000	9	...........	1426.04
	45	4.1	-4.00514E-001	-1.51326E-004	0.00000E+000	-4.00011E-001	0.00000E+000	9	...........	1426.04
	46	4.2	-4.00509E-001	-1.50721E-004	0.00000E+000	-4.00011E-001	0.00000E+000	9	...........	1426.04
	47	4.3	-4.00519E-001	-1.50091E-004	0.00000E+000	-4.00011E-001	0.00000E+000	9	...........	1426.04
	48	4.4	-4.00530E-001	-1.49555E-004	0.00000E+000	-4.00011E-001	0.00000E+000	9	...........	1425.78
	49	4.5	-4.00496E-001	-1.48933E-004	0.00000E+000	-4.00011E-001	0.00000E+000	9	...........	1425.78
	50	4.6	-4.00514E-001	-1.48359E-004	0.00000E+000	-4.00011E-001	0.00000E+000	9	...........	1425.78
	51	4.7	-4.00521E-001	-1.47857E-004	0.00000E+000	-4.00011E-001	0.00000E+000	9	...........	1425.78
	52	4.8	-4.00512E-001	-1.47315E-004	0.00000E+000	-4.00011E-001	0.00000E+000	9	...........	1425.78
	53	4.9	-4.00510E-001	-1.46773E-004	0.00000E+000	-4.00011E-001	0.00000E+000	9	...........	1425.78
	54	5	-4.00497E-001	-1.46164E-004	0.00000E+000	-4.00011E-001	0.00000E+000	9	...........	1425.78
	55	5.1	-4.00519E-001	-1.45724E-004	0.00000E+000	-4.00011E-001	0.00000E+000	9	...........	1425.78
	56	5.2	-4.00512E-001	-1.45221E-004	0.00000E+000	-4.00011E-001	0.00000E+000	9	...........	1425.78
	57	5.3	-4.00517E-001	-1.44740E-004	0.00000E+000	-4.00011E-001	0.00000E+000	9	...........	1425.78
	58	5.4	-4.00511E-001	-1.44238E-004	0.00000E+000	-4.00011E-001	0.00000E+000	9	...........	1425.78
	59	5.5	-4.00515E-001	-1.43754E-004	0.00000E+000	-4.00011E-001	0.00000E+000	9	...........	1425.78
	60	5.6	-4.00512E-001	-1.43292E-004	0.00000E+000	-4.00011E-001	0.00000E+000	9	...........	1425.78
	61	5.7	-4.00513E-001	-1.42834E-004	0.00000E+000	-4.00011E-001	0.00000E+000	9	...........	1425.78
	62	5.8	-4.00509E-001	-1.42384E-004	0.00000E+000	-4.00011E-001	0.00000E+000	9	...........	1425.78
	63	5.9	-4.00506E-001	-1.41897E-004	0.00000E+000	-4.00011E-001	0.00000E+000	9	...........	1425.78
	64	6	-4.00511E-001	-1.41500E-004	0.00000E+000	-4.00011E-001	0.00000E+000	9	...........	1425.78
	65	6.1	-4.00512E-001	-1.41078E-004	0.00000E+000	-4.00011E-001	0.00000E+000	9	...........	1425.78
	66	7.1	-4.00519E-001	-1.37072E-004	0.00000E+000	-4.00011E-001	0.00000E+000	9	...........	1425.78
	67	8.1	-4.00501E-001	-1.33571E-004	0.00000E+000	-4.00011E-001	0.00000E+000	9	...........	1426.13
	68	9.1	-4.00503E-001	-1.30440E-004	0.00000E+000	-4.00011E-001	0.00000E+000	9	...........	1426.22
	69	10.1	-4.00500E-001	-1.27714E-004	0.00000E+000	-4.00011E-001	0.00000E+000	9	...........	1426.22
	70	11.1	-4.00504E-001	-1.25230E-004	0.00000E+000	-4.00011E-001	0.00000E+000	9	...........	1426.22
	71	12.1	-4.00508E-001	-1.22956E-004	0.00000E+000	-4.00011E-001	0.00000E+000	9	...........	1426.22
	72	13.1	-4.00505E-001	-1.20883E-004	0.00000E+000	-4.00011E-001	0.00000E+000	9	...........	1426.22
	73	14.1	-4.00521E-001	-1.18997E-004	0.00000E+000	-4.00011E-001	0.00000E+000	9	...........	1426.22
	74	15.1	-4.00508E-001	-1.17224E-004	0.00000E+000	-4.00011E-001	0.00000E+000	9	...........	1426.22
	75	16.1	-4.00506E-001	-1.15510E-004	0.00000E+000	-4.00011E-001	0.00000E+000	9	...........	1426.22
	76	26.1	-4.00512E-001	-1.03536E-004	0.00000E+000	-4.00011E-001	0.00000E+000	9	...........	1426.22
	77	36.1	-4.00518E-001	-9.60419E-005	0.00000E+000	-4.00011E-001	0.00000E+000	9	...........	1426.22
	78	46.1	-4.00517E-001	-9.07617E-005	0.00000E+000	-4.00011E-001	0.00000E+000	9	...........	1426.22
	79	56.1	-4.00507E-001	-8.68190E-005	0.00000E+000	-4.00011E-001	0.00000E+000	9	...........	1426.22
	80	66.1	-4.00518E-001	-8.37176E-005	0.00000E+000	-4.00011E-001	0.00000E+000	9	...........	1426.31
	81	76.1	-4.00504E-001	-8.12586E-005	0.00000E+000	-4.00011E-001	0.00000E+000	9	...........	1426.31
	82	86.1	-4.00509E-001	-7.92733E-005	0.00000E+000	-4.00011E-001	0.00000E+000	9	...........	1426.31
	83	96.1	-4.00507E-001	-7.76412E-005	0.00000E+000	-4.00011E-001	0.00000E+000	9	...........	1426.22
	84	106.1	-4.00507E-001	-7.62283E-005	0.00000E+000	-4.00011E-001	0.00000E+000	9	...........	1426.31
	85	116.1	-4.00515E-001	-7.50501E-005	0.00000E+000	-4.00011E-001	0.00000E+000	9	...........	1426.31
	86	216.1	-4.00493E-001	-6.68995E-005	0.00000E+000	-4.00011E-001	0.00000E+000	9	...........	1426.31
	87	300	-4.00519E-001	-6.34283E-005	0.00000E+000	-4.00011E-001	0.00000E+000	9	...........	1426.40
	88	300.1	-4.50531E-001	-2.36313E-004	0.00000E+000	-4.50011E-001	0.00000E+000	9	...........	1426.40
	89	300.2	-4.50518E-001	-1.79813E-004	0.00000E+000	-4.50011E-001	0.00000E+000	9	...........	1426.40
	90	300.3	-4.50526E-001	-1.48363E-004	0.00000E+000	-4.50011E-001	0.00000E+000	9	...........	1426.40
	91	300.4	-4.50513E-001	-1.29827E-004	0.00000E+000	-4.50011E-001	0.00000E+000	9	...........	1426.31
	92	300.5	-4.50532E-001	-1.18489E-004	0.00000E+000	-4.50011E-001	0.00000E+000	9	...........	1426.31
	93	300.6	-4.50531E-001	-1.11128E-004	0.00000E+000	-4.50011E-001	0.00000E+000	9	...........	1426.31
	94	300.7	-4.50530E-001	-1.06200E-004	0.00000E+000	-4.50011E-001	0.00000E+000	9	...........	1426.31
	95	300.8	-4.50525E-001	-1.02753E-004	0.00000E+000	-4.50011E-001	0.00000E+000	9	...........	1426.31
	96	300.9	-4.50521E-001	-1.00239E-004	0.00000E+000	-4.50011E-001	0.00000E+000	9	...........	1426.31
	97	301	-4.50518E-001	-9.82886E-005	0.00000E+000	-4.50011E-001	0.00000E+000	9	...........	1426.31
