EXPLAIN
TAG	CHRONOA
TITLE	LABEL	Chronoamperometry Scan	Test Identifier
DATE	LABEL	13/7/2022	Date
TIME	LABEL	13:02:32	Time
NOTES	NOTES	1	Notes...
	
PSTAT	PSTAT	IFC1010-21051	Potentiostat
VPRESTEP	POTEN	5.00000E-002	F	Pre-step Voltage (V)
TPRESTEP	QUANT	5.00000E-001	Pre-step Delay Time (s)
VSTEP1	POTEN	0.00000E+000	F	Step 1 Voltage (V)
TSTEP1	QUANT	3.00000E+002	Step 1 Time (s)
VSTEP2	POTEN	-5.00000E-002	F	Step 2 Voltage (V)
TSTEP2	QUANT	1.00000E+000	Step 2 Time (s)
SAMPLETIME	QUANT	1.00000E-001	Sample Period (s)
DECIMATE	TOGGLE	T	Decimate
ILIMIT	QUANT	1.00000E+000	Limit I (mA/cm^2)
IMODE	SELECTOR	1	I/E Range Mode
IRANGE	QUANT	3.00000E-001	Max Current (mA)
EQDELAY	QUANT	5.00000E+000	Equil. Time (s)
SAMPLINGMODE	SELECTOR	1	Sampling Mode
AREA	QUANT	1.00000E+000	Sample Area (cm^2)
IRCOMP	SELECTOR	0	IRComp
PFCOR	QUANT	5.00000E+001	PF Corr. (ohm)
SEQUENCER	TOGGLE	TRUE	Run as Sequence
PSTATMODEL	IQUANT	64	Pstat Model
PSTATSECTION	LABEL	IFC1010-21051	Pstat Section
PSTATSERIALNO	LABEL	21051	Pstat Serial Number
CTRLMODE	IQUANT	1	Control Mode
ELECTROMETER	IQUANT	0	RE=0 or CS=1
IESTAB	IQUANT	0	I/E Stability
CASPEED	IQUANT	4	Control Amp Speed
CONVENTION	IQUANT	1	Current Convention
ICHRANGE	IQUANT	2	Ich Range
ICHRANGEMODE	TOGGLE	T	Ich Auto Range
ICHOFFSETENABLE	TOGGLE	F	Ich Offset Enable
ICHOFFSET	QUANT	0	Ich Offset (V)
ICHFILTER	IQUANT	3	Ich Filter
VCHRANGE	IQUANT	3	Vch Range
VCHRANGEMODE	TOGGLE	T	Vch Auto Range
VCHOFFSETENABLE	TOGGLE	F	Vch Offset Enable
VCHOFFSET	QUANT	0	Vch Offset (V)
VCHFILTER	IQUANT	3	Vch Filter
IERANGELOWERLIMIT	IQUANT	4	I/E Range Lower Limit
IERANGEMODE	TOGGLE	F	I/E AutoRange
IERANGE	IQUANT	9	I/E Range
ACHSELECT	IQUANT	0	Ach Select
ACHRANGE	IQUANT	2	Ach Range
ACHOFFSETENABLE	TOGGLE	F	Ach Offset Enable
ACHOFFSET	QUANT	0	Ach Offset (V)
ACHFILTER	IQUANT	1	Ach Filter
SENSECABLEID	IQUANT	14	Sense Cable ID
PWRCABLEID	IQUANT	14	Power Cable ID
DCCALDATE	LABEL	7/12/2022	DC Calibration Date
ACCALDATE	LABEL	4/2/2018	AC Calibration Date
FRAMEWORKVERSION	QUANT	7.06	Framework Version
INSTRUMENTVERSION	LABEL	4.30	Instrument Version
CURVE	TABLE	98
	Pt	T	Vf	Im	Vu	Sig	Ach	IERange	Over	Temp
	#	s	V vs. Ref.	A	V	V	V	#	bits	deg C
	0	-0.4	4.98971E-002	-1.19791E-005	0.00000E+000	4.99998E-002	0.00000E+000	9	...........	1426.13
	1	-0.3	4.99738E-002	-1.18819E-005	0.00000E+000	4.99998E-002	0.00000E+000	9	...........	1426.13
	2	-0.2	5.00204E-002	-1.18050E-005	0.00000E+000	4.99998E-002	0.00000E+000	9	...........	1426.13
	3	-0.1	5.00186E-002	-1.17229E-005	0.00000E+000	4.99998E-002	0.00000E+000	9	...........	1426.13
	4	0	5.00194E-002	-1.16445E-005	0.00000E+000	4.99998E-002	0.00000E+000	9	...........	1426.13
	5	0.1	1.42842E-007	-1.68431E-004	0.00000E+000	0.00000E+000	0.00000E+000	9	...........	1426.13
	6	0.2	1.21409E-006	-1.12358E-004	0.00000E+000	0.00000E+000	0.00000E+000	9	...........	1426.13
	7	0.3	2.01007E-006	-8.19925E-005	0.00000E+000	0.00000E+000	0.00000E+000	9	...........	1426.13
	8	0.4	2.35649E-006	-6.42372E-005	0.00000E+000	0.00000E+000	0.00000E+000	9	...........	1426.13
	9	0.5	2.60580E-006	-5.32662E-005	0.00000E+000	0.00000E+000	0.00000E+000	9	...........	1425.69
	10	0.6	2.73697E-006	-4.61602E-005	0.00000E+000	0.00000E+000	0.00000E+000	9	...........	1425.69
	11	0.7	2.70092E-006	-4.13658E-005	0.00000E+000	0.00000E+000	0.00000E+000	9	...........	1425.69
	12	0.8	1.53548E-006	-3.80133E-005	0.00000E+000	0.00000E+000	0.00000E+000	9	...........	1425.69
	13	0.9	2.37151E-006	-3.55726E-005	0.00000E+000	0.00000E+000	0.00000E+000	9	...........	1425.69
	14	1	2.14824E-006	-3.37309E-005	0.00000E+000	0.00000E+000	0.00000E+000	9	...........	1425.69
	15	1.1	2.46063E-006	-3.23020E-005	0.00000E+000	0.00000E+000	0.00000E+000	9	...........	1425.69
	16	1.2	1.54049E-006	-3.11777E-005	0.00000E+000	0.00000E+000	0.00000E+000	9	...........	1425.69
	17	1.3	1.18805E-006	-3.02656E-005	0.00000E+000	0.00000E+000	0.00000E+000	9	...........	1425.69
	18	1.4	2.19631E-006	-2.94785E-005	0.00000E+000	0.00000E+000	0.00000E+000	9	...........	1425.69
	19	1.5	1.30219E-006	-2.88377E-005	0.00000E+000	0.00000E+000	0.00000E+000	9	...........	1426.49
	20	1.6	7.76556E-007	-2.82722E-005	0.00000E+000	0.00000E+000	0.00000E+000	9	...........	1426.49
	21	1.7	8.30623E-007	-2.77680E-005	0.00000E+000	0.00000E+000	0.00000E+000	9	...........	1426.49
	22	1.8	1.14201E-006	-2.73263E-005	0.00000E+000	0.00000E+000	0.00000E+000	9	...........	1426.49
	23	1.9	5.98331E-007	-2.69292E-005	0.00000E+000	0.00000E+000	0.00000E+000	9	...........	1426.49
	24	2	4.03095E-007	-2.65613E-005	0.00000E+000	0.00000E+000	0.00000E+000	9	...........	1426.49
	25	2.1	2.72936E-007	-2.62332E-005	0.00000E+000	0.00000E+000	0.00000E+000	9	...........	1426.49
	26	2.2	5.19234E-007	-2.59354E-005	0.00000E+000	0.00000E+000	0.00000E+000	9	...........	1426.49
	27	2.3	5.39265E-007	-2.56395E-005	0.00000E+000	0.00000E+000	0.00000E+000	9	...........	1426.49
	28	2.4	1.73815E-007	-2.53951E-005	0.00000E+000	0.00000E+000	0.00000E+000	9	...........	1426.49
	29	2.5	1.48342E-006	-2.51566E-005	0.00000E+000	0.00000E+000	0.00000E+000	9	...........	1426.49
	30	2.6	9.10724E-007	-2.49365E-005	0.00000E+000	0.00000E+000	0.00000E+000	9	...........	1426.49
	31	2.7	1.20508E-006	-2.47008E-005	0.00000E+000	0.00000E+000	0.00000E+000	9	...........	1426.49
	32	2.8	1.92998E-006	-2.44976E-005	0.00000E+000	0.00000E+000	0.00000E+000	9	...........	1426.49
	33	2.9	1.91896E-006	-2.43010E-005	0.00000E+000	0.00000E+000	0.00000E+000	9	...........	1426.49
	34	3	1.44037E-006	-2.41285E-005	0.00000E+000	0.00000E+000	0.00000E+000	9	...........	1426.49
	35	3.1	9.45765E-007	-2.39602E-005	0.00000E+000	0.00000E+000	0.00000E+000	9	...........	1426.49
	36	3.2	2.02910E-006	-2.37912E-005	0.00000E+000	0.00000E+000	0.00000E+000	9	...........	1426.49
	37	3.3	2.05613E-006	-2.36376E-005	0.00000E+000	0.00000E+000	0.00000E+000	9	...........	1426.49
	38	3.4	1.24914E-006	-2.34912E-005	0.00000E+000	0.00000E+000	0.00000E+000	9	...........	1426.49
	39	3.5	1.32623E-006	-2.33477E-005	0.00000E+000	0.00000E+000	0.00000E+000	9	...........	1426.49
	40	3.6	1.61259E-006	-2.32065E-005	0.00000E+000	0.00000E+000	0.00000E+000	9	...........	1426.49
	41	3.7	7.36509E-007	-2.30849E-005	0.00000E+000	0.00000E+000	0.00000E+000	9	...........	1426.49
	42	3.8	1.87991E-006	-2.29526E-005	0.00000E+000	0.00000E+000	0.00000E+000	9	...........	1426.49
	43	3.9	1.75175E-006	-2.28311E-005	0.00000E+000	0.00000E+000	0.00000E+000	9	...........	1426.49
	44	4	2.32846E-006	-2.27107E-005	0.00000E+000	0.00000E+000	0.00000E+000	9	...........	1426.49
	45	4.1	1.89392E-006	-2.25907E-005	0.00000E+000	0.00000E+000	0.00000E+000	9	...........	1426.49
	46	4.2	3.16149E-006	-2.24781E-005	0.00000E+000	0.00000E+000	0.00000E+000	9	...........	1426.49
	47	4.3	1.50445E-006	-2.23747E-005	0.00000E+000	0.00000E+000	0.00000E+000	9	...........	1426.49
	48	4.4	2.23736E-006	-2.22674E-005	0.00000E+000	0.00000E+000	0.00000E+000	9	...........	1426.49
	49	4.5	1.56953E-006	-2.21670E-005	0.00000E+000	0.00000E+000	0.00000E+000	9	...........	1426.49
	50	4.6	1.65164E-006	-2.20685E-005	0.00000E+000	0.00000E+000	0.00000E+000	9	...........	1426.49
	51	4.7	1.41534E-006	-2.19805E-005	0.00000E+000	0.00000E+000	0.00000E+000	9	...........	1426.49
	52	4.8	3.05976E-007	-2.18863E-005	0.00000E+000	0.00000E+000	0.00000E+000	9	...........	1426.49
	53	4.9	2.66788E-006	-2.17992E-005	0.00000E+000	0.00000E+000	0.00000E+000	9	...........	1426.49
	54	5	1.63761E-006	-2.17231E-005	0.00000E+000	0.00000E+000	0.00000E+000	9	...........	1426.49
	55	5.1	6.57405E-007	-2.16315E-005	0.00000E+000	0.00000E+000	0.00000E+000	9	...........	1426.49
	56	5.2	1.05089E-006	-2.15504E-005	0.00000E+000	0.00000E+000	0.00000E+000	9	...........	1426.49
	57	5.3	3.79063E-007	-2.14709E-005	0.00000E+000	0.00000E+000	0.00000E+000	9	...........	1426.49
	58	5.4	4.52157E-007	-2.13976E-005	0.00000E+000	0.00000E+000	0.00000E+000	9	...........	1426.49
	59	5.5	1.35026E-006	-2.13105E-005	0.00000E+000	0.00000E+000	0.00000E+000	9	...........	1426.49
	60	5.6	9.97825E-007	-2.12488E-005	0.00000E+000	0.00000E+000	0.00000E+000	9	...........	1426.49
	61	5.7	1.47141E-006	-2.11665E-005	0.00000E+000	0.00000E+000	0.00000E+000	9	...........	1426.49
	62	5.8	1.23612E-006	-2.10968E-005	0.00000E+000	0.00000E+000	0.00000E+000	9	...........	1426.49
	63	5.9	1.32422E-006	-2.10307E-005	0.00000E+000	0.00000E+000	0.00000E+000	9	...........	1426.49
	64	6	1.56152E-006	-2.09567E-005	0.00000E+000	0.00000E+000	0.00000E+000	9	...........	1426.49
	65	6.1	1.81083E-006	-2.08971E-005	0.00000E+000	0.00000E+000	0.00000E+000	9	...........	1426.49
	66	7.1	1.98103E-006	-2.03042E-005	0.00000E+000	0.00000E+000	0.00000E+000	9	...........	1426.49
	67	8.1	2.87714E-006	-1.97954E-005	0.00000E+000	0.00000E+000	0.00000E+000	9	...........	1426.49
	68	9.1	2.38153E-006	-1.93414E-005	0.00000E+000	0.00000E+000	0.00000E+000	9	...........	1426.49
	69	10.1	2.07114E-006	-1.89602E-005	0.00000E+000	0.00000E+000	0.00000E+000	9	...........	1426.49
	70	11.1	1.74474E-006	-1.86219E-005	0.00000E+000	0.00000E+000	0.00000E+000	9	...........	1426.57
	71	12.1	1.78279E-006	-1.83294E-005	0.00000E+000	0.00000E+000	0.00000E+000	9	...........	1426.49
	72	13.1	1.01685E-006	-1.80533E-005	0.00000E+000	0.00000E+000	0.00000E+000	9	...........	1426.57
	73	14.1	2.53272E-006	-1.77988E-005	0.00000E+000	0.00000E+000	0.00000E+000	9	...........	1426.57
	74	15.1	2.44461E-006	-1.75765E-005	0.00000E+000	0.00000E+000	0.00000E+000	9	...........	1426.49
	75	16.1	1.72373E-006	-1.73730E-005	0.00000E+000	0.00000E+000	0.00000E+000	9	...........	1426.49
	76	26.1	1.91996E-006	-1.58713E-005	0.00000E+000	0.00000E+000	0.00000E+000	9	...........	1426.57
	77	36.1	3.18352E-006	-1.50020E-005	0.00000E+000	0.00000E+000	0.00000E+000	9	...........	1426.49
	78	46.1	8.13598E-007	-1.44031E-005	0.00000E+000	0.00000E+000	0.00000E+000	9	...........	1426.49
	79	56.1	1.69167E-006	-1.39795E-005	0.00000E+000	0.00000E+000	0.00000E+000	9	...........	1426.49
	80	66.1	-7.54881E-008	-1.36729E-005	0.00000E+000	0.00000E+000	0.00000E+000	9	...........	1426.49
	81	76.1	1.06391E-006	-1.34173E-005	0.00000E+000	0.00000E+000	0.00000E+000	9	...........	1426.49
	82	86.1	2.20631E-006	-1.32175E-005	0.00000E+000	0.00000E+000	0.00000E+000	9	...........	1426.57
	83	96.1	3.96247E-006	-1.30196E-005	0.00000E+000	0.00000E+000	0.00000E+000	9	...........	1426.49
	84	106.1	2.58778E-006	-1.28852E-005	0.00000E+000	0.00000E+000	0.00000E+000	9	...........	1426.57
	85	116.1	1.28018E-006	-1.27951E-005	0.00000E+000	0.00000E+000	0.00000E+000	9	...........	1426.49
	86	216.1	7.99584E-007	-1.18924E-005	0.00000E+000	0.00000E+000	0.00000E+000	9	...........	1426.57
	87	300	3.32969E-006	-1.12748E-005	0.00000E+000	0.00000E+000	0.00000E+000	9	...........	1426.49
	88	300.1	-3.28713E-002	-1.63398E-004	0.00000E+000	-4.99998E-002	0.00000E+000	9	.........v.	1426.49
	89	300.2	-5.00092E-002	-1.06515E-004	0.00000E+000	-4.99998E-002	0.00000E+000	9	...........	1426.49
	90	300.3	-5.00104E-002	-7.67653E-005	0.00000E+000	-4.99998E-002	0.00000E+000	9	...........	1426.49
	91	300.4	-5.00080E-002	-6.00425E-005	0.00000E+000	-4.99998E-002	0.00000E+000	9	...........	1426.49
	92	300.5	-5.00094E-002	-5.01419E-005	0.00000E+000	-4.99998E-002	0.00000E+000	9	...........	1426.49
	93	300.6	-5.00114E-002	-4.39847E-005	0.00000E+000	-4.99998E-002	0.00000E+000	9	...........	1426.49
	94	300.7	-5.00089E-002	-3.99717E-005	0.00000E+000	-4.99998E-002	0.00000E+000	9	...........	1426.49
	95	300.8	-5.00102E-002	-3.72644E-005	0.00000E+000	-4.99998E-002	0.00000E+000	9	...........	1426.49
	96	300.9	-5.00097E-002	-3.53375E-005	0.00000E+000	-4.99998E-002	0.00000E+000	9	...........	1426.49
	97	301	-5.00104E-002	-3.39190E-005	0.00000E+000	-4.99998E-002	0.00000E+000	9	...........	1426.49
