EXPLAIN
TAG	CHRONOA
TITLE	LABEL	Chronoamperometry Scan	Test Identifier
DATE	LABEL	13/7/2022	Date
TIME	LABEL	11:32:41	Time
NOTES	NOTES	1	Notes...
	
PSTAT	PSTAT	IFC1010-21051	Potentiostat
VPRESTEP	POTEN	3.50000E-001	F	Pre-step Voltage (V)
TPRESTEP	QUANT	5.00000E-001	Pre-step Delay Time (s)
VSTEP1	POTEN	4.00000E-001	F	Step 1 Voltage (V)
TSTEP1	QUANT	3.00000E+002	Step 1 Time (s)
VSTEP2	POTEN	3.50000E-001	F	Step 2 Voltage (V)
TSTEP2	QUANT	1.00000E+000	Step 2 Time (s)
SAMPLETIME	QUANT	1.00000E-001	Sample Period (s)
DECIMATE	TOGGLE	T	Decimate
ILIMIT	QUANT	1.00000E+000	Limit I (mA/cm^2)
IMODE	SELECTOR	1	I/E Range Mode
IRANGE	QUANT	3.00000E-001	Max Current (mA)
EQDELAY	QUANT	5.00000E+000	Equil. Time (s)
SAMPLINGMODE	SELECTOR	1	Sampling Mode
AREA	QUANT	1.00000E+000	Sample Area (cm^2)
IRCOMP	SELECTOR	0	IRComp
PFCOR	QUANT	5.00000E+001	PF Corr. (ohm)
SEQUENCER	TOGGLE	TRUE	Run as Sequence
PSTATMODEL	IQUANT	64	Pstat Model
PSTATSECTION	LABEL	IFC1010-21051	Pstat Section
PSTATSERIALNO	LABEL	21051	Pstat Serial Number
CTRLMODE	IQUANT	1	Control Mode
ELECTROMETER	IQUANT	0	RE=0 or CS=1
IESTAB	IQUANT	0	I/E Stability
CASPEED	IQUANT	4	Control Amp Speed
CONVENTION	IQUANT	1	Current Convention
ICHRANGE	IQUANT	2	Ich Range
ICHRANGEMODE	TOGGLE	T	Ich Auto Range
ICHOFFSETENABLE	TOGGLE	F	Ich Offset Enable
ICHOFFSET	QUANT	0	Ich Offset (V)
ICHFILTER	IQUANT	3	Ich Filter
VCHRANGE	IQUANT	3	Vch Range
VCHRANGEMODE	TOGGLE	T	Vch Auto Range
VCHOFFSETENABLE	TOGGLE	F	Vch Offset Enable
VCHOFFSET	QUANT	0	Vch Offset (V)
VCHFILTER	IQUANT	3	Vch Filter
IERANGELOWERLIMIT	IQUANT	4	I/E Range Lower Limit
IERANGEMODE	TOGGLE	F	I/E AutoRange
IERANGE	IQUANT	9	I/E Range
ACHSELECT	IQUANT	0	Ach Select
ACHRANGE	IQUANT	2	Ach Range
ACHOFFSETENABLE	TOGGLE	F	Ach Offset Enable
ACHOFFSET	QUANT	0	Ach Offset (V)
ACHFILTER	IQUANT	1	Ach Filter
SENSECABLEID	IQUANT	14	Sense Cable ID
PWRCABLEID	IQUANT	14	Power Cable ID
DCCALDATE	LABEL	7/12/2022	DC Calibration Date
ACCALDATE	LABEL	4/2/2018	AC Calibration Date
FRAMEWORKVERSION	QUANT	7.06	Framework Version
INSTRUMENTVERSION	LABEL	4.30	Instrument Version
CURVE	TABLE	98
	Pt	T	Vf	Im	Vu	Sig	Ach	IERange	Over	Temp
	#	s	V vs. Ref.	A	V	V	V	#	bits	deg C
	0	-0.4	3.50744E-001	1.71829E-005	0.00000E+000	3.50035E-001	0.00000E+000	9	...........	1424.27
	1	-0.3	3.50660E-001	1.68743E-005	0.00000E+000	3.50035E-001	0.00000E+000	9	...........	1424.27
	2	-0.2	3.50651E-001	1.65760E-005	0.00000E+000	3.50035E-001	0.00000E+000	9	...........	1424.27
	3	-0.1	3.50648E-001	1.62989E-005	0.00000E+000	3.50035E-001	0.00000E+000	9	...........	1424.27
	4	0	3.50652E-001	1.60442E-005	0.00000E+000	3.50035E-001	0.00000E+000	9	...........	1424.27
	5	0.1	4.00686E-001	1.85602E-004	0.00000E+000	4.00048E-001	0.00000E+000	9	...........	1424.27
	6	0.2	4.00696E-001	1.66252E-004	0.00000E+000	4.00048E-001	0.00000E+000	9	...........	1424.27
	7	0.3	4.00694E-001	1.51819E-004	0.00000E+000	4.00048E-001	0.00000E+000	9	...........	1424.27
	8	0.4	4.00692E-001	1.40459E-004	0.00000E+000	4.00048E-001	0.00000E+000	9	...........	1424.27
	9	0.5	4.00699E-001	1.31193E-004	0.00000E+000	4.00048E-001	0.00000E+000	9	...........	1424.27
	10	0.6	4.00693E-001	1.23538E-004	0.00000E+000	4.00048E-001	0.00000E+000	9	...........	1424.27
	11	0.7	4.00684E-001	1.17026E-004	0.00000E+000	4.00048E-001	0.00000E+000	9	...........	1424.27
	12	0.8	4.00690E-001	1.11466E-004	0.00000E+000	4.00048E-001	0.00000E+000	9	...........	1424.27
	13	0.9	4.00688E-001	1.06597E-004	0.00000E+000	4.00048E-001	0.00000E+000	9	...........	1424.27
	14	1	4.00695E-001	1.02343E-004	0.00000E+000	4.00048E-001	0.00000E+000	9	...........	1424.27
	15	1.1	4.00695E-001	9.85663E-005	0.00000E+000	4.00048E-001	0.00000E+000	9	...........	1424.27
	16	1.2	4.00684E-001	9.52053E-005	0.00000E+000	4.00048E-001	0.00000E+000	9	...........	1424.27
	17	1.3	4.00700E-001	9.21670E-005	0.00000E+000	4.00048E-001	0.00000E+000	9	...........	1424.19
	18	1.4	4.00700E-001	8.93958E-005	0.00000E+000	4.00048E-001	0.00000E+000	9	...........	1424.19
	19	1.5	4.00679E-001	8.68819E-005	0.00000E+000	4.00048E-001	0.00000E+000	9	...........	1424.19
	20	1.6	4.00687E-001	8.45985E-005	0.00000E+000	4.00048E-001	0.00000E+000	9	...........	1424.19
	21	1.7	4.00692E-001	8.24849E-005	0.00000E+000	4.00048E-001	0.00000E+000	9	...........	1424.19
	22	1.8	4.00680E-001	8.05124E-005	0.00000E+000	4.00048E-001	0.00000E+000	9	...........	1424.19
	23	1.9	4.00683E-001	7.87010E-005	0.00000E+000	4.00048E-001	0.00000E+000	9	...........	1424.19
	24	2	4.00686E-001	7.70289E-005	0.00000E+000	4.00048E-001	0.00000E+000	9	...........	1424.19
	25	2.1	4.00690E-001	7.54405E-005	0.00000E+000	4.00048E-001	0.00000E+000	9	...........	1424.19
	26	2.2	4.00692E-001	7.39603E-005	0.00000E+000	4.00048E-001	0.00000E+000	9	...........	1424.19
	27	2.3	4.00690E-001	7.25776E-005	0.00000E+000	4.00048E-001	0.00000E+000	9	...........	1424.19
	28	2.4	4.00689E-001	7.12591E-005	0.00000E+000	4.00048E-001	0.00000E+000	9	...........	1424.19
	29	2.5	4.00695E-001	7.00109E-005	0.00000E+000	4.00048E-001	0.00000E+000	9	...........	1424.19
	30	2.6	4.00685E-001	6.88104E-005	0.00000E+000	4.00048E-001	0.00000E+000	9	...........	1424.19
	31	2.7	4.00704E-001	6.77511E-005	0.00000E+000	4.00048E-001	0.00000E+000	9	...........	1424.19
	32	2.8	4.00685E-001	6.66781E-005	0.00000E+000	4.00048E-001	0.00000E+000	9	...........	1424.19
	33	2.9	4.00691E-001	6.56827E-005	0.00000E+000	4.00048E-001	0.00000E+000	9	...........	1424.19
	34	3	4.00686E-001	6.47271E-005	0.00000E+000	4.00048E-001	0.00000E+000	9	...........	1424.19
	35	3.1	4.00701E-001	6.37957E-005	0.00000E+000	4.00048E-001	0.00000E+000	9	...........	1424.19
	36	3.2	4.00690E-001	6.29381E-005	0.00000E+000	4.00048E-001	0.00000E+000	9	...........	1424.19
	37	3.3	4.00693E-001	6.21155E-005	0.00000E+000	4.00048E-001	0.00000E+000	9	...........	1424.19
	38	3.4	4.00689E-001	6.13207E-005	0.00000E+000	4.00048E-001	0.00000E+000	9	...........	1424.19
	39	3.5	4.00697E-001	6.05381E-005	0.00000E+000	4.00048E-001	0.00000E+000	9	...........	1424.19
	40	3.6	4.00690E-001	5.97977E-005	0.00000E+000	4.00048E-001	0.00000E+000	9	...........	1424.19
	41	3.7	4.00705E-001	5.90862E-005	0.00000E+000	4.00048E-001	0.00000E+000	9	...........	1424.19
	42	3.8	4.00683E-001	5.84138E-005	0.00000E+000	4.00048E-001	0.00000E+000	9	...........	1424.19
	43	3.9	4.00689E-001	5.77726E-005	0.00000E+000	4.00048E-001	0.00000E+000	9	...........	1424.19
	44	4	4.00693E-001	5.71230E-005	0.00000E+000	4.00048E-001	0.00000E+000	9	...........	1424.19
	45	4.1	4.00692E-001	5.65105E-005	0.00000E+000	4.00048E-001	0.00000E+000	9	...........	1424.19
	46	4.2	4.00699E-001	5.59086E-005	0.00000E+000	4.00048E-001	0.00000E+000	9	...........	1424.19
	47	4.3	4.00690E-001	5.53543E-005	0.00000E+000	4.00048E-001	0.00000E+000	9	...........	1424.19
	48	4.4	4.00685E-001	5.47863E-005	0.00000E+000	4.00048E-001	0.00000E+000	9	...........	1424.19
	49	4.5	4.00683E-001	5.42443E-005	0.00000E+000	4.00048E-001	0.00000E+000	9	...........	1424.19
	50	4.6	4.00682E-001	5.37305E-005	0.00000E+000	4.00048E-001	0.00000E+000	9	...........	1424.19
	51	4.7	4.00683E-001	5.32158E-005	0.00000E+000	4.00048E-001	0.00000E+000	9	...........	1424.19
	52	4.8	4.00689E-001	5.27319E-005	0.00000E+000	4.00048E-001	0.00000E+000	9	...........	1424.19
	53	4.9	4.00689E-001	5.22532E-005	0.00000E+000	4.00048E-001	0.00000E+000	9	...........	1424.19
	54	5	4.00680E-001	5.17661E-005	0.00000E+000	4.00048E-001	0.00000E+000	9	...........	1424.19
	55	5.1	4.00687E-001	5.13275E-005	0.00000E+000	4.00048E-001	0.00000E+000	9	...........	1424.19
	56	5.2	4.00694E-001	5.08890E-005	0.00000E+000	4.00048E-001	0.00000E+000	9	...........	1424.19
	57	5.3	4.00701E-001	5.04558E-005	0.00000E+000	4.00048E-001	0.00000E+000	9	...........	1424.19
	58	5.4	4.00686E-001	5.00683E-005	0.00000E+000	4.00048E-001	0.00000E+000	9	...........	1424.19
	59	5.5	4.00686E-001	4.96473E-005	0.00000E+000	4.00048E-001	0.00000E+000	9	...........	1424.19
	60	5.6	4.00689E-001	4.92507E-005	0.00000E+000	4.00048E-001	0.00000E+000	9	...........	1424.19
	61	5.7	4.00699E-001	4.88792E-005	0.00000E+000	4.00048E-001	0.00000E+000	9	...........	1424.19
	62	5.8	4.00693E-001	4.84948E-005	0.00000E+000	4.00048E-001	0.00000E+000	9	...........	1424.19
	63	5.9	4.00689E-001	4.81404E-005	0.00000E+000	4.00048E-001	0.00000E+000	9	...........	1424.19
	64	6	4.00693E-001	4.77795E-005	0.00000E+000	4.00048E-001	0.00000E+000	9	...........	1424.19
	65	6.1	4.00695E-001	4.74406E-005	0.00000E+000	4.00048E-001	0.00000E+000	9	...........	1424.19
	66	7.1	4.00706E-001	4.43130E-005	0.00000E+000	4.00048E-001	0.00000E+000	9	...........	1424.19
	67	8.1	4.00696E-001	4.17901E-005	0.00000E+000	4.00048E-001	0.00000E+000	9	...........	1424.19
	68	9.1	4.00693E-001	3.96669E-005	0.00000E+000	4.00048E-001	0.00000E+000	9	...........	1424.19
	69	10.1	4.00690E-001	3.78583E-005	0.00000E+000	4.00048E-001	0.00000E+000	9	...........	1424.19
	70	11.1	4.00690E-001	3.62945E-005	0.00000E+000	4.00048E-001	0.00000E+000	9	...........	1424.19
	71	12.1	4.00704E-001	3.49179E-005	0.00000E+000	4.00048E-001	0.00000E+000	9	...........	1424.27
	72	13.1	4.00699E-001	3.36882E-005	0.00000E+000	4.00048E-001	0.00000E+000	9	...........	1424.27
	73	14.1	4.00689E-001	3.25917E-005	0.00000E+000	4.00048E-001	0.00000E+000	9	...........	1424.27
	74	15.1	4.00692E-001	3.16173E-005	0.00000E+000	4.00048E-001	0.00000E+000	9	...........	1424.19
	75	16.1	4.00696E-001	3.07260E-005	0.00000E+000	4.00048E-001	0.00000E+000	9	...........	1424.27
	76	26.1	4.00697E-001	2.49386E-005	0.00000E+000	4.00048E-001	0.00000E+000	9	...........	1424.27
	77	36.1	4.00705E-001	2.19728E-005	0.00000E+000	4.00048E-001	0.00000E+000	9	...........	1424.27
	78	46.1	4.00689E-001	2.02352E-005	0.00000E+000	4.00048E-001	0.00000E+000	9	...........	1424.27
	79	56.1	4.00674E-001	1.91584E-005	0.00000E+000	4.00048E-001	0.00000E+000	9	...........	1424.27
	80	66.1	4.00687E-001	1.84846E-005	0.00000E+000	4.00048E-001	0.00000E+000	9	...........	1424.36
	81	76.1	4.00685E-001	1.80325E-005	0.00000E+000	4.00048E-001	0.00000E+000	9	...........	1424.36
	82	86.1	4.00685E-001	1.77280E-005	0.00000E+000	4.00048E-001	0.00000E+000	9	...........	1424.36
	83	96.1	4.00682E-001	1.75049E-005	0.00000E+000	4.00048E-001	0.00000E+000	9	...........	1424.36
	84	106.1	4.00690E-001	1.73841E-005	0.00000E+000	4.00048E-001	0.00000E+000	9	...........	1424.36
	85	116.1	4.00681E-001	1.72963E-005	0.00000E+000	4.00048E-001	0.00000E+000	9	...........	1424.45
	86	216.1	4.00683E-001	1.70788E-005	0.00000E+000	4.00048E-001	0.00000E+000	9	...........	1424.63
	87	300	4.00674E-001	1.70694E-005	0.00000E+000	4.00048E-001	0.00000E+000	9	...........	1424.63
	88	300.1	3.50646E-001	-1.62689E-004	0.00000E+000	3.50035E-001	0.00000E+000	9	...........	1424.63
	89	300.2	3.50628E-001	-1.50982E-004	0.00000E+000	3.50035E-001	0.00000E+000	9	...........	1424.63
	90	300.3	3.50643E-001	-1.41755E-004	0.00000E+000	3.50035E-001	0.00000E+000	9	...........	1424.63
	91	300.4	3.50634E-001	-1.34004E-004	0.00000E+000	3.50035E-001	0.00000E+000	9	...........	1424.63
	92	300.5	3.50646E-001	-1.27236E-004	0.00000E+000	3.50035E-001	0.00000E+000	9	...........	1424.63
	93	300.6	3.50633E-001	-1.21207E-004	0.00000E+000	3.50035E-001	0.00000E+000	9	...........	1424.63
	94	300.7	3.50633E-001	-1.15800E-004	0.00000E+000	3.50035E-001	0.00000E+000	9	...........	1424.63
	95	300.8	3.50627E-001	-1.10898E-004	0.00000E+000	3.50035E-001	0.00000E+000	9	...........	1424.63
	96	300.9	3.50639E-001	-1.06321E-004	0.00000E+000	3.50035E-001	0.00000E+000	9	...........	1424.63
	97	301	3.50639E-001	-1.02127E-004	0.00000E+000	3.50035E-001	0.00000E+000	9	...........	1424.63
