EXPLAIN
TAG	CHRONOA
TITLE	LABEL	Chronoamperometry Scan	Test Identifier
DATE	LABEL	24/3/2022	Date
TIME	LABEL	16:27:05	Time
NOTES	NOTES	1	Notes...
	
PSTAT	PSTAT	IFC1010-21051	Potentiostat
VPRESTEP	POTEN	1.00000E-002	F	Pre-step Voltage (V)
TPRESTEP	QUANT	5.00000E-001	Pre-step Delay Time (s)
VSTEP1	POTEN	0.00000E+000	F	Step 1 Voltage (V)
TSTEP1	QUANT	3.00000E+002	Step 1 Time (s)
VSTEP2	POTEN	-1.00000E-001	F	Step 2 Voltage (V)
TSTEP2	QUANT	1.00000E+000	Step 2 Time (s)
SAMPLETIME	QUANT	1.00000E-001	Sample Period (s)
DECIMATE	TOGGLE	T	Decimate
ILIMIT	QUANT	1.00000E+000	Limit I (mA/cm^2)
IMODE	SELECTOR	1	I/E Range Mode
IRANGE	QUANT	3.00000E-001	Max Current (mA)
EQDELAY	QUANT	5.00000E+000	Equil. Time (s)
SAMPLINGMODE	SELECTOR	1	Sampling Mode
AREA	QUANT	1.00000E+000	Sample Area (cm^2)
IRCOMP	SELECTOR	0	IRComp
PFCOR	QUANT	5.00000E+001	PF Corr. (ohm)
SEQUENCER	TOGGLE	TRUE	Run as Sequence
PSTATMODEL	IQUANT	64	Pstat Model
PSTATSECTION	LABEL	IFC1010-21051	Pstat Section
PSTATSERIALNO	LABEL	21051	Pstat Serial Number
CTRLMODE	IQUANT	1	Control Mode
ELECTROMETER	IQUANT	0	RE=0 or CS=1
IESTAB	IQUANT	0	I/E Stability
CASPEED	IQUANT	4	Control Amp Speed
CONVENTION	IQUANT	1	Current Convention
ICHRANGE	IQUANT	2	Ich Range
ICHRANGEMODE	TOGGLE	T	Ich Auto Range
ICHOFFSETENABLE	TOGGLE	F	Ich Offset Enable
ICHOFFSET	QUANT	0	Ich Offset (V)
ICHFILTER	IQUANT	3	Ich Filter
VCHRANGE	IQUANT	3	Vch Range
VCHRANGEMODE	TOGGLE	T	Vch Auto Range
VCHOFFSETENABLE	TOGGLE	F	Vch Offset Enable
VCHOFFSET	QUANT	0	Vch Offset (V)
VCHFILTER	IQUANT	3	Vch Filter
IERANGELOWERLIMIT	IQUANT	4	I/E Range Lower Limit
IERANGEMODE	TOGGLE	F	I/E AutoRange
IERANGE	IQUANT	9	I/E Range
ACHSELECT	IQUANT	0	Ach Select
ACHRANGE	IQUANT	2	Ach Range
ACHOFFSETENABLE	TOGGLE	F	Ach Offset Enable
ACHOFFSET	QUANT	0	Ach Offset (V)
ACHFILTER	IQUANT	1	Ach Filter
SENSECABLEID	IQUANT	14	Sense Cable ID
PWRCABLEID	IQUANT	14	Power Cable ID
DCCALDATE	LABEL	1/24/2022	DC Calibration Date
ACCALDATE	LABEL	4/2/2018	AC Calibration Date
FRAMEWORKVERSION	QUANT	7.06	Framework Version
INSTRUMENTVERSION	LABEL	4.30	Instrument Version
CURVE	TABLE	98
	Pt	T	Vf	Im	Vu	Sig	Ach	IERange	Over	Temp
	#	s	V vs. Ref.	A	V	V	V	#	bits	deg C
	0	-0.4	9.17946E-003	-2.35728E-006	0.00000E+000	1.00559E-002	0.00000E+000	9	...........	1426.04
	1	-0.3	9.88221E-003	-2.32872E-006	0.00000E+000	1.00559E-002	0.00000E+000	9	...........	1426.04
	2	-0.2	1.00384E-002	-2.30750E-006	0.00000E+000	1.00559E-002	0.00000E+000	9	...........	1426.04
	3	-0.1	1.00531E-002	-2.28988E-006	0.00000E+000	1.00559E-002	0.00000E+000	9	...........	1426.04
	4	0	1.00537E-002	-2.29505E-006	0.00000E+000	1.00559E-002	0.00000E+000	9	...........	1426.04
	5	0.1	4.67204E-005	-3.09001E-006	0.00000E+000	5.34840E-005	0.00000E+000	9	...........	1426.04
	6	0.2	4.59795E-005	-2.89244E-006	0.00000E+000	5.34840E-005	0.00000E+000	9	...........	1426.04
	7	0.3	4.61287E-005	-2.83408E-006	0.00000E+000	5.34840E-005	0.00000E+000	9	...........	1426.04
	8	0.4	4.57732E-005	-2.80658E-006	0.00000E+000	5.34840E-005	0.00000E+000	9	...........	1426.04
	9	0.5	4.56261E-005	-2.79944E-006	0.00000E+000	5.34840E-005	0.00000E+000	9	...........	1426.04
	10	0.6	4.46699E-005	-2.77848E-006	0.00000E+000	5.34840E-005	0.00000E+000	9	...........	1426.04
	11	0.7	4.55620E-005	-2.79774E-006	0.00000E+000	5.34840E-005	0.00000E+000	9	...........	1426.04
	12	0.8	4.56201E-005	-2.80231E-006	0.00000E+000	5.34840E-005	0.00000E+000	9	...........	1426.04
	13	0.9	4.57292E-005	-2.81919E-006	0.00000E+000	5.34840E-005	0.00000E+000	9	...........	1426.04
	14	1	4.38949E-005	-2.83237E-006	0.00000E+000	5.34840E-005	0.00000E+000	9	...........	1426.04
	15	1.1	4.58824E-005	-2.86504E-006	0.00000E+000	5.34840E-005	0.00000E+000	9	...........	1426.04
	16	1.2	4.44776E-005	-2.91129E-006	0.00000E+000	5.34840E-005	0.00000E+000	9	...........	1426.04
	17	1.3	4.45708E-005	-2.91946E-006	0.00000E+000	5.34840E-005	0.00000E+000	9	...........	1426.04
	18	1.4	4.46439E-005	-2.91442E-006	0.00000E+000	5.34840E-005	0.00000E+000	9	...........	1426.04
	19	1.5	4.52246E-005	-2.92867E-006	0.00000E+000	5.34840E-005	0.00000E+000	9	...........	1426.04
	20	1.6	4.49672E-005	-2.92133E-006	0.00000E+000	5.34840E-005	0.00000E+000	9	...........	1426.04
	21	1.7	4.57052E-005	-2.93965E-006	0.00000E+000	5.34840E-005	0.00000E+000	9	...........	1426.04
	22	1.8	4.62198E-005	-2.95447E-006	0.00000E+000	5.34840E-005	0.00000E+000	9	...........	1426.07
	23	1.9	4.60416E-005	-2.97826E-006	0.00000E+000	5.34840E-005	0.00000E+000	9	...........	1426.13
	24	2	4.54188E-005	-2.98860E-006	0.00000E+000	5.34840E-005	0.00000E+000	9	...........	1426.13
	25	2.1	4.63650E-005	-2.99758E-006	0.00000E+000	5.34840E-005	0.00000E+000	9	...........	1426.13
	26	2.2	4.71950E-005	-3.02644E-006	0.00000E+000	5.34840E-005	0.00000E+000	9	...........	1426.13
	27	2.3	4.64210E-005	-3.02284E-006	0.00000E+000	5.34840E-005	0.00000E+000	9	...........	1426.13
	28	2.4	4.54479E-005	-3.06685E-006	0.00000E+000	5.34840E-005	0.00000E+000	9	...........	1426.13
	29	2.5	4.60115E-005	-3.04419E-006	0.00000E+000	5.34840E-005	0.00000E+000	9	...........	1426.13
	30	2.6	4.43275E-005	-3.04169E-006	0.00000E+000	5.34840E-005	0.00000E+000	9	...........	1426.13
	31	2.7	4.58584E-005	-3.03341E-006	0.00000E+000	5.34840E-005	0.00000E+000	9	...........	1426.13
	32	2.8	4.47620E-005	-3.01166E-006	0.00000E+000	5.34840E-005	0.00000E+000	9	...........	1426.16
	33	2.9	4.46439E-005	-3.00075E-006	0.00000E+000	5.34840E-005	0.00000E+000	9	...........	1426.22
	34	3	4.44266E-005	-2.99925E-006	0.00000E+000	5.34840E-005	0.00000E+000	9	...........	1426.22
	35	3.1	4.51845E-005	-2.99017E-006	0.00000E+000	5.34840E-005	0.00000E+000	9	...........	1426.22
	36	3.2	4.44556E-005	-2.99704E-006	0.00000E+000	5.34840E-005	0.00000E+000	9	...........	1426.22
	37	3.3	4.70788E-005	-2.95310E-006	0.00000E+000	5.34840E-005	0.00000E+000	9	...........	1426.22
	38	3.4	4.45097E-005	-2.97175E-006	0.00000E+000	5.34840E-005	0.00000E+000	9	...........	1426.22
	39	3.5	4.50353E-005	-2.93732E-006	0.00000E+000	5.34840E-005	0.00000E+000	9	...........	1426.22
	40	3.6	4.59705E-005	-2.95136E-006	0.00000E+000	5.34840E-005	0.00000E+000	9	...........	1426.22
	41	3.7	4.44126E-005	-2.93401E-006	0.00000E+000	5.34840E-005	0.00000E+000	9	...........	1426.22
	42	3.8	4.53127E-005	-2.92193E-006	0.00000E+000	5.34840E-005	0.00000E+000	9	...........	1426.20
	43	3.9	4.58924E-005	-2.91966E-006	0.00000E+000	5.34840E-005	0.00000E+000	9	...........	1426.13
	44	4	4.54438E-005	-2.96411E-006	0.00000E+000	5.34840E-005	0.00000E+000	9	...........	1426.13
	45	4.1	4.60916E-005	-2.96568E-006	0.00000E+000	5.34840E-005	0.00000E+000	9	...........	1426.13
	46	4.2	4.63389E-005	-2.95497E-006	0.00000E+000	5.34840E-005	0.00000E+000	9	...........	1426.13
	47	4.3	4.55940E-005	-2.97429E-006	0.00000E+000	5.34840E-005	0.00000E+000	9	...........	1426.13
	48	4.4	4.44266E-005	-2.91593E-006	0.00000E+000	5.34840E-005	0.00000E+000	9	...........	1426.13
	49	4.5	4.51094E-005	-2.88519E-006	0.00000E+000	5.34840E-005	0.00000E+000	9	...........	1426.13
	50	4.6	4.56751E-005	-2.85840E-006	0.00000E+000	5.34840E-005	0.00000E+000	9	...........	1426.13
	51	4.7	4.66804E-005	-2.84422E-006	0.00000E+000	5.34840E-005	0.00000E+000	9	...........	1426.13
	52	4.8	4.57262E-005	-2.84405E-006	0.00000E+000	5.34840E-005	0.00000E+000	9	...........	1426.11
	53	4.9	4.50153E-005	-2.84455E-006	0.00000E+000	5.34840E-005	0.00000E+000	9	...........	1426.04
	54	5	4.64641E-005	-2.78896E-006	0.00000E+000	5.34840E-005	0.00000E+000	9	...........	1426.04
	55	5.1	4.56741E-005	-2.77488E-006	0.00000E+000	5.34840E-005	0.00000E+000	9	...........	1426.04
	56	5.2	4.63509E-005	-2.71158E-006	0.00000E+000	5.34840E-005	0.00000E+000	9	...........	1426.04
	57	5.3	4.57282E-005	-2.68312E-006	0.00000E+000	5.34840E-005	0.00000E+000	9	...........	1426.04
	58	5.4	4.59324E-005	-2.61391E-006	0.00000E+000	5.34840E-005	0.00000E+000	9	...........	1426.04
	59	5.5	4.64200E-005	-2.56450E-006	0.00000E+000	5.34840E-005	0.00000E+000	9	...........	1426.04
	60	5.6	4.70218E-005	-2.54538E-006	0.00000E+000	5.34840E-005	0.00000E+000	9	...........	1426.04
	61	5.7	4.73812E-005	-2.49372E-006	0.00000E+000	5.34840E-005	0.00000E+000	9	...........	1426.04
	62	5.8	4.60536E-005	-2.52546E-006	0.00000E+000	5.34840E-005	0.00000E+000	9	...........	1426.07
	63	5.9	4.62078E-005	-2.48578E-006	0.00000E+000	5.34840E-005	0.00000E+000	9	...........	1426.13
	64	6	4.52926E-005	-2.48041E-006	0.00000E+000	5.34840E-005	0.00000E+000	9	...........	1426.13
	65	6.1	4.58744E-005	-2.45395E-006	0.00000E+000	5.34840E-005	0.00000E+000	9	...........	1426.13
	66	7.1	4.56241E-005	-2.38468E-006	0.00000E+000	5.34840E-005	0.00000E+000	9	...........	1426.31
	67	8.1	4.42754E-005	-2.33916E-006	0.00000E+000	5.34840E-005	0.00000E+000	9	...........	1426.40
	68	9.1	4.54779E-005	-2.36466E-006	0.00000E+000	5.34840E-005	0.00000E+000	9	...........	1426.40
	69	10.1	4.61397E-005	-2.59857E-006	0.00000E+000	5.34840E-005	0.00000E+000	9	...........	1426.40
	70	11.1	4.62098E-005	-2.72586E-006	0.00000E+000	5.34840E-005	0.00000E+000	9	...........	1426.40
	71	12.1	4.52706E-005	-2.66490E-006	0.00000E+000	5.34840E-005	0.00000E+000	9	...........	1426.40
	72	13.1	4.66383E-005	-2.66340E-006	0.00000E+000	5.34840E-005	0.00000E+000	9	...........	1426.40
	73	14.1	4.56150E-005	-2.51264E-006	0.00000E+000	5.34840E-005	0.00000E+000	9	...........	1426.40
	74	15.1	4.65212E-005	-2.26796E-006	0.00000E+000	5.34840E-005	0.00000E+000	9	...........	1426.40
	75	16.1	4.63680E-005	-2.13749E-006	0.00000E+000	5.34840E-005	0.00000E+000	9	...........	1426.40
	76	26.1	4.69266E-005	-2.01733E-006	0.00000E+000	5.34840E-005	0.00000E+000	9	...........	1426.40
	77	36.1	4.68856E-005	-2.07946E-006	0.00000E+000	5.34840E-005	0.00000E+000	9	...........	1426.40
	78	46.1	4.65742E-005	-2.31391E-006	0.00000E+000	5.34840E-005	0.00000E+000	9	...........	1426.40
	79	56.1	4.56982E-005	-2.16852E-006	0.00000E+000	5.34840E-005	0.00000E+000	9	...........	1426.40
	80	66.1	4.68596E-005	-1.93838E-006	0.00000E+000	5.34840E-005	0.00000E+000	9	...........	1426.40
	81	76.1	4.72440E-005	-1.79721E-006	0.00000E+000	5.34840E-005	0.00000E+000	9	...........	1426.40
	82	86.1	4.70268E-005	-1.86241E-006	0.00000E+000	5.34840E-005	0.00000E+000	9	...........	1426.40
	83	96.1	4.78949E-005	-2.17386E-006	0.00000E+000	5.34840E-005	0.00000E+000	9	...........	1426.40
	84	106.1	4.64411E-005	-2.17820E-006	0.00000E+000	5.34840E-005	0.00000E+000	9	...........	1426.40
	85	116.1	4.60015E-005	-1.98760E-006	0.00000E+000	5.34840E-005	0.00000E+000	9	...........	1426.40
	86	216.1	4.56301E-005	-1.70027E-006	0.00000E+000	5.34840E-005	0.00000E+000	9	...........	1426.40
	87	300	4.39250E-005	-1.53570E-006	0.00000E+000	5.34840E-005	0.00000E+000	9	...........	1426.40
	88	300.1	-3.29270E-002	-1.26878E-005	0.00000E+000	-9.99460E-002	0.00000E+000	9	.........v.	1426.40
	89	300.2	-9.99836E-002	-9.20431E-006	0.00000E+000	-9.99460E-002	0.00000E+000	9	...........	1426.40
	90	300.3	-9.99840E-002	-8.22434E-006	0.00000E+000	-9.99460E-002	0.00000E+000	9	...........	1426.40
	91	300.4	-9.99819E-002	-7.66162E-006	0.00000E+000	-9.99460E-002	0.00000E+000	9	...........	1426.40
	92	300.5	-9.99809E-002	-7.33128E-006	0.00000E+000	-9.99460E-002	0.00000E+000	9	...........	1426.40
	93	300.6	-9.99816E-002	-7.17709E-006	0.00000E+000	-9.99460E-002	0.00000E+000	9	...........	1426.40
	94	300.7	-9.99819E-002	-6.92369E-006	0.00000E+000	-9.99460E-002	0.00000E+000	9	...........	1426.40
	95	300.8	-9.99822E-002	-6.81642E-006	0.00000E+000	-9.99460E-002	0.00000E+000	9	...........	1426.40
	96	300.9	-9.99806E-002	-6.66119E-006	0.00000E+000	-9.99460E-002	0.00000E+000	9	...........	1426.40
	97	301	-9.99820E-002	-6.58882E-006	0.00000E+000	-9.99460E-002	0.00000E+000	9	...........	1426.40
