EXPLAIN
TAG	CHRONOA
TITLE	LABEL	Chronoamperometry Scan	Test Identifier
DATE	LABEL	24/3/2022	Date
TIME	LABEL	15:00:21	Time
NOTES	NOTES	1	Notes...
	
PSTAT	PSTAT	IFC1010-21051	Potentiostat
VPRESTEP	POTEN	-3.00000E-001	F	Pre-step Voltage (V)
TPRESTEP	QUANT	5.00000E-001	Pre-step Delay Time (s)
VSTEP1	POTEN	-4.00000E-001	F	Step 1 Voltage (V)
TSTEP1	QUANT	3.00000E+002	Step 1 Time (s)
VSTEP2	POTEN	-5.00000E-001	F	Step 2 Voltage (V)
TSTEP2	QUANT	1.00000E+000	Step 2 Time (s)
SAMPLETIME	QUANT	1.00000E-001	Sample Period (s)
DECIMATE	TOGGLE	T	Decimate
ILIMIT	QUANT	1.00000E+000	Limit I (mA/cm^2)
IMODE	SELECTOR	1	I/E Range Mode
IRANGE	QUANT	3.00000E-001	Max Current (mA)
EQDELAY	QUANT	5.00000E+000	Equil. Time (s)
SAMPLINGMODE	SELECTOR	1	Sampling Mode
AREA	QUANT	1.00000E+000	Sample Area (cm^2)
IRCOMP	SELECTOR	0	IRComp
PFCOR	QUANT	5.00000E+001	PF Corr. (ohm)
SEQUENCER	TOGGLE	TRUE	Run as Sequence
PSTATMODEL	IQUANT	64	Pstat Model
PSTATSECTION	LABEL	IFC1010-21051	Pstat Section
PSTATSERIALNO	LABEL	21051	Pstat Serial Number
CTRLMODE	IQUANT	1	Control Mode
ELECTROMETER	IQUANT	0	RE=0 or CS=1
IESTAB	IQUANT	0	I/E Stability
CASPEED	IQUANT	4	Control Amp Speed
CONVENTION	IQUANT	1	Current Convention
ICHRANGE	IQUANT	2	Ich Range
ICHRANGEMODE	TOGGLE	T	Ich Auto Range
ICHOFFSETENABLE	TOGGLE	F	Ich Offset Enable
ICHOFFSET	QUANT	0	Ich Offset (V)
ICHFILTER	IQUANT	3	Ich Filter
VCHRANGE	IQUANT	3	Vch Range
VCHRANGEMODE	TOGGLE	T	Vch Auto Range
VCHOFFSETENABLE	TOGGLE	F	Vch Offset Enable
VCHOFFSET	QUANT	0	Vch Offset (V)
VCHFILTER	IQUANT	3	Vch Filter
IERANGELOWERLIMIT	IQUANT	4	I/E Range Lower Limit
IERANGEMODE	TOGGLE	F	I/E AutoRange
IERANGE	IQUANT	9	I/E Range
ACHSELECT	IQUANT	0	Ach Select
ACHRANGE	IQUANT	2	Ach Range
ACHOFFSETENABLE	TOGGLE	F	Ach Offset Enable
ACHOFFSET	QUANT	0	Ach Offset (V)
ACHFILTER	IQUANT	1	Ach Filter
SENSECABLEID	IQUANT	14	Sense Cable ID
PWRCABLEID	IQUANT	14	Power Cable ID
DCCALDATE	LABEL	1/24/2022	DC Calibration Date
ACCALDATE	LABEL	4/2/2018	AC Calibration Date
FRAMEWORKVERSION	QUANT	7.06	Framework Version
INSTRUMENTVERSION	LABEL	4.30	Instrument Version
CURVE	TABLE	98
	Pt	T	Vf	Im	Vu	Sig	Ach	IERange	Over	Temp
	#	s	V vs. Ref.	A	V	V	V	#	bits	deg C
	0	-0.4	-3.01272E-001	-4.45145E-005	0.00000E+000	-3.00011E-001	0.00000E+000	9	...........	1425.95
	1	-0.3	-3.00674E-001	-4.43263E-005	0.00000E+000	-3.00011E-001	0.00000E+000	9	...........	1425.95
	2	-0.2	-3.00688E-001	-4.41539E-005	0.00000E+000	-3.00011E-001	0.00000E+000	9	...........	1425.95
	3	-0.1	-3.00680E-001	-4.40051E-005	0.00000E+000	-3.00011E-001	0.00000E+000	9	...........	1425.95
	4	0	-3.00674E-001	-4.38346E-005	0.00000E+000	-3.00011E-001	0.00000E+000	9	...........	1425.95
	5	0.1	-4.00717E-001	-2.45512E-004	0.00000E+000	-4.00011E-001	0.00000E+000	9	...........	1425.95
	6	0.2	-4.00723E-001	-2.28074E-004	0.00000E+000	-4.00011E-001	0.00000E+000	9	...........	1425.95
	7	0.3	-4.00715E-001	-2.17612E-004	0.00000E+000	-4.00011E-001	0.00000E+000	9	...........	1425.95
	8	0.4	-4.00711E-001	-2.09240E-004	0.00000E+000	-4.00011E-001	0.00000E+000	9	...........	1425.95
	9	0.5	-4.00734E-001	-2.02167E-004	0.00000E+000	-4.00011E-001	0.00000E+000	9	...........	1425.95
	10	0.6	-4.00716E-001	-1.95959E-004	0.00000E+000	-4.00011E-001	0.00000E+000	9	...........	1425.95
	11	0.7	-4.00712E-001	-1.90594E-004	0.00000E+000	-4.00011E-001	0.00000E+000	9	...........	1425.95
	12	0.8	-4.00713E-001	-1.85840E-004	0.00000E+000	-4.00011E-001	0.00000E+000	9	...........	1425.95
	13	0.9	-4.00716E-001	-1.81531E-004	0.00000E+000	-4.00011E-001	0.00000E+000	9	...........	1425.95
	14	1	-4.00706E-001	-1.77682E-004	0.00000E+000	-4.00011E-001	0.00000E+000	9	...........	1425.95
	15	1.1	-4.00717E-001	-1.74232E-004	0.00000E+000	-4.00011E-001	0.00000E+000	9	...........	1425.95
	16	1.2	-4.00711E-001	-1.71004E-004	0.00000E+000	-4.00011E-001	0.00000E+000	9	...........	1425.95
	17	1.3	-4.00717E-001	-1.68146E-004	0.00000E+000	-4.00011E-001	0.00000E+000	9	...........	1425.95
	18	1.4	-4.00723E-001	-1.65502E-004	0.00000E+000	-4.00011E-001	0.00000E+000	9	...........	1425.95
	19	1.5	-4.00729E-001	-1.63120E-004	0.00000E+000	-4.00011E-001	0.00000E+000	9	...........	1425.95
	20	1.6	-4.00716E-001	-1.60855E-004	0.00000E+000	-4.00011E-001	0.00000E+000	9	...........	1425.95
	21	1.7	-4.00733E-001	-1.58878E-004	0.00000E+000	-4.00011E-001	0.00000E+000	9	...........	1425.95
	22	1.8	-4.00742E-001	-1.57051E-004	0.00000E+000	-4.00011E-001	0.00000E+000	9	...........	1425.51
	23	1.9	-4.00717E-001	-1.55346E-004	0.00000E+000	-4.00011E-001	0.00000E+000	9	...........	1425.51
	24	2	-4.00729E-001	-1.53550E-004	0.00000E+000	-4.00011E-001	0.00000E+000	9	...........	1425.51
	25	2.1	-4.00720E-001	-1.51960E-004	0.00000E+000	-4.00011E-001	0.00000E+000	9	...........	1425.51
	26	2.2	-4.00723E-001	-1.50398E-004	0.00000E+000	-4.00011E-001	0.00000E+000	9	...........	1425.51
	27	2.3	-4.00727E-001	-1.48904E-004	0.00000E+000	-4.00011E-001	0.00000E+000	9	...........	1425.51
	28	2.4	-4.00726E-001	-1.47448E-004	0.00000E+000	-4.00011E-001	0.00000E+000	9	...........	1425.51
	29	2.5	-4.00736E-001	-1.46127E-004	0.00000E+000	-4.00011E-001	0.00000E+000	9	...........	1425.51
	30	2.6	-4.00734E-001	-1.44797E-004	0.00000E+000	-4.00011E-001	0.00000E+000	9	...........	1425.51
	31	2.7	-4.00720E-001	-1.43537E-004	0.00000E+000	-4.00011E-001	0.00000E+000	9	...........	1425.51
	32	2.8	-4.00717E-001	-1.42346E-004	0.00000E+000	-4.00011E-001	0.00000E+000	9	...........	1425.87
	33	2.9	-4.00714E-001	-1.41207E-004	0.00000E+000	-4.00011E-001	0.00000E+000	9	...........	1425.87
	34	3	-4.00720E-001	-1.40122E-004	0.00000E+000	-4.00011E-001	0.00000E+000	9	...........	1425.87
	35	3.1	-4.00716E-001	-1.39056E-004	0.00000E+000	-4.00011E-001	0.00000E+000	9	...........	1425.87
	36	3.2	-4.00736E-001	-1.38070E-004	0.00000E+000	-4.00011E-001	0.00000E+000	9	...........	1425.87
	37	3.3	-4.00711E-001	-1.37005E-004	0.00000E+000	-4.00011E-001	0.00000E+000	9	...........	1425.87
	38	3.4	-4.00722E-001	-1.36079E-004	0.00000E+000	-4.00011E-001	0.00000E+000	9	...........	1425.87
	39	3.5	-4.00714E-001	-1.35087E-004	0.00000E+000	-4.00011E-001	0.00000E+000	9	...........	1425.87
	40	3.6	-4.00717E-001	-1.34245E-004	0.00000E+000	-4.00011E-001	0.00000E+000	9	...........	1425.87
	41	3.7	-4.00713E-001	-1.33343E-004	0.00000E+000	-4.00011E-001	0.00000E+000	9	...........	1425.87
	42	3.8	-4.00721E-001	-1.32525E-004	0.00000E+000	-4.00011E-001	0.00000E+000	9	...........	1425.51
	43	3.9	-4.00719E-001	-1.31699E-004	0.00000E+000	-4.00011E-001	0.00000E+000	9	...........	1425.51
	44	4	-4.00721E-001	-1.30863E-004	0.00000E+000	-4.00011E-001	0.00000E+000	9	...........	1425.51
	45	4.1	-4.00724E-001	-1.30158E-004	0.00000E+000	-4.00011E-001	0.00000E+000	9	...........	1425.51
	46	4.2	-4.00710E-001	-1.29405E-004	0.00000E+000	-4.00011E-001	0.00000E+000	9	...........	1425.51
	47	4.3	-4.00714E-001	-1.28676E-004	0.00000E+000	-4.00011E-001	0.00000E+000	9	...........	1425.51
	48	4.4	-4.00717E-001	-1.27974E-004	0.00000E+000	-4.00011E-001	0.00000E+000	9	...........	1425.51
	49	4.5	-4.00723E-001	-1.27252E-004	0.00000E+000	-4.00011E-001	0.00000E+000	9	...........	1425.51
	50	4.6	-4.00720E-001	-1.26593E-004	0.00000E+000	-4.00011E-001	0.00000E+000	9	...........	1425.51
	51	4.7	-4.00717E-001	-1.25936E-004	0.00000E+000	-4.00011E-001	0.00000E+000	9	...........	1425.51
	52	4.8	-4.00713E-001	-1.25262E-004	0.00000E+000	-4.00011E-001	0.00000E+000	9	...........	1425.87
	53	4.9	-4.00717E-001	-1.24642E-004	0.00000E+000	-4.00011E-001	0.00000E+000	9	...........	1425.87
	54	5	-4.00712E-001	-1.24044E-004	0.00000E+000	-4.00011E-001	0.00000E+000	9	...........	1425.87
	55	5.1	-4.00717E-001	-1.23449E-004	0.00000E+000	-4.00011E-001	0.00000E+000	9	...........	1425.87
	56	5.2	-4.00722E-001	-1.22876E-004	0.00000E+000	-4.00011E-001	0.00000E+000	9	...........	1425.87
	57	5.3	-4.00714E-001	-1.22267E-004	0.00000E+000	-4.00011E-001	0.00000E+000	9	...........	1425.87
	58	5.4	-4.00715E-001	-1.21689E-004	0.00000E+000	-4.00011E-001	0.00000E+000	9	...........	1425.87
	59	5.5	-4.00714E-001	-1.21169E-004	0.00000E+000	-4.00011E-001	0.00000E+000	9	...........	1425.87
	60	5.6	-4.00719E-001	-1.20626E-004	0.00000E+000	-4.00011E-001	0.00000E+000	9	...........	1425.87
	61	5.7	-4.00721E-001	-1.20100E-004	0.00000E+000	-4.00011E-001	0.00000E+000	9	...........	1425.87
	62	5.8	-4.00718E-001	-1.19606E-004	0.00000E+000	-4.00011E-001	0.00000E+000	9	...........	1425.42
	63	5.9	-4.00720E-001	-1.19079E-004	0.00000E+000	-4.00011E-001	0.00000E+000	9	...........	1425.42
	64	6	-4.00712E-001	-1.18538E-004	0.00000E+000	-4.00011E-001	0.00000E+000	9	...........	1425.42
	65	6.1	-4.00707E-001	-1.18097E-004	0.00000E+000	-4.00011E-001	0.00000E+000	9	...........	1425.42
	66	7.1	-4.00720E-001	-1.13695E-004	0.00000E+000	-4.00011E-001	0.00000E+000	9	...........	1425.87
	67	8.1	-4.00719E-001	-1.09995E-004	0.00000E+000	-4.00011E-001	0.00000E+000	9	...........	1425.95
	68	9.1	-4.00710E-001	-1.06801E-004	0.00000E+000	-4.00011E-001	0.00000E+000	9	...........	1425.95
	69	10.1	-4.00713E-001	-1.03918E-004	0.00000E+000	-4.00011E-001	0.00000E+000	9	...........	1425.95
	70	11.1	-4.00720E-001	-1.01518E-004	0.00000E+000	-4.00011E-001	0.00000E+000	9	...........	1425.95
	71	12.1	-4.00715E-001	-9.93286E-005	0.00000E+000	-4.00011E-001	0.00000E+000	9	...........	1425.95
	72	13.1	-4.00725E-001	-9.73256E-005	0.00000E+000	-4.00011E-001	0.00000E+000	9	...........	1425.95
	73	14.1	-4.00712E-001	-9.56476E-005	0.00000E+000	-4.00011E-001	0.00000E+000	9	...........	1425.95
	74	15.1	-4.00724E-001	-9.40866E-005	0.00000E+000	-4.00011E-001	0.00000E+000	9	...........	1425.95
	75	16.1	-4.00726E-001	-9.27058E-005	0.00000E+000	-4.00011E-001	0.00000E+000	9	...........	1425.95
	76	26.1	-4.00723E-001	-8.23686E-005	0.00000E+000	-4.00011E-001	0.00000E+000	9	...........	1426.04
	77	36.1	-4.00724E-001	-7.54307E-005	0.00000E+000	-4.00011E-001	0.00000E+000	9	...........	1425.95
	78	46.1	-4.00723E-001	-7.13403E-005	0.00000E+000	-4.00011E-001	0.00000E+000	9	...........	1426.04
	79	56.1	-4.00705E-001	-6.82379E-005	0.00000E+000	-4.00011E-001	0.00000E+000	9	...........	1425.95
	80	66.1	-4.00705E-001	-6.49594E-005	0.00000E+000	-4.00011E-001	0.00000E+000	9	...........	1426.04
	81	76.1	-4.00721E-001	-6.33001E-005	0.00000E+000	-4.00011E-001	0.00000E+000	9	...........	1426.04
	82	86.1	-4.00715E-001	-6.16954E-005	0.00000E+000	-4.00011E-001	0.00000E+000	9	...........	1426.04
	83	96.1	-4.00714E-001	-6.01660E-005	0.00000E+000	-4.00011E-001	0.00000E+000	9	...........	1426.04
	84	106.1	-4.00714E-001	-5.88576E-005	0.00000E+000	-4.00011E-001	0.00000E+000	9	...........	1426.04
	85	116.1	-4.00707E-001	-5.76987E-005	0.00000E+000	-4.00011E-001	0.00000E+000	9	...........	1426.04
	86	216.1	-4.00720E-001	-5.08485E-005	0.00000E+000	-4.00011E-001	0.00000E+000	9	...........	1426.04
	87	300	-4.00716E-001	-4.84821E-005	0.00000E+000	-4.00011E-001	0.00000E+000	9	...........	1426.04
	88	300.1	-5.00722E-001	-2.83495E-004	0.00000E+000	-5.00010E-001	0.00000E+000	9	...........	1426.04
	89	300.2	-5.00724E-001	-2.63338E-004	0.00000E+000	-5.00010E-001	0.00000E+000	9	...........	1426.04
	90	300.3	-5.00724E-001	-2.50296E-004	0.00000E+000	-5.00010E-001	0.00000E+000	9	...........	1426.04
	91	300.4	-5.00726E-001	-2.39913E-004	0.00000E+000	-5.00010E-001	0.00000E+000	9	...........	1426.04
	92	300.5	-5.00728E-001	-2.30947E-004	0.00000E+000	-5.00010E-001	0.00000E+000	9	...........	1426.04
	93	300.6	-5.00729E-001	-2.23273E-004	0.00000E+000	-5.00010E-001	0.00000E+000	9	...........	1426.04
	94	300.7	-5.00732E-001	-2.16625E-004	0.00000E+000	-5.00010E-001	0.00000E+000	9	...........	1426.04
	95	300.8	-5.00735E-001	-2.10813E-004	0.00000E+000	-5.00010E-001	0.00000E+000	9	...........	1425.95
	96	300.9	-5.00731E-001	-2.05779E-004	0.00000E+000	-5.00010E-001	0.00000E+000	9	...........	1425.95
	97	301	-5.00726E-001	-2.01351E-004	0.00000E+000	-5.00010E-001	0.00000E+000	9	...........	1425.95
