EXPLAIN
TAG	CHRONOA
TITLE	LABEL	Chronoamperometry Scan	Test Identifier
DATE	LABEL	24/3/2022	Date
TIME	LABEL	14:49:01	Time
NOTES	NOTES	1	Notes...
	
PSTAT	PSTAT	IFC1010-21051	Potentiostat
VPRESTEP	POTEN	3.00000E-001	F	Pre-step Voltage (V)
TPRESTEP	QUANT	5.00000E-001	Pre-step Delay Time (s)
VSTEP1	POTEN	4.00000E-001	F	Step 1 Voltage (V)
TSTEP1	QUANT	3.00000E+002	Step 1 Time (s)
VSTEP2	POTEN	3.00000E-001	F	Step 2 Voltage (V)
TSTEP2	QUANT	1.00000E+000	Step 2 Time (s)
SAMPLETIME	QUANT	1.00000E-001	Sample Period (s)
DECIMATE	TOGGLE	T	Decimate
ILIMIT	QUANT	1.00000E+000	Limit I (mA/cm^2)
IMODE	SELECTOR	1	I/E Range Mode
IRANGE	QUANT	3.00000E-001	Max Current (mA)
EQDELAY	QUANT	5.00000E+000	Equil. Time (s)
SAMPLINGMODE	SELECTOR	1	Sampling Mode
AREA	QUANT	1.00000E+000	Sample Area (cm^2)
IRCOMP	SELECTOR	0	IRComp
PFCOR	QUANT	5.00000E+001	PF Corr. (ohm)
SEQUENCER	TOGGLE	TRUE	Run as Sequence
PSTATMODEL	IQUANT	64	Pstat Model
PSTATSECTION	LABEL	IFC1010-21051	Pstat Section
PSTATSERIALNO	LABEL	21051	Pstat Serial Number
CTRLMODE	IQUANT	1	Control Mode
ELECTROMETER	IQUANT	0	RE=0 or CS=1
IESTAB	IQUANT	0	I/E Stability
CASPEED	IQUANT	4	Control Amp Speed
CONVENTION	IQUANT	1	Current Convention
ICHRANGE	IQUANT	2	Ich Range
ICHRANGEMODE	TOGGLE	T	Ich Auto Range
ICHOFFSETENABLE	TOGGLE	F	Ich Offset Enable
ICHOFFSET	QUANT	0	Ich Offset (V)
ICHFILTER	IQUANT	3	Ich Filter
VCHRANGE	IQUANT	3	Vch Range
VCHRANGEMODE	TOGGLE	T	Vch Auto Range
VCHOFFSETENABLE	TOGGLE	F	Vch Offset Enable
VCHOFFSET	QUANT	0	Vch Offset (V)
VCHFILTER	IQUANT	3	Vch Filter
IERANGELOWERLIMIT	IQUANT	4	I/E Range Lower Limit
IERANGEMODE	TOGGLE	F	I/E AutoRange
IERANGE	IQUANT	9	I/E Range
ACHSELECT	IQUANT	0	Ach Select
ACHRANGE	IQUANT	2	Ach Range
ACHOFFSETENABLE	TOGGLE	F	Ach Offset Enable
ACHOFFSET	QUANT	0	Ach Offset (V)
ACHFILTER	IQUANT	1	Ach Filter
SENSECABLEID	IQUANT	14	Sense Cable ID
PWRCABLEID	IQUANT	14	Power Cable ID
DCCALDATE	LABEL	1/24/2022	DC Calibration Date
ACCALDATE	LABEL	4/2/2018	AC Calibration Date
FRAMEWORKVERSION	QUANT	7.06	Framework Version
INSTRUMENTVERSION	LABEL	4.30	Instrument Version
CURVE	TABLE	98
	Pt	T	Vf	Im	Vu	Sig	Ach	IERange	Over	Temp
	#	s	V vs. Ref.	A	V	V	V	#	bits	deg C
	0	-0.4	2.99561E-001	1.64407E-005	0.00000E+000	3.00072E-001	0.00000E+000	9	...........	1425.95
	1	-0.3	3.00314E-001	1.62906E-005	0.00000E+000	3.00072E-001	0.00000E+000	9	...........	1425.95
	2	-0.2	3.00312E-001	1.61103E-005	0.00000E+000	3.00072E-001	0.00000E+000	9	...........	1425.95
	3	-0.1	3.00312E-001	1.59294E-005	0.00000E+000	3.00072E-001	0.00000E+000	9	...........	1425.95
	4	0	3.00306E-001	1.57864E-005	0.00000E+000	3.00072E-001	0.00000E+000	9	...........	1425.95
	5	0.1	4.00367E-001	1.95453E-004	0.00000E+000	4.00072E-001	0.00000E+000	9	...........	1425.95
	6	0.2	4.00360E-001	1.53742E-004	0.00000E+000	4.00072E-001	0.00000E+000	9	...........	1425.95
	7	0.3	4.00355E-001	1.29294E-004	0.00000E+000	4.00072E-001	0.00000E+000	9	...........	1425.95
	8	0.4	4.00362E-001	1.13616E-004	0.00000E+000	4.00072E-001	0.00000E+000	9	...........	1425.95
	9	0.5	4.00365E-001	1.02637E-004	0.00000E+000	4.00072E-001	0.00000E+000	9	...........	1425.95
	10	0.6	4.00362E-001	9.46043E-005	0.00000E+000	4.00072E-001	0.00000E+000	9	...........	1425.95
	11	0.7	4.00357E-001	8.82587E-005	0.00000E+000	4.00072E-001	0.00000E+000	9	...........	1425.87
	12	0.8	4.00358E-001	8.31586E-005	0.00000E+000	4.00072E-001	0.00000E+000	9	...........	1425.87
	13	0.9	4.00356E-001	7.88453E-005	0.00000E+000	4.00072E-001	0.00000E+000	9	...........	1425.87
	14	1	4.00349E-001	7.50515E-005	0.00000E+000	4.00072E-001	0.00000E+000	9	...........	1425.87
	15	1.1	4.00347E-001	7.18997E-005	0.00000E+000	4.00072E-001	0.00000E+000	9	...........	1425.87
	16	1.2	4.00363E-001	6.91410E-005	0.00000E+000	4.00072E-001	0.00000E+000	9	...........	1425.87
	17	1.3	4.00367E-001	6.67886E-005	0.00000E+000	4.00072E-001	0.00000E+000	9	...........	1425.87
	18	1.4	4.00368E-001	6.45378E-005	0.00000E+000	4.00072E-001	0.00000E+000	9	...........	1425.87
	19	1.5	4.00360E-001	6.25492E-005	0.00000E+000	4.00072E-001	0.00000E+000	9	...........	1425.87
	20	1.6	4.00373E-001	6.07034E-005	0.00000E+000	4.00072E-001	0.00000E+000	9	...........	1425.87
	21	1.7	4.00362E-001	5.90540E-005	0.00000E+000	4.00072E-001	0.00000E+000	9	...........	1425.87
	22	1.8	4.00363E-001	5.74924E-005	0.00000E+000	4.00072E-001	0.00000E+000	9	...........	1425.87
	23	1.9	4.00363E-001	5.60445E-005	0.00000E+000	4.00072E-001	0.00000E+000	9	...........	1425.87
	24	2	4.00371E-001	5.47290E-005	0.00000E+000	4.00072E-001	0.00000E+000	9	...........	1425.87
	25	2.1	4.00374E-001	5.34797E-005	0.00000E+000	4.00072E-001	0.00000E+000	9	...........	1425.87
	26	2.2	4.00363E-001	5.23121E-005	0.00000E+000	4.00072E-001	0.00000E+000	9	...........	1425.87
	27	2.3	4.00380E-001	5.13503E-005	0.00000E+000	4.00072E-001	0.00000E+000	9	...........	1425.87
	28	2.4	4.00362E-001	5.03721E-005	0.00000E+000	4.00072E-001	0.00000E+000	9	...........	1425.87
	29	2.5	4.00359E-001	4.93462E-005	0.00000E+000	4.00072E-001	0.00000E+000	9	...........	1425.87
	30	2.6	4.00359E-001	4.84875E-005	0.00000E+000	4.00072E-001	0.00000E+000	9	...........	1425.87
	31	2.7	4.00359E-001	4.75601E-005	0.00000E+000	4.00072E-001	0.00000E+000	9	...........	1425.87
	32	2.8	4.00375E-001	4.67753E-005	0.00000E+000	4.00072E-001	0.00000E+000	9	...........	1425.87
	33	2.9	4.00350E-001	4.59951E-005	0.00000E+000	4.00072E-001	0.00000E+000	9	...........	1425.87
	34	3	4.00355E-001	4.52965E-005	0.00000E+000	4.00072E-001	0.00000E+000	9	...........	1425.87
	35	3.1	4.00363E-001	4.46350E-005	0.00000E+000	4.00072E-001	0.00000E+000	9	...........	1425.87
	36	3.2	4.00358E-001	4.40341E-005	0.00000E+000	4.00072E-001	0.00000E+000	9	...........	1425.87
	37	3.3	4.00362E-001	4.35044E-005	0.00000E+000	4.00072E-001	0.00000E+000	9	...........	1425.87
	38	3.4	4.00381E-001	4.29087E-005	0.00000E+000	4.00072E-001	0.00000E+000	9	...........	1425.87
	39	3.5	4.00370E-001	4.22850E-005	0.00000E+000	4.00072E-001	0.00000E+000	9	...........	1425.87
	40	3.6	4.00367E-001	4.17489E-005	0.00000E+000	4.00072E-001	0.00000E+000	9	...........	1425.87
	41	3.7	4.00361E-001	4.13093E-005	0.00000E+000	4.00072E-001	0.00000E+000	9	...........	1425.87
	42	3.8	4.00369E-001	4.07962E-005	0.00000E+000	4.00072E-001	0.00000E+000	9	...........	1425.87
	43	3.9	4.00367E-001	4.02493E-005	0.00000E+000	4.00072E-001	0.00000E+000	9	...........	1425.87
	44	4	4.00366E-001	3.98149E-005	0.00000E+000	4.00072E-001	0.00000E+000	9	...........	1425.87
	45	4.1	4.00369E-001	3.93804E-005	0.00000E+000	4.00072E-001	0.00000E+000	9	...........	1425.87
	46	4.2	4.00357E-001	3.89005E-005	0.00000E+000	4.00072E-001	0.00000E+000	9	...........	1425.87
	47	4.3	4.00352E-001	3.85178E-005	0.00000E+000	4.00072E-001	0.00000E+000	9	...........	1425.87
	48	4.4	4.00364E-001	3.81162E-005	0.00000E+000	4.00072E-001	0.00000E+000	9	...........	1425.87
	49	4.5	4.00366E-001	3.77988E-005	0.00000E+000	4.00072E-001	0.00000E+000	9	...........	1425.87
	50	4.6	4.00352E-001	3.74261E-005	0.00000E+000	4.00072E-001	0.00000E+000	9	...........	1425.87
	51	4.7	4.00368E-001	3.71128E-005	0.00000E+000	4.00072E-001	0.00000E+000	9	...........	1425.87
	52	4.8	4.00367E-001	3.67955E-005	0.00000E+000	4.00072E-001	0.00000E+000	9	...........	1425.87
	53	4.9	4.00358E-001	3.64342E-005	0.00000E+000	4.00072E-001	0.00000E+000	9	...........	1425.87
	54	5	4.00364E-001	3.61736E-005	0.00000E+000	4.00072E-001	0.00000E+000	9	...........	1425.87
	55	5.1	4.00371E-001	3.58692E-005	0.00000E+000	4.00072E-001	0.00000E+000	9	...........	1425.87
	56	5.2	4.00367E-001	3.55111E-005	0.00000E+000	4.00072E-001	0.00000E+000	9	...........	1425.87
	57	5.3	4.00360E-001	3.52254E-005	0.00000E+000	4.00072E-001	0.00000E+000	9	...........	1425.87
	58	5.4	4.00362E-001	3.49944E-005	0.00000E+000	4.00072E-001	0.00000E+000	9	...........	1425.87
	59	5.5	4.00364E-001	3.46873E-005	0.00000E+000	4.00072E-001	0.00000E+000	9	...........	1425.87
	60	5.6	4.00365E-001	3.45088E-005	0.00000E+000	4.00072E-001	0.00000E+000	9	...........	1425.87
	61	5.7	4.00362E-001	3.42600E-005	0.00000E+000	4.00072E-001	0.00000E+000	9	...........	1425.87
	62	5.8	4.00366E-001	3.39866E-005	0.00000E+000	4.00072E-001	0.00000E+000	9	...........	1425.87
	63	5.9	4.00373E-001	3.36163E-005	0.00000E+000	4.00072E-001	0.00000E+000	9	...........	1425.87
	64	6	4.00368E-001	3.34534E-005	0.00000E+000	4.00072E-001	0.00000E+000	9	...........	1425.87
	65	6.1	4.00369E-001	3.31455E-005	0.00000E+000	4.00072E-001	0.00000E+000	9	...........	1425.87
	66	7.1	4.00363E-001	3.09174E-005	0.00000E+000	4.00072E-001	0.00000E+000	9	...........	1425.95
	67	8.1	4.00351E-001	2.90517E-005	0.00000E+000	4.00072E-001	0.00000E+000	9	...........	1425.87
	68	9.1	4.00354E-001	2.77387E-005	0.00000E+000	4.00072E-001	0.00000E+000	9	...........	1425.95
	69	10.1	4.00356E-001	2.64753E-005	0.00000E+000	4.00072E-001	0.00000E+000	9	...........	1425.95
	70	11.1	4.00368E-001	2.55426E-005	0.00000E+000	4.00072E-001	0.00000E+000	9	...........	1425.95
	71	12.1	4.00355E-001	2.46427E-005	0.00000E+000	4.00072E-001	0.00000E+000	9	...........	1425.95
	72	13.1	4.00365E-001	2.38155E-005	0.00000E+000	4.00072E-001	0.00000E+000	9	...........	1425.95
	73	14.1	4.00360E-001	2.29935E-005	0.00000E+000	4.00072E-001	0.00000E+000	9	...........	1425.95
	74	15.1	4.00359E-001	2.24800E-005	0.00000E+000	4.00072E-001	0.00000E+000	9	...........	1425.95
	75	16.1	4.00354E-001	2.21653E-005	0.00000E+000	4.00072E-001	0.00000E+000	9	...........	1425.87
	76	26.1	4.00365E-001	1.85044E-005	0.00000E+000	4.00072E-001	0.00000E+000	9	...........	1425.95
	77	36.1	4.00360E-001	1.61001E-005	0.00000E+000	4.00072E-001	0.00000E+000	9	...........	1425.95
	78	46.1	4.00359E-001	1.52742E-005	0.00000E+000	4.00072E-001	0.00000E+000	9	...........	1425.95
	79	56.1	4.00351E-001	1.41453E-005	0.00000E+000	4.00072E-001	0.00000E+000	9	...........	1425.95
	80	66.1	4.00375E-001	1.25887E-005	0.00000E+000	4.00072E-001	0.00000E+000	9	...........	1425.87
	81	76.1	4.00362E-001	1.18290E-005	0.00000E+000	4.00072E-001	0.00000E+000	9	...........	1425.95
	82	86.1	4.00359E-001	1.08052E-005	0.00000E+000	4.00072E-001	0.00000E+000	9	...........	1425.95
	83	96.1	4.00349E-001	1.11509E-005	0.00000E+000	4.00072E-001	0.00000E+000	9	...........	1425.95
	84	106.1	4.00363E-001	1.02318E-005	0.00000E+000	4.00072E-001	0.00000E+000	9	...........	1425.95
	85	116.1	4.00366E-001	9.61097E-006	0.00000E+000	4.00072E-001	0.00000E+000	9	...........	1425.95
	86	216.1	4.00362E-001	7.19971E-006	0.00000E+000	4.00072E-001	0.00000E+000	9	...........	1425.87
	87	300	4.00358E-001	6.16534E-006	0.00000E+000	4.00072E-001	0.00000E+000	9	...........	1425.95
	88	300.1	3.00315E-001	-9.74531E-006	0.00000E+000	3.00072E-001	0.00000E+000	9	...........	1425.95
	89	300.2	3.00310E-001	-8.75538E-006	0.00000E+000	3.00072E-001	0.00000E+000	9	...........	1425.95
	90	300.3	3.00312E-001	-8.47183E-006	0.00000E+000	3.00072E-001	0.00000E+000	9	...........	1425.95
	91	300.4	3.00320E-001	-8.25377E-006	0.00000E+000	3.00072E-001	0.00000E+000	9	...........	1425.95
	92	300.5	3.00321E-001	-8.08399E-006	0.00000E+000	3.00072E-001	0.00000E+000	9	...........	1425.95
	93	300.6	3.00313E-001	-7.86960E-006	0.00000E+000	3.00072E-001	0.00000E+000	9	...........	1425.95
	94	300.7	3.00316E-001	-7.68692E-006	0.00000E+000	3.00072E-001	0.00000E+000	9	...........	1425.95
	95	300.8	3.00308E-001	-7.52365E-006	0.00000E+000	3.00072E-001	0.00000E+000	9	...........	1425.95
	96	300.9	3.00314E-001	-7.33402E-006	0.00000E+000	3.00072E-001	0.00000E+000	9	...........	1425.95
	97	301	3.00325E-001	-7.07659E-006	0.00000E+000	3.00072E-001	0.00000E+000	9	...........	1425.95
