EXPLAIN
TAG	CHRONOA
TITLE	LABEL	Chronoamperometry Scan	Test Identifier
DATE	LABEL	24/3/2022	Date
TIME	LABEL	15:54:41	Time
NOTES	NOTES	1	Notes...
	
PSTAT	PSTAT	IFC1010-21051	Potentiostat
VPRESTEP	POTEN	3.00000E-001	F	Pre-step Voltage (V)
TPRESTEP	QUANT	5.00000E-001	Pre-step Delay Time (s)
VSTEP1	POTEN	4.00000E-001	F	Step 1 Voltage (V)
TSTEP1	QUANT	3.00000E+002	Step 1 Time (s)
VSTEP2	POTEN	3.00000E-001	F	Step 2 Voltage (V)
TSTEP2	QUANT	1.00000E+000	Step 2 Time (s)
SAMPLETIME	QUANT	1.00000E-001	Sample Period (s)
DECIMATE	TOGGLE	T	Decimate
ILIMIT	QUANT	1.00000E+000	Limit I (mA/cm^2)
IMODE	SELECTOR	1	I/E Range Mode
IRANGE	QUANT	3.00000E-001	Max Current (mA)
EQDELAY	QUANT	5.00000E+000	Equil. Time (s)
SAMPLINGMODE	SELECTOR	1	Sampling Mode
AREA	QUANT	1.00000E+000	Sample Area (cm^2)
IRCOMP	SELECTOR	0	IRComp
PFCOR	QUANT	5.00000E+001	PF Corr. (ohm)
SEQUENCER	TOGGLE	TRUE	Run as Sequence
PSTATMODEL	IQUANT	64	Pstat Model
PSTATSECTION	LABEL	IFC1010-21051	Pstat Section
PSTATSERIALNO	LABEL	21051	Pstat Serial Number
CTRLMODE	IQUANT	1	Control Mode
ELECTROMETER	IQUANT	0	RE=0 or CS=1
IESTAB	IQUANT	0	I/E Stability
CASPEED	IQUANT	4	Control Amp Speed
CONVENTION	IQUANT	1	Current Convention
ICHRANGE	IQUANT	2	Ich Range
ICHRANGEMODE	TOGGLE	T	Ich Auto Range
ICHOFFSETENABLE	TOGGLE	F	Ich Offset Enable
ICHOFFSET	QUANT	0	Ich Offset (V)
ICHFILTER	IQUANT	3	Ich Filter
VCHRANGE	IQUANT	3	Vch Range
VCHRANGEMODE	TOGGLE	T	Vch Auto Range
VCHOFFSETENABLE	TOGGLE	F	Vch Offset Enable
VCHOFFSET	QUANT	0	Vch Offset (V)
VCHFILTER	IQUANT	3	Vch Filter
IERANGELOWERLIMIT	IQUANT	4	I/E Range Lower Limit
IERANGEMODE	TOGGLE	F	I/E AutoRange
IERANGE	IQUANT	9	I/E Range
ACHSELECT	IQUANT	0	Ach Select
ACHRANGE	IQUANT	2	Ach Range
ACHOFFSETENABLE	TOGGLE	F	Ach Offset Enable
ACHOFFSET	QUANT	0	Ach Offset (V)
ACHFILTER	IQUANT	1	Ach Filter
SENSECABLEID	IQUANT	14	Sense Cable ID
PWRCABLEID	IQUANT	14	Power Cable ID
DCCALDATE	LABEL	1/24/2022	DC Calibration Date
ACCALDATE	LABEL	4/2/2018	AC Calibration Date
FRAMEWORKVERSION	QUANT	7.06	Framework Version
INSTRUMENTVERSION	LABEL	4.30	Instrument Version
CURVE	TABLE	98
	Pt	T	Vf	Im	Vu	Sig	Ach	IERange	Over	Temp
	#	s	V vs. Ref.	A	V	V	V	#	bits	deg C
	0	-0.4	2.99599E-001	7.40132E-006	0.00000E+000	3.00072E-001	0.00000E+000	9	...........	1425.95
	1	-0.3	3.00305E-001	7.35263E-006	0.00000E+000	3.00072E-001	0.00000E+000	9	...........	1425.95
	2	-0.2	3.00300E-001	7.29100E-006	0.00000E+000	3.00072E-001	0.00000E+000	9	...........	1425.95
	3	-0.1	3.00310E-001	7.26478E-006	0.00000E+000	3.00072E-001	0.00000E+000	9	...........	1425.95
	4	0	3.00306E-001	7.20365E-006	0.00000E+000	3.00072E-001	0.00000E+000	9	...........	1425.95
	5	0.1	4.00360E-001	4.82264E-005	0.00000E+000	4.00072E-001	0.00000E+000	9	...........	1425.95
	6	0.2	4.00358E-001	3.78316E-005	0.00000E+000	4.00072E-001	0.00000E+000	9	...........	1425.95
	7	0.3	4.00351E-001	3.26565E-005	0.00000E+000	4.00072E-001	0.00000E+000	9	...........	1426.04
	8	0.4	4.00356E-001	2.93110E-005	0.00000E+000	4.00072E-001	0.00000E+000	9	...........	1426.04
	9	0.5	4.00367E-001	2.69861E-005	0.00000E+000	4.00072E-001	0.00000E+000	9	...........	1426.04
	10	0.6	4.00367E-001	2.52012E-005	0.00000E+000	4.00072E-001	0.00000E+000	9	...........	1426.04
	11	0.7	4.00347E-001	2.38211E-005	0.00000E+000	4.00072E-001	0.00000E+000	9	...........	1426.04
	12	0.8	4.00363E-001	2.26621E-005	0.00000E+000	4.00072E-001	0.00000E+000	9	...........	1426.04
	13	0.9	4.00338E-001	2.16580E-005	0.00000E+000	4.00072E-001	0.00000E+000	9	...........	1426.04
	14	1	4.00370E-001	2.08163E-005	0.00000E+000	4.00072E-001	0.00000E+000	9	...........	1426.04
	15	1.1	4.00356E-001	2.00784E-005	0.00000E+000	4.00072E-001	0.00000E+000	9	...........	1426.04
	16	1.2	4.00355E-001	1.94007E-005	0.00000E+000	4.00072E-001	0.00000E+000	9	...........	1426.04
	17	1.3	4.00364E-001	1.88826E-005	0.00000E+000	4.00072E-001	0.00000E+000	9	...........	1425.51
	18	1.4	4.00370E-001	1.83634E-005	0.00000E+000	4.00072E-001	0.00000E+000	9	...........	1425.51
	19	1.5	4.00379E-001	1.78761E-005	0.00000E+000	4.00072E-001	0.00000E+000	9	...........	1425.51
	20	1.6	4.00365E-001	1.74357E-005	0.00000E+000	4.00072E-001	0.00000E+000	9	...........	1425.51
	21	1.7	4.00358E-001	1.70947E-005	0.00000E+000	4.00072E-001	0.00000E+000	9	...........	1425.51
	22	1.8	4.00361E-001	1.67623E-005	0.00000E+000	4.00072E-001	0.00000E+000	9	...........	1425.51
	23	1.9	4.00369E-001	1.64102E-005	0.00000E+000	4.00072E-001	0.00000E+000	9	...........	1425.51
	24	2	4.00362E-001	1.61495E-005	0.00000E+000	4.00072E-001	0.00000E+000	9	...........	1425.51
	25	2.1	4.00358E-001	1.59215E-005	0.00000E+000	4.00072E-001	0.00000E+000	9	...........	1425.51
	26	2.2	4.00360E-001	1.56266E-005	0.00000E+000	4.00072E-001	0.00000E+000	9	...........	1425.51
	27	2.3	4.00361E-001	1.53329E-005	0.00000E+000	4.00072E-001	0.00000E+000	9	...........	1425.51
	28	2.4	4.00361E-001	1.51564E-005	0.00000E+000	4.00072E-001	0.00000E+000	9	...........	1425.51
	29	2.5	4.00353E-001	1.49298E-005	0.00000E+000	4.00072E-001	0.00000E+000	9	...........	1425.51
	30	2.6	4.00356E-001	1.47518E-005	0.00000E+000	4.00072E-001	0.00000E+000	9	...........	1425.51
	31	2.7	4.00360E-001	1.44903E-005	0.00000E+000	4.00072E-001	0.00000E+000	9	...........	1425.51
	32	2.8	4.00364E-001	1.43096E-005	0.00000E+000	4.00072E-001	0.00000E+000	9	...........	1425.51
	33	2.9	4.00365E-001	1.41553E-005	0.00000E+000	4.00072E-001	0.00000E+000	9	...........	1425.51
	34	3	4.00350E-001	1.40345E-005	0.00000E+000	4.00072E-001	0.00000E+000	9	...........	1425.51
	35	3.1	4.00360E-001	1.38801E-005	0.00000E+000	4.00072E-001	0.00000E+000	9	...........	1425.51
	36	3.2	4.00368E-001	1.37411E-005	0.00000E+000	4.00072E-001	0.00000E+000	9	...........	1425.51
	37	3.3	4.00362E-001	1.36033E-005	0.00000E+000	4.00072E-001	0.00000E+000	9	...........	1425.51
	38	3.4	4.00355E-001	1.34149E-005	0.00000E+000	4.00072E-001	0.00000E+000	9	...........	1425.51
	39	3.5	4.00355E-001	1.32513E-005	0.00000E+000	4.00072E-001	0.00000E+000	9	...........	1425.51
	40	3.6	4.00363E-001	1.31246E-005	0.00000E+000	4.00072E-001	0.00000E+000	9	...........	1425.51
	41	3.7	4.00364E-001	1.30155E-005	0.00000E+000	4.00072E-001	0.00000E+000	9	...........	1425.51
	42	3.8	4.00370E-001	1.28980E-005	0.00000E+000	4.00072E-001	0.00000E+000	9	...........	1425.51
	43	3.9	4.00372E-001	1.27578E-005	0.00000E+000	4.00072E-001	0.00000E+000	9	...........	1425.51
	44	4	4.00368E-001	1.26930E-005	0.00000E+000	4.00072E-001	0.00000E+000	9	...........	1425.51
	45	4.1	4.00374E-001	1.25761E-005	0.00000E+000	4.00072E-001	0.00000E+000	9	...........	1425.51
	46	4.2	4.00356E-001	1.24179E-005	0.00000E+000	4.00072E-001	0.00000E+000	9	...........	1425.51
	47	4.3	4.00363E-001	1.23036E-005	0.00000E+000	4.00072E-001	0.00000E+000	9	...........	1425.51
	48	4.4	4.00350E-001	1.22320E-005	0.00000E+000	4.00072E-001	0.00000E+000	9	...........	1425.51
	49	4.5	4.00342E-001	1.21501E-005	0.00000E+000	4.00072E-001	0.00000E+000	9	...........	1425.51
	50	4.6	4.00355E-001	1.19920E-005	0.00000E+000	4.00072E-001	0.00000E+000	9	...........	1425.51
	51	4.7	4.00357E-001	1.18999E-005	0.00000E+000	4.00072E-001	0.00000E+000	9	...........	1425.51
	52	4.8	4.00359E-001	1.18224E-005	0.00000E+000	4.00072E-001	0.00000E+000	9	...........	1425.51
	53	4.9	4.00356E-001	1.16841E-005	0.00000E+000	4.00072E-001	0.00000E+000	9	...........	1425.51
	54	5	4.00355E-001	1.16701E-005	0.00000E+000	4.00072E-001	0.00000E+000	9	...........	1425.51
	55	5.1	4.00353E-001	1.15666E-005	0.00000E+000	4.00072E-001	0.00000E+000	9	...........	1425.51
	56	5.2	4.00360E-001	1.14986E-005	0.00000E+000	4.00072E-001	0.00000E+000	9	...........	1425.51
	57	5.3	4.00366E-001	1.14116E-005	0.00000E+000	4.00072E-001	0.00000E+000	9	...........	1425.60
	58	5.4	4.00369E-001	1.13989E-005	0.00000E+000	4.00072E-001	0.00000E+000	9	...........	1425.60
	59	5.5	4.00363E-001	1.13298E-005	0.00000E+000	4.00072E-001	0.00000E+000	9	...........	1425.60
	60	5.6	4.00371E-001	1.12458E-005	0.00000E+000	4.00072E-001	0.00000E+000	9	...........	1425.60
	61	5.7	4.00355E-001	1.11859E-005	0.00000E+000	4.00072E-001	0.00000E+000	9	...........	1425.60
	62	5.8	4.00344E-001	1.11141E-005	0.00000E+000	4.00072E-001	0.00000E+000	9	...........	1425.60
	63	5.9	4.00358E-001	1.10452E-005	0.00000E+000	4.00072E-001	0.00000E+000	9	...........	1425.60
	64	6	4.00374E-001	1.10020E-005	0.00000E+000	4.00072E-001	0.00000E+000	9	...........	1425.60
	65	6.1	4.00364E-001	1.09554E-005	0.00000E+000	4.00072E-001	0.00000E+000	9	...........	1425.60
	66	7.1	4.00362E-001	1.02710E-005	0.00000E+000	4.00072E-001	0.00000E+000	9	...........	1425.51
	67	8.1	4.00360E-001	9.88972E-006	0.00000E+000	4.00072E-001	0.00000E+000	9	...........	1425.95
	68	9.1	4.00348E-001	9.60252E-006	0.00000E+000	4.00072E-001	0.00000E+000	9	...........	1425.95
	69	10.1	4.00336E-001	9.26261E-006	0.00000E+000	4.00072E-001	0.00000E+000	9	...........	1425.95
	70	11.1	4.00362E-001	8.90490E-006	0.00000E+000	4.00072E-001	0.00000E+000	9	...........	1425.95
	71	12.1	4.00352E-001	8.62608E-006	0.00000E+000	4.00072E-001	0.00000E+000	9	...........	1425.95
	72	13.1	4.00366E-001	8.42060E-006	0.00000E+000	4.00072E-001	0.00000E+000	9	...........	1425.95
	73	14.1	4.00363E-001	8.15650E-006	0.00000E+000	4.00072E-001	0.00000E+000	9	...........	1425.95
	74	15.1	4.00367E-001	7.87441E-006	0.00000E+000	4.00072E-001	0.00000E+000	9	...........	1425.95
	75	16.1	4.00363E-001	7.69272E-006	0.00000E+000	4.00072E-001	0.00000E+000	9	...........	1425.95
	76	26.1	4.00365E-001	5.94709E-006	0.00000E+000	4.00072E-001	0.00000E+000	9	...........	1425.95
	77	36.1	4.00362E-001	5.39101E-006	0.00000E+000	4.00072E-001	0.00000E+000	9	...........	1425.95
	78	46.1	4.00361E-001	5.27005E-006	0.00000E+000	4.00072E-001	0.00000E+000	9	...........	1425.95
	79	56.1	4.00357E-001	4.34410E-006	0.00000E+000	4.00072E-001	0.00000E+000	9	...........	1425.95
	80	66.1	4.00359E-001	4.59082E-006	0.00000E+000	4.00072E-001	0.00000E+000	9	...........	1425.95
	81	76.1	4.00361E-001	3.89460E-006	0.00000E+000	4.00072E-001	0.00000E+000	9	...........	1425.95
	82	86.1	4.00359E-001	3.81499E-006	0.00000E+000	4.00072E-001	0.00000E+000	9	...........	1425.95
	83	96.1	4.00368E-001	3.92753E-006	0.00000E+000	4.00072E-001	0.00000E+000	9	...........	1425.95
	84	106.1	4.00371E-001	3.85256E-006	0.00000E+000	4.00072E-001	0.00000E+000	9	...........	1425.95
	85	116.1	4.00364E-001	3.35097E-006	0.00000E+000	4.00072E-001	0.00000E+000	9	...........	1425.95
	86	216.1	4.00367E-001	2.64421E-006	0.00000E+000	4.00072E-001	0.00000E+000	9	...........	1425.95
	87	300	4.00372E-001	2.41304E-006	0.00000E+000	4.00072E-001	0.00000E+000	9	...........	1425.95
	88	300.1	3.00325E-001	-2.37624E-006	0.00000E+000	3.00072E-001	0.00000E+000	9	...........	1425.95
	89	300.2	3.00319E-001	-1.46947E-006	0.00000E+000	3.00072E-001	0.00000E+000	9	...........	1425.95
	90	300.3	3.00317E-001	-1.15648E-006	0.00000E+000	3.00072E-001	0.00000E+000	9	...........	1425.95
	91	300.4	3.00317E-001	-9.80496E-007	0.00000E+000	3.00072E-001	0.00000E+000	9	...........	1425.95
	92	300.5	3.00317E-001	-8.79292E-007	0.00000E+000	3.00072E-001	0.00000E+000	9	...........	1425.95
	93	300.6	3.00319E-001	-7.91568E-007	0.00000E+000	3.00072E-001	0.00000E+000	9	...........	1425.95
	94	300.7	3.00316E-001	-7.28970E-007	0.00000E+000	3.00072E-001	0.00000E+000	9	...........	1425.95
	95	300.8	3.00310E-001	-6.88695E-007	0.00000E+000	3.00072E-001	0.00000E+000	9	...........	1425.95
	96	300.9	3.00310E-001	-6.76316E-007	0.00000E+000	3.00072E-001	0.00000E+000	9	...........	1425.95
	97	301	3.00292E-001	-6.58931E-007	0.00000E+000	3.00072E-001	0.00000E+000	9	...........	1425.95
