EXPLAIN
TAG	CHRONOA
TITLE	LABEL	Chronoamperometry Scan	Test Identifier
DATE	LABEL	24/3/2022	Date
TIME	LABEL	16:37:18	Time
NOTES	NOTES	1	Notes...
	
PSTAT	PSTAT	IFC1010-21051	Potentiostat
VPRESTEP	POTEN	3.00000E-001	F	Pre-step Voltage (V)
TPRESTEP	QUANT	5.00000E-001	Pre-step Delay Time (s)
VSTEP1	POTEN	4.00000E-001	F	Step 1 Voltage (V)
TSTEP1	QUANT	3.00000E+002	Step 1 Time (s)
VSTEP2	POTEN	3.00000E-001	F	Step 2 Voltage (V)
TSTEP2	QUANT	1.00000E+000	Step 2 Time (s)
SAMPLETIME	QUANT	1.00000E-001	Sample Period (s)
DECIMATE	TOGGLE	T	Decimate
ILIMIT	QUANT	1.00000E+000	Limit I (mA/cm^2)
IMODE	SELECTOR	1	I/E Range Mode
IRANGE	QUANT	3.00000E-001	Max Current (mA)
EQDELAY	QUANT	5.00000E+000	Equil. Time (s)
SAMPLINGMODE	SELECTOR	1	Sampling Mode
AREA	QUANT	1.00000E+000	Sample Area (cm^2)
IRCOMP	SELECTOR	0	IRComp
PFCOR	QUANT	5.00000E+001	PF Corr. (ohm)
SEQUENCER	TOGGLE	TRUE	Run as Sequence
PSTATMODEL	IQUANT	64	Pstat Model
PSTATSECTION	LABEL	IFC1010-21051	Pstat Section
PSTATSERIALNO	LABEL	21051	Pstat Serial Number
CTRLMODE	IQUANT	1	Control Mode
ELECTROMETER	IQUANT	0	RE=0 or CS=1
IESTAB	IQUANT	0	I/E Stability
CASPEED	IQUANT	4	Control Amp Speed
CONVENTION	IQUANT	1	Current Convention
ICHRANGE	IQUANT	2	Ich Range
ICHRANGEMODE	TOGGLE	T	Ich Auto Range
ICHOFFSETENABLE	TOGGLE	F	Ich Offset Enable
ICHOFFSET	QUANT	0	Ich Offset (V)
ICHFILTER	IQUANT	3	Ich Filter
VCHRANGE	IQUANT	3	Vch Range
VCHRANGEMODE	TOGGLE	T	Vch Auto Range
VCHOFFSETENABLE	TOGGLE	F	Vch Offset Enable
VCHOFFSET	QUANT	0	Vch Offset (V)
VCHFILTER	IQUANT	3	Vch Filter
IERANGELOWERLIMIT	IQUANT	4	I/E Range Lower Limit
IERANGEMODE	TOGGLE	F	I/E AutoRange
IERANGE	IQUANT	9	I/E Range
ACHSELECT	IQUANT	0	Ach Select
ACHRANGE	IQUANT	2	Ach Range
ACHOFFSETENABLE	TOGGLE	F	Ach Offset Enable
ACHOFFSET	QUANT	0	Ach Offset (V)
ACHFILTER	IQUANT	1	Ach Filter
SENSECABLEID	IQUANT	14	Sense Cable ID
PWRCABLEID	IQUANT	14	Power Cable ID
DCCALDATE	LABEL	1/24/2022	DC Calibration Date
ACCALDATE	LABEL	4/2/2018	AC Calibration Date
FRAMEWORKVERSION	QUANT	7.06	Framework Version
INSTRUMENTVERSION	LABEL	4.30	Instrument Version
CURVE	TABLE	98
	Pt	T	Vf	Im	Vu	Sig	Ach	IERange	Over	Temp
	#	s	V vs. Ref.	A	V	V	V	#	bits	deg C
	0	-0.4	2.99554E-001	7.10922E-006	0.00000E+000	3.00072E-001	0.00000E+000	9	...........	1426.04
	1	-0.3	3.00306E-001	7.05733E-006	0.00000E+000	3.00072E-001	0.00000E+000	9	...........	1426.04
	2	-0.2	3.00310E-001	6.98512E-006	0.00000E+000	3.00072E-001	0.00000E+000	9	...........	1426.04
	3	-0.1	3.00304E-001	6.94535E-006	0.00000E+000	3.00072E-001	0.00000E+000	9	...........	1426.04
	4	0	3.00312E-001	6.87688E-006	0.00000E+000	3.00072E-001	0.00000E+000	9	...........	1426.04
	5	0.1	4.00359E-001	5.72592E-005	0.00000E+000	4.00072E-001	0.00000E+000	9	...........	1426.04
	6	0.2	4.00359E-001	4.27467E-005	0.00000E+000	4.00072E-001	0.00000E+000	9	...........	1426.04
	7	0.3	4.00361E-001	3.59939E-005	0.00000E+000	4.00072E-001	0.00000E+000	9	...........	1426.04
	8	0.4	4.00365E-001	3.18647E-005	0.00000E+000	4.00072E-001	0.00000E+000	9	...........	1426.04
	9	0.5	4.00365E-001	2.89560E-005	0.00000E+000	4.00072E-001	0.00000E+000	9	...........	1426.04
	10	0.6	4.00349E-001	2.68517E-005	0.00000E+000	4.00072E-001	0.00000E+000	9	...........	1426.04
	11	0.7	4.00362E-001	2.51430E-005	0.00000E+000	4.00072E-001	0.00000E+000	9	...........	1426.04
	12	0.8	4.00343E-001	2.37877E-005	0.00000E+000	4.00072E-001	0.00000E+000	9	...........	1426.04
	13	0.9	4.00357E-001	2.26470E-005	0.00000E+000	4.00072E-001	0.00000E+000	9	...........	1426.04
	14	1	4.00358E-001	2.16256E-005	0.00000E+000	4.00072E-001	0.00000E+000	9	...........	1426.04
	15	1.1	4.00359E-001	2.07885E-005	0.00000E+000	4.00072E-001	0.00000E+000	9	...........	1426.04
	16	1.2	4.00360E-001	2.00689E-005	0.00000E+000	4.00072E-001	0.00000E+000	9	...........	1426.04
	17	1.3	4.00380E-001	1.94386E-005	0.00000E+000	4.00072E-001	0.00000E+000	9	...........	1426.04
	18	1.4	4.00355E-001	1.88582E-005	0.00000E+000	4.00072E-001	0.00000E+000	9	...........	1426.04
	19	1.5	4.00359E-001	1.82852E-005	0.00000E+000	4.00072E-001	0.00000E+000	9	...........	1426.04
	20	1.6	4.00354E-001	1.77826E-005	0.00000E+000	4.00072E-001	0.00000E+000	9	...........	1425.60
	21	1.7	4.00353E-001	1.73766E-005	0.00000E+000	4.00072E-001	0.00000E+000	9	...........	1425.60
	22	1.8	4.00347E-001	1.69379E-005	0.00000E+000	4.00072E-001	0.00000E+000	9	...........	1425.60
	23	1.9	4.00350E-001	1.65617E-005	0.00000E+000	4.00072E-001	0.00000E+000	9	...........	1425.60
	24	2	4.00370E-001	1.62326E-005	0.00000E+000	4.00072E-001	0.00000E+000	9	...........	1425.60
	25	2.1	4.00367E-001	1.58774E-005	0.00000E+000	4.00072E-001	0.00000E+000	9	...........	1425.60
	26	2.2	4.00367E-001	1.56260E-005	0.00000E+000	4.00072E-001	0.00000E+000	9	...........	1425.60
	27	2.3	4.00353E-001	1.52604E-005	0.00000E+000	4.00072E-001	0.00000E+000	9	...........	1425.60
	28	2.4	4.00361E-001	1.50100E-005	0.00000E+000	4.00072E-001	0.00000E+000	9	...........	1425.60
	29	2.5	4.00363E-001	1.47636E-005	0.00000E+000	4.00072E-001	0.00000E+000	9	...........	1425.60
	30	2.6	4.00359E-001	1.45147E-005	0.00000E+000	4.00072E-001	0.00000E+000	9	...........	1425.51
	31	2.7	4.00349E-001	1.43084E-005	0.00000E+000	4.00072E-001	0.00000E+000	9	...........	1425.51
	32	2.8	4.00361E-001	1.41622E-005	0.00000E+000	4.00072E-001	0.00000E+000	9	...........	1425.51
	33	2.9	4.00362E-001	1.39968E-005	0.00000E+000	4.00072E-001	0.00000E+000	9	...........	1425.51
	34	3	4.00363E-001	1.37576E-005	0.00000E+000	4.00072E-001	0.00000E+000	9	...........	1425.51
	35	3.1	4.00361E-001	1.36059E-005	0.00000E+000	4.00072E-001	0.00000E+000	9	...........	1425.51
	36	3.2	4.00361E-001	1.33991E-005	0.00000E+000	4.00072E-001	0.00000E+000	9	...........	1425.51
	37	3.3	4.00356E-001	1.32334E-005	0.00000E+000	4.00072E-001	0.00000E+000	9	...........	1425.51
	38	3.4	4.00350E-001	1.30856E-005	0.00000E+000	4.00072E-001	0.00000E+000	9	...........	1425.51
	39	3.5	4.00353E-001	1.28885E-005	0.00000E+000	4.00072E-001	0.00000E+000	9	...........	1425.51
	40	3.6	4.00368E-001	1.27382E-005	0.00000E+000	4.00072E-001	0.00000E+000	9	...........	1425.60
	41	3.7	4.00362E-001	1.26120E-005	0.00000E+000	4.00072E-001	0.00000E+000	9	...........	1425.60
	42	3.8	4.00366E-001	1.24633E-005	0.00000E+000	4.00072E-001	0.00000E+000	9	...........	1425.60
	43	3.9	4.00355E-001	1.23492E-005	0.00000E+000	4.00072E-001	0.00000E+000	9	...........	1425.60
	44	4	4.00364E-001	1.21741E-005	0.00000E+000	4.00072E-001	0.00000E+000	9	...........	1425.60
	45	4.1	4.00365E-001	1.20770E-005	0.00000E+000	4.00072E-001	0.00000E+000	9	...........	1425.60
	46	4.2	4.00368E-001	1.19639E-005	0.00000E+000	4.00072E-001	0.00000E+000	9	...........	1425.60
	47	4.3	4.00370E-001	1.18720E-005	0.00000E+000	4.00072E-001	0.00000E+000	9	...........	1425.60
	48	4.4	4.00354E-001	1.16974E-005	0.00000E+000	4.00072E-001	0.00000E+000	9	...........	1425.60
	49	4.5	4.00352E-001	1.15753E-005	0.00000E+000	4.00072E-001	0.00000E+000	9	...........	1425.60
	50	4.6	4.00353E-001	1.14464E-005	0.00000E+000	4.00072E-001	0.00000E+000	9	...........	1425.60
	51	4.7	4.00367E-001	1.13716E-005	0.00000E+000	4.00072E-001	0.00000E+000	9	...........	1425.60
	52	4.8	4.00364E-001	1.12312E-005	0.00000E+000	4.00072E-001	0.00000E+000	9	...........	1425.60
	53	4.9	4.00363E-001	1.11141E-005	0.00000E+000	4.00072E-001	0.00000E+000	9	...........	1425.60
	54	5	4.00361E-001	1.10423E-005	0.00000E+000	4.00072E-001	0.00000E+000	9	...........	1425.60
	55	5.1	4.00359E-001	1.09912E-005	0.00000E+000	4.00072E-001	0.00000E+000	9	...........	1425.60
	56	5.2	4.00355E-001	1.08715E-005	0.00000E+000	4.00072E-001	0.00000E+000	9	...........	1425.60
	57	5.3	4.00362E-001	1.07759E-005	0.00000E+000	4.00072E-001	0.00000E+000	9	...........	1425.60
	58	5.4	4.00353E-001	1.06342E-005	0.00000E+000	4.00072E-001	0.00000E+000	9	...........	1425.60
	59	5.5	4.00349E-001	1.06081E-005	0.00000E+000	4.00072E-001	0.00000E+000	9	...........	1425.60
	60	5.6	4.00367E-001	1.04625E-005	0.00000E+000	4.00072E-001	0.00000E+000	9	...........	1425.69
	61	5.7	4.00362E-001	1.04007E-005	0.00000E+000	4.00072E-001	0.00000E+000	9	...........	1425.69
	62	5.8	4.00373E-001	1.03175E-005	0.00000E+000	4.00072E-001	0.00000E+000	9	...........	1425.69
	63	5.9	4.00363E-001	1.02562E-005	0.00000E+000	4.00072E-001	0.00000E+000	9	...........	1425.69
	64	6	4.00364E-001	1.01826E-005	0.00000E+000	4.00072E-001	0.00000E+000	9	...........	1425.69
	65	6.1	4.00367E-001	1.01290E-005	0.00000E+000	4.00072E-001	0.00000E+000	9	...........	1425.69
	66	7.1	4.00351E-001	9.50302E-006	0.00000E+000	4.00072E-001	0.00000E+000	9	...........	1425.60
	67	8.1	4.00356E-001	8.96480E-006	0.00000E+000	4.00072E-001	0.00000E+000	9	...........	1425.95
	68	9.1	4.00358E-001	8.47703E-006	0.00000E+000	4.00072E-001	0.00000E+000	9	...........	1426.04
	69	10.1	4.00358E-001	8.12330E-006	0.00000E+000	4.00072E-001	0.00000E+000	9	...........	1426.04
	70	11.1	4.00346E-001	7.80517E-006	0.00000E+000	4.00072E-001	0.00000E+000	9	...........	1426.04
	71	12.1	4.00354E-001	7.53112E-006	0.00000E+000	4.00072E-001	0.00000E+000	9	...........	1426.04
	72	13.1	4.00359E-001	7.29181E-006	0.00000E+000	4.00072E-001	0.00000E+000	9	...........	1426.04
	73	14.1	4.00369E-001	6.96520E-006	0.00000E+000	4.00072E-001	0.00000E+000	9	...........	1426.04
	74	15.1	4.00360E-001	6.84024E-006	0.00000E+000	4.00072E-001	0.00000E+000	9	...........	1426.04
	75	16.1	4.00362E-001	6.58408E-006	0.00000E+000	4.00072E-001	0.00000E+000	9	...........	1426.04
	76	26.1	4.00359E-001	5.68895E-006	0.00000E+000	4.00072E-001	0.00000E+000	9	...........	1425.95
	77	36.1	4.00368E-001	4.99874E-006	0.00000E+000	4.00072E-001	0.00000E+000	9	...........	1426.04
	78	46.1	4.00360E-001	4.16398E-006	0.00000E+000	4.00072E-001	0.00000E+000	9	...........	1426.04
	79	56.1	4.00365E-001	3.87772E-006	0.00000E+000	4.00072E-001	0.00000E+000	9	...........	1426.04
	80	66.1	4.00366E-001	3.95937E-006	0.00000E+000	4.00072E-001	0.00000E+000	9	...........	1426.13
	81	76.1	4.00363E-001	3.29565E-006	0.00000E+000	4.00072E-001	0.00000E+000	9	...........	1426.04
	82	86.1	4.00351E-001	3.45528E-006	0.00000E+000	4.00072E-001	0.00000E+000	9	...........	1426.04
	83	96.1	4.00360E-001	3.14403E-006	0.00000E+000	4.00072E-001	0.00000E+000	9	...........	1426.04
	84	106.1	4.00358E-001	3.31273E-006	0.00000E+000	4.00072E-001	0.00000E+000	9	...........	1426.04
	85	116.1	4.00363E-001	2.80791E-006	0.00000E+000	4.00072E-001	0.00000E+000	9	...........	1426.04
	86	216.1	4.00354E-001	2.59710E-006	0.00000E+000	4.00072E-001	0.00000E+000	9	...........	1426.04
	87	300	4.00346E-001	2.26078E-006	0.00000E+000	4.00072E-001	0.00000E+000	9	...........	1426.04
	88	300.1	3.00304E-001	-1.63147E-006	0.00000E+000	3.00072E-001	0.00000E+000	9	...........	1426.04
	89	300.2	3.00301E-001	-7.28870E-007	0.00000E+000	3.00072E-001	0.00000E+000	9	...........	1426.04
	90	300.3	3.00312E-001	-4.26591E-007	0.00000E+000	3.00072E-001	0.00000E+000	9	...........	1426.04
	91	300.4	3.00308E-001	-2.83577E-007	0.00000E+000	3.00072E-001	0.00000E+000	9	...........	1426.04
	92	300.5	3.00328E-001	-1.95386E-007	0.00000E+000	3.00072E-001	0.00000E+000	9	...........	1426.04
	93	300.6	3.00316E-001	-1.23145E-007	0.00000E+000	3.00072E-001	0.00000E+000	9	...........	1426.04
	94	300.7	3.00316E-001	-6.79212E-008	0.00000E+000	3.00072E-001	0.00000E+000	9	...........	1426.04
	95	300.8	3.00320E-001	-3.06828E-008	0.00000E+000	3.00072E-001	0.00000E+000	9	...........	1426.04
	96	300.9	3.00316E-001	-3.12095E-009	0.00000E+000	3.00072E-001	0.00000E+000	9	...........	1426.04
	97	301	3.00314E-001	2.43407E-008	0.00000E+000	3.00072E-001	0.00000E+000	9	...........	1426.04
