EXPLAIN
TAG	CHRONOA
TITLE	LABEL	Chronoamperometry Scan	Test Identifier
DATE	LABEL	24/3/2022	Date
TIME	LABEL	11:21:16	Time
NOTES	NOTES	1	Notes...
	
PSTAT	PSTAT	IFC1010-21051	Potentiostat
VPRESTEP	POTEN	-3.00000E-001	F	Pre-step Voltage (V)
TPRESTEP	QUANT	5.00000E-001	Pre-step Delay Time (s)
VSTEP1	POTEN	-4.00000E-001	F	Step 1 Voltage (V)
TSTEP1	QUANT	3.00000E+002	Step 1 Time (s)
VSTEP2	POTEN	-5.00000E-001	F	Step 2 Voltage (V)
TSTEP2	QUANT	1.00000E+000	Step 2 Time (s)
SAMPLETIME	QUANT	1.00000E-001	Sample Period (s)
DECIMATE	TOGGLE	T	Decimate
ILIMIT	QUANT	1.00000E+000	Limit I (mA/cm^2)
IMODE	SELECTOR	1	I/E Range Mode
IRANGE	QUANT	3.00000E-001	Max Current (mA)
EQDELAY	QUANT	5.00000E+000	Equil. Time (s)
SAMPLINGMODE	SELECTOR	1	Sampling Mode
AREA	QUANT	1.00000E+000	Sample Area (cm^2)
IRCOMP	SELECTOR	0	IRComp
PFCOR	QUANT	5.00000E+001	PF Corr. (ohm)
SEQUENCER	TOGGLE	TRUE	Run as Sequence
PSTATMODEL	IQUANT	64	Pstat Model
PSTATSECTION	LABEL	IFC1010-21051	Pstat Section
PSTATSERIALNO	LABEL	21051	Pstat Serial Number
CTRLMODE	IQUANT	1	Control Mode
ELECTROMETER	IQUANT	0	RE=0 or CS=1
IESTAB	IQUANT	0	I/E Stability
CASPEED	IQUANT	4	Control Amp Speed
CONVENTION	IQUANT	1	Current Convention
ICHRANGE	IQUANT	2	Ich Range
ICHRANGEMODE	TOGGLE	T	Ich Auto Range
ICHOFFSETENABLE	TOGGLE	F	Ich Offset Enable
ICHOFFSET	QUANT	0	Ich Offset (V)
ICHFILTER	IQUANT	3	Ich Filter
VCHRANGE	IQUANT	3	Vch Range
VCHRANGEMODE	TOGGLE	T	Vch Auto Range
VCHOFFSETENABLE	TOGGLE	F	Vch Offset Enable
VCHOFFSET	QUANT	0	Vch Offset (V)
VCHFILTER	IQUANT	3	Vch Filter
IERANGELOWERLIMIT	IQUANT	4	I/E Range Lower Limit
IERANGEMODE	TOGGLE	F	I/E AutoRange
IERANGE	IQUANT	9	I/E Range
ACHSELECT	IQUANT	0	Ach Select
ACHRANGE	IQUANT	2	Ach Range
ACHOFFSETENABLE	TOGGLE	F	Ach Offset Enable
ACHOFFSET	QUANT	0	Ach Offset (V)
ACHFILTER	IQUANT	1	Ach Filter
SENSECABLEID	IQUANT	14	Sense Cable ID
PWRCABLEID	IQUANT	14	Power Cable ID
DCCALDATE	LABEL	1/24/2022	DC Calibration Date
ACCALDATE	LABEL	4/2/2018	AC Calibration Date
FRAMEWORKVERSION	QUANT	7.06	Framework Version
INSTRUMENTVERSION	LABEL	4.30	Instrument Version
CURVE	TABLE	98
	Pt	T	Vf	Im	Vu	Sig	Ach	IERange	Over	Temp
	#	s	V vs. Ref.	A	V	V	V	#	bits	deg C
	0	-0.4	-3.01185E-001	-3.85448E-005	0.00000E+000	-3.00011E-001	0.00000E+000	9	...........	1425.51
	1	-0.3	-3.00660E-001	-3.84121E-005	0.00000E+000	-3.00011E-001	0.00000E+000	9	...........	1425.51
	2	-0.2	-3.00671E-001	-3.82844E-005	0.00000E+000	-3.00011E-001	0.00000E+000	9	...........	1425.51
	3	-0.1	-3.00651E-001	-3.81350E-005	0.00000E+000	-3.00011E-001	0.00000E+000	9	...........	1425.51
	4	0	-3.00657E-001	-3.80005E-005	0.00000E+000	-3.00011E-001	0.00000E+000	9	...........	1425.51
	5	0.1	-4.00698E-001	-3.68624E-004	0.00000E+000	-4.00011E-001	0.00000E+000	9	...........	1425.51
	6	0.2	-4.00702E-001	-3.19271E-004	0.00000E+000	-4.00011E-001	0.00000E+000	9	...........	1425.51
	7	0.3	-4.00696E-001	-2.84146E-004	0.00000E+000	-4.00011E-001	0.00000E+000	9	...........	1425.51
	8	0.4	-4.00696E-001	-2.57383E-004	0.00000E+000	-4.00011E-001	0.00000E+000	9	...........	1425.51
	9	0.5	-4.00697E-001	-2.36284E-004	0.00000E+000	-4.00011E-001	0.00000E+000	9	...........	1425.51
	10	0.6	-4.00699E-001	-2.19364E-004	0.00000E+000	-4.00011E-001	0.00000E+000	9	...........	1425.60
	11	0.7	-4.00697E-001	-2.05611E-004	0.00000E+000	-4.00011E-001	0.00000E+000	9	...........	1425.60
	12	0.8	-4.00706E-001	-1.94139E-004	0.00000E+000	-4.00011E-001	0.00000E+000	9	...........	1425.60
	13	0.9	-4.00711E-001	-1.84507E-004	0.00000E+000	-4.00011E-001	0.00000E+000	9	...........	1425.60
	14	1	-4.00698E-001	-1.76354E-004	0.00000E+000	-4.00011E-001	0.00000E+000	9	...........	1425.60
	15	1.1	-4.00692E-001	-1.69311E-004	0.00000E+000	-4.00011E-001	0.00000E+000	9	...........	1425.60
	16	1.2	-4.00699E-001	-1.63206E-004	0.00000E+000	-4.00011E-001	0.00000E+000	9	...........	1425.60
	17	1.3	-4.00704E-001	-1.57916E-004	0.00000E+000	-4.00011E-001	0.00000E+000	9	...........	1425.60
	18	1.4	-4.00709E-001	-1.53196E-004	0.00000E+000	-4.00011E-001	0.00000E+000	9	...........	1425.60
	19	1.5	-4.00695E-001	-1.49034E-004	0.00000E+000	-4.00011E-001	0.00000E+000	9	...........	1425.60
	20	1.6	-4.00689E-001	-1.45311E-004	0.00000E+000	-4.00011E-001	0.00000E+000	9	...........	1425.51
	21	1.7	-4.00704E-001	-1.41968E-004	0.00000E+000	-4.00011E-001	0.00000E+000	9	...........	1425.51
	22	1.8	-4.00695E-001	-1.38946E-004	0.00000E+000	-4.00011E-001	0.00000E+000	9	...........	1425.51
	23	1.9	-4.00700E-001	-1.36201E-004	0.00000E+000	-4.00011E-001	0.00000E+000	9	...........	1425.51
	24	2	-4.00700E-001	-1.33683E-004	0.00000E+000	-4.00011E-001	0.00000E+000	9	...........	1425.51
	25	2.1	-4.00705E-001	-1.31368E-004	0.00000E+000	-4.00011E-001	0.00000E+000	9	...........	1425.51
	26	2.2	-4.00696E-001	-1.29228E-004	0.00000E+000	-4.00011E-001	0.00000E+000	9	...........	1425.51
	27	2.3	-4.00700E-001	-1.27280E-004	0.00000E+000	-4.00011E-001	0.00000E+000	9	...........	1425.51
	28	2.4	-4.00701E-001	-1.25442E-004	0.00000E+000	-4.00011E-001	0.00000E+000	9	...........	1425.51
	29	2.5	-4.00703E-001	-1.23757E-004	0.00000E+000	-4.00011E-001	0.00000E+000	9	...........	1425.51
	30	2.6	-4.00705E-001	-1.22176E-004	0.00000E+000	-4.00011E-001	0.00000E+000	9	...........	1425.60
	31	2.7	-4.00702E-001	-1.20713E-004	0.00000E+000	-4.00011E-001	0.00000E+000	9	...........	1425.60
	32	2.8	-4.00692E-001	-1.19320E-004	0.00000E+000	-4.00011E-001	0.00000E+000	9	...........	1425.60
	33	2.9	-4.00698E-001	-1.18030E-004	0.00000E+000	-4.00011E-001	0.00000E+000	9	...........	1425.60
	34	3	-4.00694E-001	-1.16843E-004	0.00000E+000	-4.00011E-001	0.00000E+000	9	...........	1425.60
	35	3.1	-4.00699E-001	-1.15673E-004	0.00000E+000	-4.00011E-001	0.00000E+000	9	...........	1425.60
	36	3.2	-4.00695E-001	-1.14606E-004	0.00000E+000	-4.00011E-001	0.00000E+000	9	...........	1425.60
	37	3.3	-4.00699E-001	-1.13536E-004	0.00000E+000	-4.00011E-001	0.00000E+000	9	...........	1425.60
	38	3.4	-4.00704E-001	-1.12626E-004	0.00000E+000	-4.00011E-001	0.00000E+000	9	...........	1425.60
	39	3.5	-4.00700E-001	-1.11717E-004	0.00000E+000	-4.00011E-001	0.00000E+000	9	...........	1425.60
	40	3.6	-4.00702E-001	-1.10817E-004	0.00000E+000	-4.00011E-001	0.00000E+000	9	...........	1425.51
	41	3.7	-4.00718E-001	-1.09991E-004	0.00000E+000	-4.00011E-001	0.00000E+000	9	...........	1425.51
	42	3.8	-4.00721E-001	-1.09174E-004	0.00000E+000	-4.00011E-001	0.00000E+000	9	...........	1425.51
	43	3.9	-4.00690E-001	-1.08380E-004	0.00000E+000	-4.00011E-001	0.00000E+000	9	...........	1425.51
	44	4	-4.00691E-001	-1.07650E-004	0.00000E+000	-4.00011E-001	0.00000E+000	9	...........	1425.51
	45	4.1	-4.00690E-001	-1.06986E-004	0.00000E+000	-4.00011E-001	0.00000E+000	9	...........	1425.51
	46	4.2	-4.00686E-001	-1.06269E-004	0.00000E+000	-4.00011E-001	0.00000E+000	9	...........	1425.51
	47	4.3	-4.00697E-001	-1.05619E-004	0.00000E+000	-4.00011E-001	0.00000E+000	9	...........	1425.51
	48	4.4	-4.00703E-001	-1.05009E-004	0.00000E+000	-4.00011E-001	0.00000E+000	9	...........	1425.51
	49	4.5	-4.00691E-001	-1.04389E-004	0.00000E+000	-4.00011E-001	0.00000E+000	9	...........	1425.51
	50	4.6	-4.00702E-001	-1.03750E-004	0.00000E+000	-4.00011E-001	0.00000E+000	9	...........	1425.60
	51	4.7	-4.00699E-001	-1.03229E-004	0.00000E+000	-4.00011E-001	0.00000E+000	9	...........	1425.60
	52	4.8	-4.00696E-001	-1.02647E-004	0.00000E+000	-4.00011E-001	0.00000E+000	9	...........	1425.60
	53	4.9	-4.00695E-001	-1.02114E-004	0.00000E+000	-4.00011E-001	0.00000E+000	9	...........	1425.60
	54	5	-4.00705E-001	-1.01588E-004	0.00000E+000	-4.00011E-001	0.00000E+000	9	...........	1425.60
	55	5.1	-4.00700E-001	-1.01115E-004	0.00000E+000	-4.00011E-001	0.00000E+000	9	...........	1425.60
	56	5.2	-4.00700E-001	-1.00634E-004	0.00000E+000	-4.00011E-001	0.00000E+000	9	...........	1425.60
	57	5.3	-4.00709E-001	-1.00183E-004	0.00000E+000	-4.00011E-001	0.00000E+000	9	...........	1425.60
	58	5.4	-4.00710E-001	-9.97494E-005	0.00000E+000	-4.00011E-001	0.00000E+000	9	...........	1425.60
	59	5.5	-4.00688E-001	-9.92910E-005	0.00000E+000	-4.00011E-001	0.00000E+000	9	...........	1425.60
	60	5.6	-4.00706E-001	-9.88890E-005	0.00000E+000	-4.00011E-001	0.00000E+000	9	...........	1425.51
	61	5.7	-4.00707E-001	-9.85128E-005	0.00000E+000	-4.00011E-001	0.00000E+000	9	...........	1425.51
	62	5.8	-4.00694E-001	-9.81207E-005	0.00000E+000	-4.00011E-001	0.00000E+000	9	...........	1425.51
	63	5.9	-4.00693E-001	-9.77311E-005	0.00000E+000	-4.00011E-001	0.00000E+000	9	...........	1425.51
	64	6	-4.00701E-001	-9.73312E-005	0.00000E+000	-4.00011E-001	0.00000E+000	9	...........	1425.51
	65	6.1	-4.00695E-001	-9.69989E-005	0.00000E+000	-4.00011E-001	0.00000E+000	9	...........	1425.51
	66	7.1	-4.00705E-001	-9.37879E-005	0.00000E+000	-4.00011E-001	0.00000E+000	9	...........	1425.60
	67	8.1	-4.00703E-001	-9.12996E-005	0.00000E+000	-4.00011E-001	0.00000E+000	9	...........	1425.60
	68	9.1	-4.00705E-001	-8.92517E-005	0.00000E+000	-4.00011E-001	0.00000E+000	9	...........	1425.60
	69	10.1	-4.00694E-001	-8.75175E-005	0.00000E+000	-4.00011E-001	0.00000E+000	9	...........	1425.60
	70	11.1	-4.00702E-001	-8.58805E-005	0.00000E+000	-4.00011E-001	0.00000E+000	9	...........	1425.60
	71	12.1	-4.00695E-001	-8.43827E-005	0.00000E+000	-4.00011E-001	0.00000E+000	9	...........	1425.60
	72	13.1	-4.00693E-001	-8.31414E-005	0.00000E+000	-4.00011E-001	0.00000E+000	9	...........	1425.60
	73	14.1	-4.00689E-001	-8.19189E-005	0.00000E+000	-4.00011E-001	0.00000E+000	9	...........	1425.60
	74	15.1	-4.00704E-001	-8.08036E-005	0.00000E+000	-4.00011E-001	0.00000E+000	9	...........	1425.60
	75	16.1	-4.00690E-001	-7.96253E-005	0.00000E+000	-4.00011E-001	0.00000E+000	9	...........	1425.60
	76	26.1	-4.00696E-001	-7.25702E-005	0.00000E+000	-4.00011E-001	0.00000E+000	9	...........	1425.69
	77	36.1	-4.00703E-001	-6.76490E-005	0.00000E+000	-4.00011E-001	0.00000E+000	9	...........	1425.69
	78	46.1	-4.00693E-001	-6.49409E-005	0.00000E+000	-4.00011E-001	0.00000E+000	9	...........	1425.69
	79	56.1	-4.00704E-001	-6.20750E-005	0.00000E+000	-4.00011E-001	0.00000E+000	9	...........	1425.69
	80	66.1	-4.00696E-001	-6.03968E-005	0.00000E+000	-4.00011E-001	0.00000E+000	9	...........	1425.69
	81	76.1	-4.00716E-001	-5.89068E-005	0.00000E+000	-4.00011E-001	0.00000E+000	9	...........	1425.69
	82	86.1	-4.00699E-001	-5.71562E-005	0.00000E+000	-4.00011E-001	0.00000E+000	9	...........	1425.69
	83	96.1	-4.00704E-001	-5.64049E-005	0.00000E+000	-4.00011E-001	0.00000E+000	9	...........	1425.69
	84	106.1	-4.00689E-001	-5.49678E-005	0.00000E+000	-4.00011E-001	0.00000E+000	9	...........	1425.69
	85	116.1	-4.00694E-001	-5.42839E-005	0.00000E+000	-4.00011E-001	0.00000E+000	9	...........	1425.69
	86	216.1	-4.00696E-001	-4.87899E-005	0.00000E+000	-4.00011E-001	0.00000E+000	9	...........	1425.69
	87	300	-4.00702E-001	-4.70355E-005	0.00000E+000	-4.00011E-001	0.00000E+000	9	...........	1425.78
	88	300.1	-5.00714E-001	-3.95705E-004	0.00000E+000	-5.00010E-001	0.00000E+000	9	...........	1425.78
	89	300.2	-5.00718E-001	-3.39472E-004	0.00000E+000	-5.00010E-001	0.00000E+000	9	...........	1425.78
	90	300.3	-5.00709E-001	-3.00020E-004	0.00000E+000	-5.00010E-001	0.00000E+000	9	...........	1425.78
	91	300.4	-5.00709E-001	-2.70651E-004	0.00000E+000	-5.00010E-001	0.00000E+000	9	...........	1425.78
	92	300.5	-5.00699E-001	-2.48179E-004	0.00000E+000	-5.00010E-001	0.00000E+000	9	...........	1425.78
	93	300.6	-5.00702E-001	-2.30798E-004	0.00000E+000	-5.00010E-001	0.00000E+000	9	...........	1425.69
	94	300.7	-5.00708E-001	-2.17153E-004	0.00000E+000	-5.00010E-001	0.00000E+000	9	...........	1425.69
	95	300.8	-5.00703E-001	-2.06210E-004	0.00000E+000	-5.00010E-001	0.00000E+000	9	...........	1425.69
	96	300.9	-5.00708E-001	-1.97450E-004	0.00000E+000	-5.00010E-001	0.00000E+000	9	...........	1425.69
	97	301	-5.00695E-001	-1.90293E-004	0.00000E+000	-5.00010E-001	0.00000E+000	9	...........	1425.69
