EXPLAIN
TAG	CHRONOA
TITLE	LABEL	Chronoamperometry Scan	Test Identifier
DATE	LABEL	24/3/2022	Date
TIME	LABEL	12:10:49	Time
NOTES	NOTES	1	Notes...
	
PSTAT	PSTAT	IFC1010-21051	Potentiostat
VPRESTEP	POTEN	-3.00000E-001	F	Pre-step Voltage (V)
TPRESTEP	QUANT	5.00000E-001	Pre-step Delay Time (s)
VSTEP1	POTEN	-4.00000E-001	F	Step 1 Voltage (V)
TSTEP1	QUANT	3.00000E+002	Step 1 Time (s)
VSTEP2	POTEN	-5.00000E-001	F	Step 2 Voltage (V)
TSTEP2	QUANT	1.00000E+000	Step 2 Time (s)
SAMPLETIME	QUANT	1.00000E-001	Sample Period (s)
DECIMATE	TOGGLE	T	Decimate
ILIMIT	QUANT	1.00000E+000	Limit I (mA/cm^2)
IMODE	SELECTOR	1	I/E Range Mode
IRANGE	QUANT	3.00000E-001	Max Current (mA)
EQDELAY	QUANT	5.00000E+000	Equil. Time (s)
SAMPLINGMODE	SELECTOR	1	Sampling Mode
AREA	QUANT	1.00000E+000	Sample Area (cm^2)
IRCOMP	SELECTOR	0	IRComp
PFCOR	QUANT	5.00000E+001	PF Corr. (ohm)
SEQUENCER	TOGGLE	TRUE	Run as Sequence
PSTATMODEL	IQUANT	64	Pstat Model
PSTATSECTION	LABEL	IFC1010-21051	Pstat Section
PSTATSERIALNO	LABEL	21051	Pstat Serial Number
CTRLMODE	IQUANT	1	Control Mode
ELECTROMETER	IQUANT	0	RE=0 or CS=1
IESTAB	IQUANT	0	I/E Stability
CASPEED	IQUANT	4	Control Amp Speed
CONVENTION	IQUANT	1	Current Convention
ICHRANGE	IQUANT	2	Ich Range
ICHRANGEMODE	TOGGLE	T	Ich Auto Range
ICHOFFSETENABLE	TOGGLE	F	Ich Offset Enable
ICHOFFSET	QUANT	0	Ich Offset (V)
ICHFILTER	IQUANT	3	Ich Filter
VCHRANGE	IQUANT	3	Vch Range
VCHRANGEMODE	TOGGLE	T	Vch Auto Range
VCHOFFSETENABLE	TOGGLE	F	Vch Offset Enable
VCHOFFSET	QUANT	0	Vch Offset (V)
VCHFILTER	IQUANT	3	Vch Filter
IERANGELOWERLIMIT	IQUANT	4	I/E Range Lower Limit
IERANGEMODE	TOGGLE	F	I/E AutoRange
IERANGE	IQUANT	9	I/E Range
ACHSELECT	IQUANT	0	Ach Select
ACHRANGE	IQUANT	2	Ach Range
ACHOFFSETENABLE	TOGGLE	F	Ach Offset Enable
ACHOFFSET	QUANT	0	Ach Offset (V)
ACHFILTER	IQUANT	1	Ach Filter
SENSECABLEID	IQUANT	14	Sense Cable ID
PWRCABLEID	IQUANT	14	Power Cable ID
DCCALDATE	LABEL	1/24/2022	DC Calibration Date
ACCALDATE	LABEL	4/2/2018	AC Calibration Date
FRAMEWORKVERSION	QUANT	7.06	Framework Version
INSTRUMENTVERSION	LABEL	4.30	Instrument Version
CURVE	TABLE	98
	Pt	T	Vf	Im	Vu	Sig	Ach	IERange	Over	Temp
	#	s	V vs. Ref.	A	V	V	V	#	bits	deg C
	0	-0.4	-3.01262E-001	-4.78844E-005	0.00000E+000	-3.00011E-001	0.00000E+000	9	...........	1425.87
	1	-0.3	-3.00670E-001	-4.76887E-005	0.00000E+000	-3.00011E-001	0.00000E+000	9	...........	1425.87
	2	-0.2	-3.00675E-001	-4.74688E-005	0.00000E+000	-3.00011E-001	0.00000E+000	9	...........	1425.87
	3	-0.1	-3.00664E-001	-4.72634E-005	0.00000E+000	-3.00011E-001	0.00000E+000	9	...........	1425.87
	4	0	-3.00679E-001	-4.70802E-005	0.00000E+000	-3.00011E-001	0.00000E+000	9	...........	1425.87
	5	0.1	-4.00715E-001	-2.65236E-004	0.00000E+000	-4.00011E-001	0.00000E+000	9	...........	1425.87
	6	0.2	-4.00706E-001	-2.50054E-004	0.00000E+000	-4.00011E-001	0.00000E+000	9	...........	1425.87
	7	0.3	-4.00713E-001	-2.40090E-004	0.00000E+000	-4.00011E-001	0.00000E+000	9	...........	1425.87
	8	0.4	-4.00712E-001	-2.31591E-004	0.00000E+000	-4.00011E-001	0.00000E+000	9	...........	1425.87
	9	0.5	-4.00705E-001	-2.23695E-004	0.00000E+000	-4.00011E-001	0.00000E+000	9	...........	1425.87
	10	0.6	-4.00717E-001	-2.16718E-004	0.00000E+000	-4.00011E-001	0.00000E+000	9	...........	1425.87
	11	0.7	-4.00699E-001	-2.10340E-004	0.00000E+000	-4.00011E-001	0.00000E+000	9	...........	1425.87
	12	0.8	-4.00713E-001	-2.04554E-004	0.00000E+000	-4.00011E-001	0.00000E+000	9	...........	1425.87
	13	0.9	-4.00714E-001	-1.99445E-004	0.00000E+000	-4.00011E-001	0.00000E+000	9	...........	1425.87
	14	1	-4.00707E-001	-1.94566E-004	0.00000E+000	-4.00011E-001	0.00000E+000	9	...........	1425.87
	15	1.1	-4.00717E-001	-1.90229E-004	0.00000E+000	-4.00011E-001	0.00000E+000	9	...........	1425.87
	16	1.2	-4.00707E-001	-1.86067E-004	0.00000E+000	-4.00011E-001	0.00000E+000	9	...........	1425.87
	17	1.3	-4.00704E-001	-1.82492E-004	0.00000E+000	-4.00011E-001	0.00000E+000	9	...........	1425.60
	18	1.4	-4.00708E-001	-1.79176E-004	0.00000E+000	-4.00011E-001	0.00000E+000	9	...........	1425.60
	19	1.5	-4.00717E-001	-1.75941E-004	0.00000E+000	-4.00011E-001	0.00000E+000	9	...........	1425.60
	20	1.6	-4.00729E-001	-1.72940E-004	0.00000E+000	-4.00011E-001	0.00000E+000	9	...........	1425.60
	21	1.7	-4.00716E-001	-1.70155E-004	0.00000E+000	-4.00011E-001	0.00000E+000	9	...........	1425.60
	22	1.8	-4.00724E-001	-1.67563E-004	0.00000E+000	-4.00011E-001	0.00000E+000	9	...........	1425.60
	23	1.9	-4.00714E-001	-1.65139E-004	0.00000E+000	-4.00011E-001	0.00000E+000	9	...........	1425.60
	24	2	-4.00709E-001	-1.62818E-004	0.00000E+000	-4.00011E-001	0.00000E+000	9	...........	1425.60
	25	2.1	-4.00716E-001	-1.60606E-004	0.00000E+000	-4.00011E-001	0.00000E+000	9	...........	1425.60
	26	2.2	-4.00725E-001	-1.58556E-004	0.00000E+000	-4.00011E-001	0.00000E+000	9	...........	1425.60
	27	2.3	-4.00707E-001	-1.56597E-004	0.00000E+000	-4.00011E-001	0.00000E+000	9	...........	1425.69
	28	2.4	-4.00723E-001	-1.54798E-004	0.00000E+000	-4.00011E-001	0.00000E+000	9	...........	1425.69
	29	2.5	-4.00723E-001	-1.53037E-004	0.00000E+000	-4.00011E-001	0.00000E+000	9	...........	1425.69
	30	2.6	-4.00710E-001	-1.51337E-004	0.00000E+000	-4.00011E-001	0.00000E+000	9	...........	1425.69
	31	2.7	-4.00721E-001	-1.49798E-004	0.00000E+000	-4.00011E-001	0.00000E+000	9	...........	1425.69
	32	2.8	-4.00721E-001	-1.48440E-004	0.00000E+000	-4.00011E-001	0.00000E+000	9	...........	1425.69
	33	2.9	-4.00723E-001	-1.46987E-004	0.00000E+000	-4.00011E-001	0.00000E+000	9	...........	1425.69
	34	3	-4.00710E-001	-1.45600E-004	0.00000E+000	-4.00011E-001	0.00000E+000	9	...........	1425.69
	35	3.1	-4.00715E-001	-1.44253E-004	0.00000E+000	-4.00011E-001	0.00000E+000	9	...........	1425.69
	36	3.2	-4.00701E-001	-1.42945E-004	0.00000E+000	-4.00011E-001	0.00000E+000	9	...........	1425.69
	37	3.3	-4.00709E-001	-1.41710E-004	0.00000E+000	-4.00011E-001	0.00000E+000	9	...........	1425.69
	38	3.4	-4.00709E-001	-1.40562E-004	0.00000E+000	-4.00011E-001	0.00000E+000	9	...........	1425.69
	39	3.5	-4.00706E-001	-1.39398E-004	0.00000E+000	-4.00011E-001	0.00000E+000	9	...........	1425.69
	40	3.6	-4.00719E-001	-1.38237E-004	0.00000E+000	-4.00011E-001	0.00000E+000	9	...........	1425.69
	41	3.7	-4.00713E-001	-1.37148E-004	0.00000E+000	-4.00011E-001	0.00000E+000	9	...........	1425.69
	42	3.8	-4.00723E-001	-1.36136E-004	0.00000E+000	-4.00011E-001	0.00000E+000	9	...........	1425.69
	43	3.9	-4.00728E-001	-1.35120E-004	0.00000E+000	-4.00011E-001	0.00000E+000	9	...........	1425.69
	44	4	-4.00722E-001	-1.34159E-004	0.00000E+000	-4.00011E-001	0.00000E+000	9	...........	1425.69
	45	4.1	-4.00712E-001	-1.33223E-004	0.00000E+000	-4.00011E-001	0.00000E+000	9	...........	1425.69
	46	4.2	-4.00703E-001	-1.32304E-004	0.00000E+000	-4.00011E-001	0.00000E+000	9	...........	1425.69
	47	4.3	-4.00711E-001	-1.31482E-004	0.00000E+000	-4.00011E-001	0.00000E+000	9	...........	1425.87
	48	4.4	-4.00718E-001	-1.30609E-004	0.00000E+000	-4.00011E-001	0.00000E+000	9	...........	1425.87
	49	4.5	-4.00721E-001	-1.29786E-004	0.00000E+000	-4.00011E-001	0.00000E+000	9	...........	1425.87
	50	4.6	-4.00713E-001	-1.28964E-004	0.00000E+000	-4.00011E-001	0.00000E+000	9	...........	1425.87
	51	4.7	-4.00708E-001	-1.28165E-004	0.00000E+000	-4.00011E-001	0.00000E+000	9	...........	1425.87
	52	4.8	-4.00714E-001	-1.27421E-004	0.00000E+000	-4.00011E-001	0.00000E+000	9	...........	1425.87
	53	4.9	-4.00710E-001	-1.26656E-004	0.00000E+000	-4.00011E-001	0.00000E+000	9	...........	1425.87
	54	5	-4.00712E-001	-1.25894E-004	0.00000E+000	-4.00011E-001	0.00000E+000	9	...........	1425.87
	55	5.1	-4.00709E-001	-1.25202E-004	0.00000E+000	-4.00011E-001	0.00000E+000	9	...........	1425.87
	56	5.2	-4.00719E-001	-1.24549E-004	0.00000E+000	-4.00011E-001	0.00000E+000	9	...........	1425.87
	57	5.3	-4.00721E-001	-1.23906E-004	0.00000E+000	-4.00011E-001	0.00000E+000	9	...........	1425.78
	58	5.4	-4.00712E-001	-1.23268E-004	0.00000E+000	-4.00011E-001	0.00000E+000	9	...........	1425.78
	59	5.5	-4.00718E-001	-1.22603E-004	0.00000E+000	-4.00011E-001	0.00000E+000	9	...........	1425.78
	60	5.6	-4.00710E-001	-1.22003E-004	0.00000E+000	-4.00011E-001	0.00000E+000	9	...........	1425.78
	61	5.7	-4.00720E-001	-1.21460E-004	0.00000E+000	-4.00011E-001	0.00000E+000	9	...........	1425.78
	62	5.8	-4.00724E-001	-1.20863E-004	0.00000E+000	-4.00011E-001	0.00000E+000	9	...........	1425.78
	63	5.9	-4.00717E-001	-1.20311E-004	0.00000E+000	-4.00011E-001	0.00000E+000	9	...........	1425.78
	64	6	-4.00715E-001	-1.19766E-004	0.00000E+000	-4.00011E-001	0.00000E+000	9	...........	1425.78
	65	6.1	-4.00722E-001	-1.19200E-004	0.00000E+000	-4.00011E-001	0.00000E+000	9	...........	1425.78
	66	7.1	-4.00718E-001	-1.14465E-004	0.00000E+000	-4.00011E-001	0.00000E+000	9	...........	1425.42
	67	8.1	-4.00720E-001	-1.10540E-004	0.00000E+000	-4.00011E-001	0.00000E+000	9	...........	1425.87
	68	9.1	-4.00706E-001	-1.07309E-004	0.00000E+000	-4.00011E-001	0.00000E+000	9	...........	1425.87
	69	10.1	-4.00722E-001	-1.04513E-004	0.00000E+000	-4.00011E-001	0.00000E+000	9	...........	1425.87
	70	11.1	-4.00722E-001	-1.02071E-004	0.00000E+000	-4.00011E-001	0.00000E+000	9	...........	1425.87
	71	12.1	-4.00719E-001	-9.98351E-005	0.00000E+000	-4.00011E-001	0.00000E+000	9	...........	1425.87
	72	13.1	-4.00718E-001	-9.79123E-005	0.00000E+000	-4.00011E-001	0.00000E+000	9	...........	1425.78
	73	14.1	-4.00713E-001	-9.61642E-005	0.00000E+000	-4.00011E-001	0.00000E+000	9	...........	1425.87
	74	15.1	-4.00709E-001	-9.45866E-005	0.00000E+000	-4.00011E-001	0.00000E+000	9	...........	1425.87
	75	16.1	-4.00725E-001	-9.32125E-005	0.00000E+000	-4.00011E-001	0.00000E+000	9	...........	1425.87
	76	26.1	-4.00714E-001	-8.31494E-005	0.00000E+000	-4.00011E-001	0.00000E+000	9	...........	1425.95
	77	36.1	-4.00717E-001	-7.67557E-005	0.00000E+000	-4.00011E-001	0.00000E+000	9	...........	1425.95
	78	46.1	-4.00720E-001	-7.30617E-005	0.00000E+000	-4.00011E-001	0.00000E+000	9	...........	1425.95
	79	56.1	-4.00712E-001	-6.98525E-005	0.00000E+000	-4.00011E-001	0.00000E+000	9	...........	1425.95
	80	66.1	-4.00719E-001	-6.68310E-005	0.00000E+000	-4.00011E-001	0.00000E+000	9	...........	1425.87
	81	76.1	-4.00705E-001	-6.46546E-005	0.00000E+000	-4.00011E-001	0.00000E+000	9	...........	1425.95
	82	86.1	-4.00720E-001	-6.34040E-005	0.00000E+000	-4.00011E-001	0.00000E+000	9	...........	1425.95
	83	96.1	-4.00710E-001	-6.18861E-005	0.00000E+000	-4.00011E-001	0.00000E+000	9	...........	1425.95
	84	106.1	-4.00706E-001	-6.06324E-005	0.00000E+000	-4.00011E-001	0.00000E+000	9	...........	1425.95
	85	116.1	-4.00714E-001	-5.94468E-005	0.00000E+000	-4.00011E-001	0.00000E+000	9	...........	1426.04
	86	216.1	-4.00713E-001	-5.25249E-005	0.00000E+000	-4.00011E-001	0.00000E+000	9	...........	1425.87
	87	300	-4.00712E-001	-4.91394E-005	0.00000E+000	-4.00011E-001	0.00000E+000	9	...........	1425.95
	88	300.1	-5.00722E-001	-3.02369E-004	0.00000E+000	-5.00010E-001	0.00000E+000	9	...........	1425.95
	89	300.2	-5.00719E-001	-2.80745E-004	0.00000E+000	-5.00010E-001	0.00000E+000	9	...........	1425.95
	90	300.3	-5.00709E-001	-2.65894E-004	0.00000E+000	-5.00010E-001	0.00000E+000	9	...........	1425.95
	91	300.4	-5.00721E-001	-2.53643E-004	0.00000E+000	-5.00010E-001	0.00000E+000	9	...........	1425.95
	92	300.5	-5.00720E-001	-2.43506E-004	0.00000E+000	-5.00010E-001	0.00000E+000	9	...........	1425.95
	93	300.6	-5.00704E-001	-2.34669E-004	0.00000E+000	-5.00010E-001	0.00000E+000	9	...........	1425.95
	94	300.7	-5.00711E-001	-2.27046E-004	0.00000E+000	-5.00010E-001	0.00000E+000	9	...........	1425.95
	95	300.8	-5.00721E-001	-2.20330E-004	0.00000E+000	-5.00010E-001	0.00000E+000	9	...........	1425.95
	96	300.9	-5.00720E-001	-2.14410E-004	0.00000E+000	-5.00010E-001	0.00000E+000	9	...........	1425.95
	97	301	-5.00719E-001	-2.09113E-004	0.00000E+000	-5.00010E-001	0.00000E+000	9	...........	1425.95
