EXPLAIN
TAG	CHRONOA
TITLE	LABEL	Chronoamperometry Scan	Test Identifier
DATE	LABEL	24/3/2022	Date
TIME	LABEL	13:54:06	Time
NOTES	NOTES	1	Notes...
	
PSTAT	PSTAT	IFC1010-21051	Potentiostat
VPRESTEP	POTEN	3.00000E-001	F	Pre-step Voltage (V)
TPRESTEP	QUANT	5.00000E-001	Pre-step Delay Time (s)
VSTEP1	POTEN	4.00000E-001	F	Step 1 Voltage (V)
TSTEP1	QUANT	3.00000E+002	Step 1 Time (s)
VSTEP2	POTEN	3.00000E-001	F	Step 2 Voltage (V)
TSTEP2	QUANT	1.00000E+000	Step 2 Time (s)
SAMPLETIME	QUANT	1.00000E-001	Sample Period (s)
DECIMATE	TOGGLE	T	Decimate
ILIMIT	QUANT	1.00000E+000	Limit I (mA/cm^2)
IMODE	SELECTOR	1	I/E Range Mode
IRANGE	QUANT	3.00000E-001	Max Current (mA)
EQDELAY	QUANT	5.00000E+000	Equil. Time (s)
SAMPLINGMODE	SELECTOR	1	Sampling Mode
AREA	QUANT	1.00000E+000	Sample Area (cm^2)
IRCOMP	SELECTOR	0	IRComp
PFCOR	QUANT	5.00000E+001	PF Corr. (ohm)
SEQUENCER	TOGGLE	TRUE	Run as Sequence
PSTATMODEL	IQUANT	64	Pstat Model
PSTATSECTION	LABEL	IFC1010-21051	Pstat Section
PSTATSERIALNO	LABEL	21051	Pstat Serial Number
CTRLMODE	IQUANT	1	Control Mode
ELECTROMETER	IQUANT	0	RE=0 or CS=1
IESTAB	IQUANT	0	I/E Stability
CASPEED	IQUANT	4	Control Amp Speed
CONVENTION	IQUANT	1	Current Convention
ICHRANGE	IQUANT	2	Ich Range
ICHRANGEMODE	TOGGLE	T	Ich Auto Range
ICHOFFSETENABLE	TOGGLE	F	Ich Offset Enable
ICHOFFSET	QUANT	0	Ich Offset (V)
ICHFILTER	IQUANT	3	Ich Filter
VCHRANGE	IQUANT	3	Vch Range
VCHRANGEMODE	TOGGLE	T	Vch Auto Range
VCHOFFSETENABLE	TOGGLE	F	Vch Offset Enable
VCHOFFSET	QUANT	0	Vch Offset (V)
VCHFILTER	IQUANT	3	Vch Filter
IERANGELOWERLIMIT	IQUANT	4	I/E Range Lower Limit
IERANGEMODE	TOGGLE	F	I/E AutoRange
IERANGE	IQUANT	9	I/E Range
ACHSELECT	IQUANT	0	Ach Select
ACHRANGE	IQUANT	2	Ach Range
ACHOFFSETENABLE	TOGGLE	F	Ach Offset Enable
ACHOFFSET	QUANT	0	Ach Offset (V)
ACHFILTER	IQUANT	1	Ach Filter
SENSECABLEID	IQUANT	14	Sense Cable ID
PWRCABLEID	IQUANT	14	Power Cable ID
DCCALDATE	LABEL	1/24/2022	DC Calibration Date
ACCALDATE	LABEL	4/2/2018	AC Calibration Date
FRAMEWORKVERSION	QUANT	7.06	Framework Version
INSTRUMENTVERSION	LABEL	4.30	Instrument Version
CURVE	TABLE	98
	Pt	T	Vf	Im	Vu	Sig	Ach	IERange	Over	Temp
	#	s	V vs. Ref.	A	V	V	V	#	bits	deg C
	0	-0.4	2.99564E-001	1.57873E-005	0.00000E+000	3.00072E-001	0.00000E+000	9	...........	1425.95
	1	-0.3	3.00305E-001	1.56110E-005	0.00000E+000	3.00072E-001	0.00000E+000	9	...........	1425.95
	2	-0.2	3.00306E-001	1.54518E-005	0.00000E+000	3.00072E-001	0.00000E+000	9	...........	1425.95
	3	-0.1	3.00310E-001	1.52818E-005	0.00000E+000	3.00072E-001	0.00000E+000	9	...........	1425.95
	4	0	3.00310E-001	1.51426E-005	0.00000E+000	3.00072E-001	0.00000E+000	9	...........	1425.95
	5	0.1	4.00364E-001	2.21141E-004	0.00000E+000	4.00072E-001	0.00000E+000	9	...........	1425.95
	6	0.2	4.00369E-001	1.85175E-004	0.00000E+000	4.00072E-001	0.00000E+000	9	...........	1425.95
	7	0.3	4.00362E-001	1.59614E-004	0.00000E+000	4.00072E-001	0.00000E+000	9	...........	1425.95
	8	0.4	4.00363E-001	1.42042E-004	0.00000E+000	4.00072E-001	0.00000E+000	9	...........	1425.87
	9	0.5	4.00367E-001	1.28923E-004	0.00000E+000	4.00072E-001	0.00000E+000	9	...........	1425.87
	10	0.6	4.00364E-001	1.18902E-004	0.00000E+000	4.00072E-001	0.00000E+000	9	...........	1425.87
	11	0.7	4.00364E-001	1.10903E-004	0.00000E+000	4.00072E-001	0.00000E+000	9	...........	1425.87
	12	0.8	4.00364E-001	1.04315E-004	0.00000E+000	4.00072E-001	0.00000E+000	9	...........	1425.87
	13	0.9	4.00356E-001	9.83247E-005	0.00000E+000	4.00072E-001	0.00000E+000	9	...........	1425.87
	14	1	4.00358E-001	9.29528E-005	0.00000E+000	4.00072E-001	0.00000E+000	9	...........	1425.87
	15	1.1	4.00365E-001	8.84947E-005	0.00000E+000	4.00072E-001	0.00000E+000	9	...........	1425.87
	16	1.2	4.00360E-001	8.48071E-005	0.00000E+000	4.00072E-001	0.00000E+000	9	...........	1425.87
	17	1.3	4.00359E-001	8.14954E-005	0.00000E+000	4.00072E-001	0.00000E+000	9	...........	1425.87
	18	1.4	4.00368E-001	7.85789E-005	0.00000E+000	4.00072E-001	0.00000E+000	9	...........	1425.87
	19	1.5	4.00359E-001	7.59556E-005	0.00000E+000	4.00072E-001	0.00000E+000	9	...........	1425.87
	20	1.6	4.00370E-001	7.36517E-005	0.00000E+000	4.00072E-001	0.00000E+000	9	...........	1425.87
	21	1.7	4.00367E-001	7.15860E-005	0.00000E+000	4.00072E-001	0.00000E+000	9	...........	1425.87
	22	1.8	4.00368E-001	6.95662E-005	0.00000E+000	4.00072E-001	0.00000E+000	9	...........	1425.87
	23	1.9	4.00356E-001	6.77321E-005	0.00000E+000	4.00072E-001	0.00000E+000	9	...........	1425.87
	24	2	4.00369E-001	6.61518E-005	0.00000E+000	4.00072E-001	0.00000E+000	9	...........	1425.87
	25	2.1	4.00364E-001	6.45896E-005	0.00000E+000	4.00072E-001	0.00000E+000	9	...........	1425.87
	26	2.2	4.00366E-001	6.31743E-005	0.00000E+000	4.00072E-001	0.00000E+000	9	...........	1425.87
	27	2.3	4.00360E-001	6.17758E-005	0.00000E+000	4.00072E-001	0.00000E+000	9	...........	1425.87
	28	2.4	4.00360E-001	6.05552E-005	0.00000E+000	4.00072E-001	0.00000E+000	9	...........	1425.87
	29	2.5	4.00358E-001	5.93872E-005	0.00000E+000	4.00072E-001	0.00000E+000	9	...........	1425.87
	30	2.6	4.00363E-001	5.83008E-005	0.00000E+000	4.00072E-001	0.00000E+000	9	...........	1425.87
	31	2.7	4.00375E-001	5.72322E-005	0.00000E+000	4.00072E-001	0.00000E+000	9	...........	1425.87
	32	2.8	4.00362E-001	5.62907E-005	0.00000E+000	4.00072E-001	0.00000E+000	9	...........	1425.87
	33	2.9	4.00366E-001	5.53049E-005	0.00000E+000	4.00072E-001	0.00000E+000	9	...........	1425.87
	34	3	4.00366E-001	5.45233E-005	0.00000E+000	4.00072E-001	0.00000E+000	9	...........	1425.87
	35	3.1	4.00365E-001	5.35931E-005	0.00000E+000	4.00072E-001	0.00000E+000	9	...........	1425.87
	36	3.2	4.00353E-001	5.27376E-005	0.00000E+000	4.00072E-001	0.00000E+000	9	...........	1425.87
	37	3.3	4.00359E-001	5.19594E-005	0.00000E+000	4.00072E-001	0.00000E+000	9	...........	1425.87
	38	3.4	4.00358E-001	5.12567E-005	0.00000E+000	4.00072E-001	0.00000E+000	9	...........	1425.87
	39	3.5	4.00369E-001	5.05764E-005	0.00000E+000	4.00072E-001	0.00000E+000	9	...........	1425.87
	40	3.6	4.00358E-001	4.99952E-005	0.00000E+000	4.00072E-001	0.00000E+000	9	...........	1425.87
	41	3.7	4.00360E-001	4.93367E-005	0.00000E+000	4.00072E-001	0.00000E+000	9	...........	1425.87
	42	3.8	4.00360E-001	4.87234E-005	0.00000E+000	4.00072E-001	0.00000E+000	9	...........	1425.87
	43	3.9	4.00356E-001	4.81389E-005	0.00000E+000	4.00072E-001	0.00000E+000	9	...........	1425.87
	44	4	4.00365E-001	4.75370E-005	0.00000E+000	4.00072E-001	0.00000E+000	9	...........	1425.87
	45	4.1	4.00350E-001	4.69839E-005	0.00000E+000	4.00072E-001	0.00000E+000	9	...........	1425.87
	46	4.2	4.00353E-001	4.65392E-005	0.00000E+000	4.00072E-001	0.00000E+000	9	...........	1425.87
	47	4.3	4.00358E-001	4.59809E-005	0.00000E+000	4.00072E-001	0.00000E+000	9	...........	1425.87
	48	4.4	4.00370E-001	4.55636E-005	0.00000E+000	4.00072E-001	0.00000E+000	9	...........	1425.87
	49	4.5	4.00372E-001	4.50939E-005	0.00000E+000	4.00072E-001	0.00000E+000	9	...........	1425.87
	50	4.6	4.00356E-001	4.45372E-005	0.00000E+000	4.00072E-001	0.00000E+000	9	...........	1425.87
	51	4.7	4.00353E-001	4.41446E-005	0.00000E+000	4.00072E-001	0.00000E+000	9	...........	1425.87
	52	4.8	4.00362E-001	4.36260E-005	0.00000E+000	4.00072E-001	0.00000E+000	9	...........	1425.87
	53	4.9	4.00376E-001	4.32266E-005	0.00000E+000	4.00072E-001	0.00000E+000	9	...........	1425.87
	54	5	4.00361E-001	4.27938E-005	0.00000E+000	4.00072E-001	0.00000E+000	9	...........	1425.87
	55	5.1	4.00359E-001	4.24123E-005	0.00000E+000	4.00072E-001	0.00000E+000	9	...........	1425.87
	56	5.2	4.00360E-001	4.20726E-005	0.00000E+000	4.00072E-001	0.00000E+000	9	...........	1425.87
	57	5.3	4.00353E-001	4.17391E-005	0.00000E+000	4.00072E-001	0.00000E+000	9	...........	1425.87
	58	5.4	4.00359E-001	4.13507E-005	0.00000E+000	4.00072E-001	0.00000E+000	9	...........	1425.87
	59	5.5	4.00361E-001	4.11050E-005	0.00000E+000	4.00072E-001	0.00000E+000	9	...........	1425.87
	60	5.6	4.00368E-001	4.06963E-005	0.00000E+000	4.00072E-001	0.00000E+000	9	...........	1425.87
	61	5.7	4.00366E-001	4.03211E-005	0.00000E+000	4.00072E-001	0.00000E+000	9	...........	1425.87
	62	5.8	4.00363E-001	4.01125E-005	0.00000E+000	4.00072E-001	0.00000E+000	9	...........	1425.87
	63	5.9	4.00375E-001	3.97029E-005	0.00000E+000	4.00072E-001	0.00000E+000	9	...........	1425.87
	64	6	4.00368E-001	3.95679E-005	0.00000E+000	4.00072E-001	0.00000E+000	9	...........	1425.87
	65	6.1	4.00368E-001	3.93649E-005	0.00000E+000	4.00072E-001	0.00000E+000	9	...........	1425.87
	66	7.1	4.00360E-001	3.69157E-005	0.00000E+000	4.00072E-001	0.00000E+000	9	...........	1425.87
	67	8.1	4.00363E-001	3.47482E-005	0.00000E+000	4.00072E-001	0.00000E+000	9	...........	1425.87
	68	9.1	4.00366E-001	3.28230E-005	0.00000E+000	4.00072E-001	0.00000E+000	9	...........	1425.87
	69	10.1	4.00365E-001	3.09142E-005	0.00000E+000	4.00072E-001	0.00000E+000	9	...........	1425.95
	70	11.1	4.00368E-001	2.94663E-005	0.00000E+000	4.00072E-001	0.00000E+000	9	...........	1425.87
	71	12.1	4.00367E-001	2.82359E-005	0.00000E+000	4.00072E-001	0.00000E+000	9	...........	1425.87
	72	13.1	4.00365E-001	2.70335E-005	0.00000E+000	4.00072E-001	0.00000E+000	9	...........	1425.87
	73	14.1	4.00367E-001	2.64143E-005	0.00000E+000	4.00072E-001	0.00000E+000	9	...........	1425.87
	74	15.1	4.00359E-001	2.57886E-005	0.00000E+000	4.00072E-001	0.00000E+000	9	...........	1425.87
	75	16.1	4.00366E-001	2.48988E-005	0.00000E+000	4.00072E-001	0.00000E+000	9	...........	1425.87
	76	26.1	4.00362E-001	1.94438E-005	0.00000E+000	4.00072E-001	0.00000E+000	9	...........	1425.95
	77	36.1	4.00364E-001	1.31830E-005	0.00000E+000	4.00072E-001	0.00000E+000	9	...........	1425.95
	78	46.1	4.00355E-001	1.30234E-005	0.00000E+000	4.00072E-001	0.00000E+000	9	...........	1425.87
	79	56.1	4.00367E-001	1.30260E-005	0.00000E+000	4.00072E-001	0.00000E+000	9	...........	1425.87
	80	66.1	4.00371E-001	1.16424E-005	0.00000E+000	4.00072E-001	0.00000E+000	9	...........	1425.87
	81	76.1	4.00364E-001	1.13201E-005	0.00000E+000	4.00072E-001	0.00000E+000	9	...........	1425.95
	82	86.1	4.00362E-001	1.02677E-005	0.00000E+000	4.00072E-001	0.00000E+000	9	...........	1425.87
	83	96.1	4.00364E-001	1.08602E-005	0.00000E+000	4.00072E-001	0.00000E+000	9	...........	1425.87
	84	106.1	4.00354E-001	1.01061E-005	0.00000E+000	4.00072E-001	0.00000E+000	9	...........	1425.87
	85	116.1	4.00387E-001	9.10077E-006	0.00000E+000	4.00072E-001	0.00000E+000	9	...........	1425.95
	86	216.1	4.00353E-001	8.22787E-006	0.00000E+000	4.00072E-001	0.00000E+000	9	...........	1425.95
	87	300	4.00362E-001	5.53179E-006	0.00000E+000	4.00072E-001	0.00000E+000	9	...........	1425.95
	88	300.1	3.00307E-001	-9.78591E-006	0.00000E+000	3.00072E-001	0.00000E+000	9	...........	1425.95
	89	300.2	3.00309E-001	-8.84818E-006	0.00000E+000	3.00072E-001	0.00000E+000	9	...........	1425.95
	90	300.3	3.00316E-001	-8.39868E-006	0.00000E+000	3.00072E-001	0.00000E+000	9	...........	1425.95
	91	300.4	3.00321E-001	-8.27319E-006	0.00000E+000	3.00072E-001	0.00000E+000	9	...........	1425.95
	92	300.5	3.00326E-001	-8.01472E-006	0.00000E+000	3.00072E-001	0.00000E+000	9	...........	1425.95
	93	300.6	3.00321E-001	-7.80157E-006	0.00000E+000	3.00072E-001	0.00000E+000	9	...........	1425.95
	94	300.7	3.00322E-001	-7.42741E-006	0.00000E+000	3.00072E-001	0.00000E+000	9	...........	1425.95
	95	300.8	3.00343E-001	-7.14195E-006	0.00000E+000	3.00072E-001	0.00000E+000	9	...........	1425.95
	96	300.9	3.00313E-001	-7.06207E-006	0.00000E+000	3.00072E-001	0.00000E+000	9	...........	1425.95
	97	301	3.00309E-001	-6.81301E-006	0.00000E+000	3.00072E-001	0.00000E+000	9	...........	1425.95
