EXPLAIN
TAG	CHRONOA
TITLE	LABEL	Chronoamperometry Scan	Test Identifier
DATE	LABEL	24/3/2022	Date
TIME	LABEL	18:19:51	Time
NOTES	NOTES	1	Notes...
	
PSTAT	PSTAT	IFC1010-21051	Potentiostat
VPRESTEP	POTEN	-7.00000E-001	F	Pre-step Voltage (V)
TPRESTEP	QUANT	5.00000E-001	Pre-step Delay Time (s)
VSTEP1	POTEN	-8.00000E-001	F	Step 1 Voltage (V)
TSTEP1	QUANT	3.00000E+002	Step 1 Time (s)
VSTEP2	POTEN	-7.00000E-001	F	Step 2 Voltage (V)
TSTEP2	QUANT	1.00000E+000	Step 2 Time (s)
SAMPLETIME	QUANT	1.00000E-001	Sample Period (s)
DECIMATE	TOGGLE	T	Decimate
ILIMIT	QUANT	1.00000E+000	Limit I (mA/cm^2)
IMODE	SELECTOR	1	I/E Range Mode
IRANGE	QUANT	3.00000E-001	Max Current (mA)
EQDELAY	QUANT	5.00000E+000	Equil. Time (s)
SAMPLINGMODE	SELECTOR	1	Sampling Mode
AREA	QUANT	1.00000E+000	Sample Area (cm^2)
IRCOMP	SELECTOR	0	IRComp
PFCOR	QUANT	5.00000E+001	PF Corr. (ohm)
SEQUENCER	TOGGLE	TRUE	Run as Sequence
PSTATMODEL	IQUANT	64	Pstat Model
PSTATSECTION	LABEL	IFC1010-21051	Pstat Section
PSTATSERIALNO	LABEL	21051	Pstat Serial Number
CTRLMODE	IQUANT	1	Control Mode
ELECTROMETER	IQUANT	0	RE=0 or CS=1
IESTAB	IQUANT	0	I/E Stability
CASPEED	IQUANT	4	Control Amp Speed
CONVENTION	IQUANT	1	Current Convention
ICHRANGE	IQUANT	2	Ich Range
ICHRANGEMODE	TOGGLE	T	Ich Auto Range
ICHOFFSETENABLE	TOGGLE	F	Ich Offset Enable
ICHOFFSET	QUANT	0	Ich Offset (V)
ICHFILTER	IQUANT	3	Ich Filter
VCHRANGE	IQUANT	3	Vch Range
VCHRANGEMODE	TOGGLE	T	Vch Auto Range
VCHOFFSETENABLE	TOGGLE	F	Vch Offset Enable
VCHOFFSET	QUANT	0	Vch Offset (V)
VCHFILTER	IQUANT	3	Vch Filter
IERANGELOWERLIMIT	IQUANT	4	I/E Range Lower Limit
IERANGEMODE	TOGGLE	F	I/E AutoRange
IERANGE	IQUANT	9	I/E Range
ACHSELECT	IQUANT	0	Ach Select
ACHRANGE	IQUANT	2	Ach Range
ACHOFFSETENABLE	TOGGLE	F	Ach Offset Enable
ACHOFFSET	QUANT	0	Ach Offset (V)
ACHFILTER	IQUANT	1	Ach Filter
SENSECABLEID	IQUANT	14	Sense Cable ID
PWRCABLEID	IQUANT	14	Power Cable ID
DCCALDATE	LABEL	1/24/2022	DC Calibration Date
ACCALDATE	LABEL	4/2/2018	AC Calibration Date
FRAMEWORKVERSION	QUANT	7.06	Framework Version
INSTRUMENTVERSION	LABEL	4.30	Instrument Version
CURVE	TABLE	98
	Pt	T	Vf	Im	Vu	Sig	Ach	IERange	Over	Temp
	#	s	V vs. Ref.	A	V	V	V	#	bits	deg C
	0	-0.4	-7.01759E-001	-1.49995E-004	0.00000E+000	-7.00083E-001	0.00000E+000	9	...........	1426.22
	1	-0.3	-7.01242E-001	-1.49826E-004	0.00000E+000	-7.00083E-001	0.00000E+000	9	...........	1426.22
	2	-0.2	-7.01239E-001	-1.49544E-004	0.00000E+000	-7.00083E-001	0.00000E+000	9	...........	1426.22
	3	-0.1	-7.01234E-001	-1.49256E-004	0.00000E+000	-7.00083E-001	0.00000E+000	9	...........	1426.22
	4	0	-7.01235E-001	-1.49254E-004	0.00000E+000	-7.00083E-001	0.00000E+000	9	...........	1426.22
	5	0.1	-8.01262E-001	-4.31323E-004	0.00000E+000	-8.00083E-001	0.00000E+000	9	...........	1426.22
	6	0.2	-8.01260E-001	-3.29726E-004	0.00000E+000	-8.00083E-001	0.00000E+000	9	...........	1426.22
	7	0.3	-8.01276E-001	-2.88020E-004	0.00000E+000	-8.00083E-001	0.00000E+000	9	...........	1426.22
	8	0.4	-8.01265E-001	-2.64732E-004	0.00000E+000	-8.00083E-001	0.00000E+000	9	...........	1426.22
	9	0.5	-8.01248E-001	-2.49811E-004	0.00000E+000	-8.00083E-001	0.00000E+000	9	...........	1426.22
	10	0.6	-8.01256E-001	-2.39339E-004	0.00000E+000	-8.00083E-001	0.00000E+000	9	...........	1425.78
	11	0.7	-8.01256E-001	-2.31221E-004	0.00000E+000	-8.00083E-001	0.00000E+000	9	...........	1425.78
	12	0.8	-8.01263E-001	-2.25302E-004	0.00000E+000	-8.00083E-001	0.00000E+000	9	...........	1425.78
	13	0.9	-8.01263E-001	-2.20625E-004	0.00000E+000	-8.00083E-001	0.00000E+000	9	...........	1425.78
	14	1	-8.01271E-001	-2.16578E-004	0.00000E+000	-8.00083E-001	0.00000E+000	9	...........	1425.78
	15	1.1	-8.01260E-001	-2.13155E-004	0.00000E+000	-8.00083E-001	0.00000E+000	9	...........	1425.78
	16	1.2	-8.01262E-001	-2.10357E-004	0.00000E+000	-8.00083E-001	0.00000E+000	9	...........	1425.78
	17	1.3	-8.01268E-001	-2.08096E-004	0.00000E+000	-8.00083E-001	0.00000E+000	9	...........	1425.78
	18	1.4	-8.01270E-001	-2.06032E-004	0.00000E+000	-8.00083E-001	0.00000E+000	9	...........	1425.78
	19	1.5	-8.01273E-001	-2.04064E-004	0.00000E+000	-8.00083E-001	0.00000E+000	9	...........	1425.78
	20	1.6	-8.01271E-001	-2.02632E-004	0.00000E+000	-8.00083E-001	0.00000E+000	9	...........	1425.78
	21	1.7	-8.01276E-001	-2.01021E-004	0.00000E+000	-8.00083E-001	0.00000E+000	9	...........	1425.78
	22	1.8	-8.01268E-001	-1.99665E-004	0.00000E+000	-8.00083E-001	0.00000E+000	9	...........	1425.78
	23	1.9	-8.01273E-001	-1.98699E-004	0.00000E+000	-8.00083E-001	0.00000E+000	9	...........	1425.78
	24	2	-8.01264E-001	-1.97366E-004	0.00000E+000	-8.00083E-001	0.00000E+000	9	...........	1425.78
	25	2.1	-8.01252E-001	-1.96315E-004	0.00000E+000	-8.00083E-001	0.00000E+000	9	...........	1425.78
	26	2.2	-8.01260E-001	-1.95373E-004	0.00000E+000	-8.00083E-001	0.00000E+000	9	...........	1425.78
	27	2.3	-8.01265E-001	-1.94515E-004	0.00000E+000	-8.00083E-001	0.00000E+000	9	...........	1425.78
	28	2.4	-8.01268E-001	-1.93811E-004	0.00000E+000	-8.00083E-001	0.00000E+000	9	...........	1425.78
	29	2.5	-8.01263E-001	-1.92998E-004	0.00000E+000	-8.00083E-001	0.00000E+000	9	...........	1425.78
	30	2.6	-8.01260E-001	-1.92539E-004	0.00000E+000	-8.00083E-001	0.00000E+000	9	...........	1425.87
	31	2.7	-8.01268E-001	-1.91773E-004	0.00000E+000	-8.00083E-001	0.00000E+000	9	...........	1425.87
	32	2.8	-8.01261E-001	-1.91155E-004	0.00000E+000	-8.00083E-001	0.00000E+000	9	...........	1425.87
	33	2.9	-8.01264E-001	-1.90683E-004	0.00000E+000	-8.00083E-001	0.00000E+000	9	...........	1425.87
	34	3	-8.01264E-001	-1.90218E-004	0.00000E+000	-8.00083E-001	0.00000E+000	9	...........	1425.87
	35	3.1	-8.01258E-001	-1.89359E-004	0.00000E+000	-8.00083E-001	0.00000E+000	9	...........	1425.87
	36	3.2	-8.01268E-001	-1.88864E-004	0.00000E+000	-8.00083E-001	0.00000E+000	9	...........	1425.87
	37	3.3	-8.01277E-001	-1.88446E-004	0.00000E+000	-8.00083E-001	0.00000E+000	9	...........	1425.87
	38	3.4	-8.01263E-001	-1.87922E-004	0.00000E+000	-8.00083E-001	0.00000E+000	9	...........	1425.87
	39	3.5	-8.01256E-001	-1.87722E-004	0.00000E+000	-8.00083E-001	0.00000E+000	9	...........	1425.86
	40	3.6	-8.01258E-001	-1.87060E-004	0.00000E+000	-8.00083E-001	0.00000E+000	9	...........	1425.78
	41	3.7	-8.01267E-001	-1.86725E-004	0.00000E+000	-8.00083E-001	0.00000E+000	9	...........	1425.78
	42	3.8	-8.01267E-001	-1.86276E-004	0.00000E+000	-8.00083E-001	0.00000E+000	9	...........	1425.78
	43	3.9	-8.01264E-001	-1.85878E-004	0.00000E+000	-8.00083E-001	0.00000E+000	9	...........	1425.78
	44	4	-8.01269E-001	-1.85407E-004	0.00000E+000	-8.00083E-001	0.00000E+000	9	...........	1425.78
	45	4.1	-8.01268E-001	-1.85071E-004	0.00000E+000	-8.00083E-001	0.00000E+000	9	...........	1425.78
	46	4.2	-8.01259E-001	-1.84742E-004	0.00000E+000	-8.00083E-001	0.00000E+000	9	...........	1425.78
	47	4.3	-8.01265E-001	-1.84286E-004	0.00000E+000	-8.00083E-001	0.00000E+000	9	...........	1425.78
	48	4.4	-8.01262E-001	-1.83956E-004	0.00000E+000	-8.00083E-001	0.00000E+000	9	...........	1425.78
	49	4.5	-8.01255E-001	-1.83507E-004	0.00000E+000	-8.00083E-001	0.00000E+000	9	...........	1425.78
	50	4.6	-8.01268E-001	-1.83532E-004	0.00000E+000	-8.00083E-001	0.00000E+000	9	...........	1425.78
	51	4.7	-8.01266E-001	-1.83251E-004	0.00000E+000	-8.00083E-001	0.00000E+000	9	...........	1425.78
	52	4.8	-8.01256E-001	-1.82835E-004	0.00000E+000	-8.00083E-001	0.00000E+000	9	...........	1425.78
	53	4.9	-8.01262E-001	-1.82721E-004	0.00000E+000	-8.00083E-001	0.00000E+000	9	...........	1425.78
	54	5	-8.01276E-001	-1.82464E-004	0.00000E+000	-8.00083E-001	0.00000E+000	9	...........	1425.78
	55	5.1	-8.01261E-001	-1.82358E-004	0.00000E+000	-8.00083E-001	0.00000E+000	9	...........	1425.78
	56	5.2	-8.01269E-001	-1.82217E-004	0.00000E+000	-8.00083E-001	0.00000E+000	9	...........	1425.78
	57	5.3	-8.01274E-001	-1.81975E-004	0.00000E+000	-8.00083E-001	0.00000E+000	9	...........	1425.78
	58	5.4	-8.01265E-001	-1.81686E-004	0.00000E+000	-8.00083E-001	0.00000E+000	9	...........	1425.78
	59	5.5	-8.01266E-001	-1.81491E-004	0.00000E+000	-8.00083E-001	0.00000E+000	9	...........	1425.78
	60	5.6	-8.01277E-001	-1.81534E-004	0.00000E+000	-8.00083E-001	0.00000E+000	9	...........	1425.78
	61	5.7	-8.01270E-001	-1.81365E-004	0.00000E+000	-8.00083E-001	0.00000E+000	9	...........	1425.78
	62	5.8	-8.01271E-001	-1.81147E-004	0.00000E+000	-8.00083E-001	0.00000E+000	9	...........	1425.78
	63	5.9	-8.01264E-001	-1.80815E-004	0.00000E+000	-8.00083E-001	0.00000E+000	9	...........	1425.78
	64	6	-8.01250E-001	-1.80393E-004	0.00000E+000	-8.00083E-001	0.00000E+000	9	...........	1425.78
	65	6.1	-8.01270E-001	-1.80305E-004	0.00000E+000	-8.00083E-001	0.00000E+000	9	...........	1425.78
	66	7.1	-8.01265E-001	-1.78896E-004	0.00000E+000	-8.00083E-001	0.00000E+000	9	...........	1425.95
	67	8.1	-8.01267E-001	-1.77504E-004	0.00000E+000	-8.00083E-001	0.00000E+000	9	...........	1426.13
	68	9.1	-8.01268E-001	-1.76830E-004	0.00000E+000	-8.00083E-001	0.00000E+000	9	...........	1426.13
	69	10.1	-8.01262E-001	-1.75459E-004	0.00000E+000	-8.00083E-001	0.00000E+000	9	...........	1426.22
	70	11.1	-8.01277E-001	-1.74785E-004	0.00000E+000	-8.00083E-001	0.00000E+000	9	...........	1426.13
	71	12.1	-8.01271E-001	-1.74189E-004	0.00000E+000	-8.00083E-001	0.00000E+000	9	...........	1426.22
	72	13.1	-8.01258E-001	-1.73513E-004	0.00000E+000	-8.00083E-001	0.00000E+000	9	...........	1426.22
	73	14.1	-8.01263E-001	-1.73044E-004	0.00000E+000	-8.00083E-001	0.00000E+000	9	...........	1426.22
	74	15.1	-8.01270E-001	-1.72392E-004	0.00000E+000	-8.00083E-001	0.00000E+000	9	...........	1426.22
	75	16.1	-8.01275E-001	-1.71979E-004	0.00000E+000	-8.00083E-001	0.00000E+000	9	...........	1426.22
	76	26.1	-8.01275E-001	-1.69656E-004	0.00000E+000	-8.00083E-001	0.00000E+000	9	...........	1426.22
	77	36.1	-8.01254E-001	-1.67559E-004	0.00000E+000	-8.00083E-001	0.00000E+000	9	...........	1426.22
	78	46.1	-8.01250E-001	-1.66907E-004	0.00000E+000	-8.00083E-001	0.00000E+000	9	...........	1426.22
	79	56.1	-8.01265E-001	-1.66745E-004	0.00000E+000	-8.00083E-001	0.00000E+000	9	...........	1426.13
	80	66.1	-8.01272E-001	-1.65843E-004	0.00000E+000	-8.00083E-001	0.00000E+000	9	...........	1426.22
	81	76.1	-8.01267E-001	-1.64421E-004	0.00000E+000	-8.00083E-001	0.00000E+000	9	...........	1426.22
	82	86.1	-8.01251E-001	-1.64065E-004	0.00000E+000	-8.00083E-001	0.00000E+000	9	...........	1426.22
	83	96.1	-8.01270E-001	-1.65003E-004	0.00000E+000	-8.00083E-001	0.00000E+000	9	...........	1426.22
	84	106.1	-8.01271E-001	-1.65753E-004	0.00000E+000	-8.00083E-001	0.00000E+000	9	...........	1426.22
	85	116.1	-8.01263E-001	-1.67750E-004	0.00000E+000	-8.00083E-001	0.00000E+000	9	...........	1426.22
	86	216.1	-8.01260E-001	-1.64753E-004	0.00000E+000	-8.00083E-001	0.00000E+000	9	...........	1426.22
	87	300	-8.01275E-001	-1.61601E-004	0.00000E+000	-8.00083E-001	0.00000E+000	9	...........	1426.22
	88	300.1	-7.01246E-001	1.23948E-005	0.00000E+000	-7.00083E-001	0.00000E+000	9	...........	1426.22
	89	300.2	-7.01246E-001	-6.92865E-005	0.00000E+000	-7.00083E-001	0.00000E+000	9	...........	1426.22
	90	300.3	-7.01238E-001	-9.24985E-005	0.00000E+000	-7.00083E-001	0.00000E+000	9	...........	1426.22
	91	300.4	-7.01238E-001	-1.02531E-004	0.00000E+000	-7.00083E-001	0.00000E+000	9	...........	1426.22
	92	300.5	-7.01250E-001	-1.08152E-004	0.00000E+000	-7.00083E-001	0.00000E+000	9	...........	1426.22
	93	300.6	-7.01246E-001	-1.11564E-004	0.00000E+000	-7.00083E-001	0.00000E+000	9	...........	1426.22
	94	300.7	-7.01249E-001	-1.14018E-004	0.00000E+000	-7.00083E-001	0.00000E+000	9	...........	1426.22
	95	300.8	-7.01246E-001	-1.15880E-004	0.00000E+000	-7.00083E-001	0.00000E+000	9	...........	1426.22
	96	300.9	-7.01256E-001	-1.17194E-004	0.00000E+000	-7.00083E-001	0.00000E+000	9	...........	1426.22
	97	301	-7.01243E-001	-1.18345E-004	0.00000E+000	-7.00083E-001	0.00000E+000	9	...........	1426.22
