EXPLAIN
TAG	CHRONOA
TITLE	LABEL	Chronoamperometry Scan	Test Identifier
DATE	LABEL	24/3/2022	Date
TIME	LABEL	14:38:47	Time
NOTES	NOTES	1	Notes...
	
PSTAT	PSTAT	IFC1010-21051	Potentiostat
VPRESTEP	POTEN	1.00000E-002	F	Pre-step Voltage (V)
TPRESTEP	QUANT	5.00000E-001	Pre-step Delay Time (s)
VSTEP1	POTEN	0.00000E+000	F	Step 1 Voltage (V)
TSTEP1	QUANT	3.00000E+002	Step 1 Time (s)
VSTEP2	POTEN	-1.00000E-001	F	Step 2 Voltage (V)
TSTEP2	QUANT	1.00000E+000	Step 2 Time (s)
SAMPLETIME	QUANT	1.00000E-001	Sample Period (s)
DECIMATE	TOGGLE	T	Decimate
ILIMIT	QUANT	1.00000E+000	Limit I (mA/cm^2)
IMODE	SELECTOR	1	I/E Range Mode
IRANGE	QUANT	3.00000E-001	Max Current (mA)
EQDELAY	QUANT	5.00000E+000	Equil. Time (s)
SAMPLINGMODE	SELECTOR	1	Sampling Mode
AREA	QUANT	1.00000E+000	Sample Area (cm^2)
IRCOMP	SELECTOR	0	IRComp
PFCOR	QUANT	5.00000E+001	PF Corr. (ohm)
SEQUENCER	TOGGLE	TRUE	Run as Sequence
PSTATMODEL	IQUANT	64	Pstat Model
PSTATSECTION	LABEL	IFC1010-21051	Pstat Section
PSTATSERIALNO	LABEL	21051	Pstat Serial Number
CTRLMODE	IQUANT	1	Control Mode
ELECTROMETER	IQUANT	0	RE=0 or CS=1
IESTAB	IQUANT	0	I/E Stability
CASPEED	IQUANT	4	Control Amp Speed
CONVENTION	IQUANT	1	Current Convention
ICHRANGE	IQUANT	2	Ich Range
ICHRANGEMODE	TOGGLE	T	Ich Auto Range
ICHOFFSETENABLE	TOGGLE	F	Ich Offset Enable
ICHOFFSET	QUANT	0	Ich Offset (V)
ICHFILTER	IQUANT	3	Ich Filter
VCHRANGE	IQUANT	3	Vch Range
VCHRANGEMODE	TOGGLE	T	Vch Auto Range
VCHOFFSETENABLE	TOGGLE	F	Vch Offset Enable
VCHOFFSET	QUANT	0	Vch Offset (V)
VCHFILTER	IQUANT	3	Vch Filter
IERANGELOWERLIMIT	IQUANT	4	I/E Range Lower Limit
IERANGEMODE	TOGGLE	F	I/E AutoRange
IERANGE	IQUANT	9	I/E Range
ACHSELECT	IQUANT	0	Ach Select
ACHRANGE	IQUANT	2	Ach Range
ACHOFFSETENABLE	TOGGLE	F	Ach Offset Enable
ACHOFFSET	QUANT	0	Ach Offset (V)
ACHFILTER	IQUANT	1	Ach Filter
SENSECABLEID	IQUANT	14	Sense Cable ID
PWRCABLEID	IQUANT	14	Power Cable ID
DCCALDATE	LABEL	1/24/2022	DC Calibration Date
ACCALDATE	LABEL	4/2/2018	AC Calibration Date
FRAMEWORKVERSION	QUANT	7.06	Framework Version
INSTRUMENTVERSION	LABEL	4.30	Instrument Version
CURVE	TABLE	98
	Pt	T	Vf	Im	Vu	Sig	Ach	IERange	Over	Temp
	#	s	V vs. Ref.	A	V	V	V	#	bits	deg C
	0	-0.4	9.26114E-003	-1.02826E-005	0.00000E+000	1.00559E-002	0.00000E+000	9	...........	1425.95
	1	-0.3	9.89943E-003	-1.01087E-005	0.00000E+000	1.00559E-002	0.00000E+000	9	...........	1425.95
	2	-0.2	1.00426E-002	-9.94688E-006	0.00000E+000	1.00559E-002	0.00000E+000	9	...........	1425.95
	3	-0.1	1.00571E-002	-9.78772E-006	0.00000E+000	1.00559E-002	0.00000E+000	9	...........	1425.95
	4	0	1.00565E-002	-9.63836E-006	0.00000E+000	1.00559E-002	0.00000E+000	9	...........	1425.95
	5	0.1	4.86328E-005	-1.54722E-005	0.00000E+000	5.34840E-005	0.00000E+000	9	...........	1425.95
	6	0.2	4.84555E-005	-1.48261E-005	0.00000E+000	5.34840E-005	0.00000E+000	9	...........	1425.95
	7	0.3	4.93476E-005	-1.43719E-005	0.00000E+000	5.34840E-005	0.00000E+000	9	...........	1425.95
	8	0.4	4.94778E-005	-1.39714E-005	0.00000E+000	5.34840E-005	0.00000E+000	9	...........	1425.95
	9	0.5	5.00295E-005	-1.35979E-005	0.00000E+000	5.34840E-005	0.00000E+000	9	...........	1425.95
	10	0.6	4.96961E-005	-1.32676E-005	0.00000E+000	5.34840E-005	0.00000E+000	9	...........	1425.95
	11	0.7	4.98432E-005	-1.29374E-005	0.00000E+000	5.34840E-005	0.00000E+000	9	...........	1425.95
	12	0.8	4.91394E-005	-1.26820E-005	0.00000E+000	5.34840E-005	0.00000E+000	9	...........	1425.95
	13	0.9	4.85216E-005	-1.23958E-005	0.00000E+000	5.34840E-005	0.00000E+000	9	...........	1425.95
	14	1	5.03348E-005	-1.21319E-005	0.00000E+000	5.34840E-005	0.00000E+000	9	...........	1426.22
	15	1.1	4.94708E-005	-1.19323E-005	0.00000E+000	5.34840E-005	0.00000E+000	9	...........	1426.22
	16	1.2	4.99834E-005	-1.16861E-005	0.00000E+000	5.34840E-005	0.00000E+000	9	...........	1426.22
	17	1.3	4.88210E-005	-1.14703E-005	0.00000E+000	5.34840E-005	0.00000E+000	9	...........	1426.22
	18	1.4	4.97852E-005	-1.12535E-005	0.00000E+000	5.34840E-005	0.00000E+000	9	...........	1426.22
	19	1.5	4.99464E-005	-1.10918E-005	0.00000E+000	5.34840E-005	0.00000E+000	9	...........	1426.22
	20	1.6	4.94488E-005	-1.09278E-005	0.00000E+000	5.34840E-005	0.00000E+000	9	...........	1426.22
	21	1.7	4.92235E-005	-1.07486E-005	0.00000E+000	5.34840E-005	0.00000E+000	9	...........	1426.22
	22	1.8	4.91864E-005	-1.05945E-005	0.00000E+000	5.34840E-005	0.00000E+000	9	...........	1426.22
	23	1.9	4.79189E-005	-1.04407E-005	0.00000E+000	5.34840E-005	0.00000E+000	9	...........	1426.22
	24	2	4.83314E-005	-1.02955E-005	0.00000E+000	5.34840E-005	0.00000E+000	9	...........	1426.22
	25	2.1	4.75434E-005	-1.01480E-005	0.00000E+000	5.34840E-005	0.00000E+000	9	...........	1426.22
	26	2.2	4.82403E-005	-1.00157E-005	0.00000E+000	5.34840E-005	0.00000E+000	9	...........	1426.22
	27	2.3	4.83474E-005	-9.88508E-006	0.00000E+000	5.34840E-005	0.00000E+000	9	...........	1426.22
	28	2.4	4.84966E-005	-9.74861E-006	0.00000E+000	5.34840E-005	0.00000E+000	9	...........	1426.22
	29	2.5	4.84956E-005	-9.66129E-006	0.00000E+000	5.34840E-005	0.00000E+000	9	...........	1426.22
	30	2.6	4.80951E-005	-9.55718E-006	0.00000E+000	5.34840E-005	0.00000E+000	9	...........	1426.22
	31	2.7	4.77887E-005	-9.44413E-006	0.00000E+000	5.34840E-005	0.00000E+000	9	...........	1426.22
	32	2.8	4.89001E-005	-9.33108E-006	0.00000E+000	5.34840E-005	0.00000E+000	9	...........	1426.22
	33	2.9	4.80591E-005	-9.26558E-006	0.00000E+000	5.34840E-005	0.00000E+000	9	...........	1426.22
	34	3	4.89982E-005	-9.17101E-006	0.00000E+000	5.34840E-005	0.00000E+000	9	...........	1425.95
	35	3.1	4.97962E-005	-9.08539E-006	0.00000E+000	5.34840E-005	0.00000E+000	9	...........	1425.95
	36	3.2	4.93997E-005	-8.98973E-006	0.00000E+000	5.34840E-005	0.00000E+000	9	...........	1425.95
	37	3.3	4.90703E-005	-8.91138E-006	0.00000E+000	5.34840E-005	0.00000E+000	9	...........	1425.95
	38	3.4	4.83674E-005	-8.82686E-006	0.00000E+000	5.34840E-005	0.00000E+000	9	...........	1425.95
	39	3.5	4.91474E-005	-8.76823E-006	0.00000E+000	5.34840E-005	0.00000E+000	9	...........	1425.95
	40	3.6	5.02968E-005	-8.69719E-006	0.00000E+000	5.34840E-005	0.00000E+000	9	...........	1425.95
	41	3.7	4.83194E-005	-8.63306E-006	0.00000E+000	5.34840E-005	0.00000E+000	9	...........	1425.95
	42	3.8	4.96150E-005	-8.55808E-006	0.00000E+000	5.34840E-005	0.00000E+000	9	...........	1425.95
	43	3.9	4.88861E-005	-8.49935E-006	0.00000E+000	5.34840E-005	0.00000E+000	9	...........	1425.95
	44	4	4.82803E-005	-8.43886E-006	0.00000E+000	5.34840E-005	0.00000E+000	9	...........	1426.22
	45	4.1	4.90012E-005	-8.39615E-006	0.00000E+000	5.34840E-005	0.00000E+000	9	...........	1426.22
	46	4.2	4.94378E-005	-8.35487E-006	0.00000E+000	5.34840E-005	0.00000E+000	9	...........	1426.22
	47	4.3	4.96751E-005	-8.28483E-006	0.00000E+000	5.34840E-005	0.00000E+000	9	...........	1426.22
	48	4.4	4.87079E-005	-8.22567E-006	0.00000E+000	5.34840E-005	0.00000E+000	9	...........	1426.22
	49	4.5	4.90753E-005	-8.18173E-006	0.00000E+000	5.34840E-005	0.00000E+000	9	...........	1426.22
	50	4.6	4.89762E-005	-8.13171E-006	0.00000E+000	5.34840E-005	0.00000E+000	9	...........	1426.22
	51	4.7	4.86708E-005	-8.07492E-006	0.00000E+000	5.34840E-005	0.00000E+000	9	...........	1426.22
	52	4.8	4.94367E-005	-8.02667E-006	0.00000E+000	5.34840E-005	0.00000E+000	9	...........	1426.22
	53	4.9	4.96440E-005	-7.98863E-006	0.00000E+000	5.34840E-005	0.00000E+000	9	...........	1426.22
	54	5	4.96440E-005	-7.93657E-006	0.00000E+000	5.34840E-005	0.00000E+000	9	...........	1426.13
	55	5.1	4.91304E-005	-7.90424E-006	0.00000E+000	5.34840E-005	0.00000E+000	9	...........	1426.13
	56	5.2	4.76025E-005	-7.88339E-006	0.00000E+000	5.34840E-005	0.00000E+000	9	...........	1426.13
	57	5.3	4.94297E-005	-7.83804E-006	0.00000E+000	5.34840E-005	0.00000E+000	9	...........	1426.13
	58	5.4	4.87469E-005	-7.79279E-006	0.00000E+000	5.34840E-005	0.00000E+000	9	...........	1426.13
	59	5.5	4.81692E-005	-7.74765E-006	0.00000E+000	5.34840E-005	0.00000E+000	9	...........	1426.13
	60	5.6	4.98222E-005	-7.70971E-006	0.00000E+000	5.34840E-005	0.00000E+000	9	...........	1426.13
	61	5.7	4.79649E-005	-7.69649E-006	0.00000E+000	5.34840E-005	0.00000E+000	9	...........	1426.13
	62	5.8	4.84645E-005	-7.64834E-006	0.00000E+000	5.34840E-005	0.00000E+000	9	...........	1426.13
	63	5.9	4.74423E-005	-7.61207E-006	0.00000E+000	5.34840E-005	0.00000E+000	9	...........	1426.13
	64	6	4.86268E-005	-7.57550E-006	0.00000E+000	5.34840E-005	0.00000E+000	9	...........	1426.22
	65	6.1	4.89051E-005	-7.55128E-006	0.00000E+000	5.34840E-005	0.00000E+000	9	...........	1426.22
	66	7.1	4.70688E-005	-7.28857E-006	0.00000E+000	5.34840E-005	0.00000E+000	9	...........	1426.22
	67	8.1	4.87539E-005	-7.07171E-006	0.00000E+000	5.34840E-005	0.00000E+000	9	...........	1426.31
	68	9.1	4.76155E-005	-6.90701E-006	0.00000E+000	5.34840E-005	0.00000E+000	9	...........	1426.22
	69	10.1	4.76315E-005	-6.77855E-006	0.00000E+000	5.34840E-005	0.00000E+000	9	...........	1426.22
	70	11.1	4.74523E-005	-6.64571E-006	0.00000E+000	5.34840E-005	0.00000E+000	9	...........	1426.31
	71	12.1	4.87499E-005	-6.57063E-006	0.00000E+000	5.34840E-005	0.00000E+000	9	...........	1426.31
	72	13.1	4.75254E-005	-6.49802E-006	0.00000E+000	5.34840E-005	0.00000E+000	9	...........	1426.22
	73	14.1	4.82092E-005	-6.43863E-006	0.00000E+000	5.34840E-005	0.00000E+000	9	...........	1426.22
	74	15.1	4.91013E-005	-6.39432E-006	0.00000E+000	5.34840E-005	0.00000E+000	9	...........	1426.31
	75	16.1	4.80801E-005	-6.36839E-006	0.00000E+000	5.34840E-005	0.00000E+000	9	...........	1426.31
	76	26.1	4.98512E-005	-6.21126E-006	0.00000E+000	5.34840E-005	0.00000E+000	9	...........	1426.31
	77	36.1	4.86007E-005	-5.89543E-006	0.00000E+000	5.34840E-005	0.00000E+000	9	...........	1426.22
	78	46.1	4.87169E-005	-5.78285E-006	0.00000E+000	5.34840E-005	0.00000E+000	9	...........	1426.31
	79	56.1	5.08525E-005	-5.64201E-006	0.00000E+000	5.34840E-005	0.00000E+000	9	...........	1426.31
	80	66.1	4.71339E-005	-5.05620E-006	0.00000E+000	5.34840E-005	0.00000E+000	9	...........	1426.22
	81	76.1	5.09156E-005	-5.36696E-006	0.00000E+000	5.34840E-005	0.00000E+000	9	...........	1426.31
	82	86.1	4.89612E-005	-5.02077E-006	0.00000E+000	5.34840E-005	0.00000E+000	9	...........	1426.31
	83	96.1	4.82122E-005	-5.17082E-006	0.00000E+000	5.34840E-005	0.00000E+000	9	...........	1426.31
	84	106.1	4.83284E-005	-5.02724E-006	0.00000E+000	5.34840E-005	0.00000E+000	9	...........	1426.22
	85	116.1	4.72961E-005	-4.74028E-006	0.00000E+000	5.34840E-005	0.00000E+000	9	...........	1426.31
	86	216.1	4.90783E-005	-4.90381E-006	0.00000E+000	5.34840E-005	0.00000E+000	9	...........	1426.31
	87	300	4.94017E-005	-4.65782E-006	0.00000E+000	5.34840E-005	0.00000E+000	9	...........	1426.31
	88	300.1	-3.29270E-002	-6.32813E-005	0.00000E+000	-9.99460E-002	0.00000E+000	9	.........v.	1426.31
	89	300.2	-9.99778E-002	-5.85138E-005	0.00000E+000	-9.99460E-002	0.00000E+000	9	...........	1426.31
	90	300.3	-9.99777E-002	-5.54454E-005	0.00000E+000	-9.99460E-002	0.00000E+000	9	...........	1426.31
	91	300.4	-9.99784E-002	-5.28275E-005	0.00000E+000	-9.99460E-002	0.00000E+000	9	...........	1426.31
	92	300.5	-9.99792E-002	-5.05130E-005	0.00000E+000	-9.99460E-002	0.00000E+000	9	...........	1426.31
	93	300.6	-9.99792E-002	-4.83714E-005	0.00000E+000	-9.99460E-002	0.00000E+000	9	...........	1426.31
	94	300.7	-9.99790E-002	-4.65042E-005	0.00000E+000	-9.99460E-002	0.00000E+000	9	...........	1426.31
	95	300.8	-9.99759E-002	-4.47337E-005	0.00000E+000	-9.99460E-002	0.00000E+000	9	...........	1426.31
	96	300.9	-9.99766E-002	-4.31156E-005	0.00000E+000	-9.99460E-002	0.00000E+000	9	...........	1426.31
	97	301	-9.99756E-002	-4.16157E-005	0.00000E+000	-9.99460E-002	0.00000E+000	9	...........	1426.31
