EXPLAIN
TAG	CHRONOA
TITLE	LABEL	Chronoamperometry Scan	Test Identifier
DATE	LABEL	24/3/2022	Date
TIME	LABEL	18:09:37	Time
NOTES	NOTES	1	Notes...
	
PSTAT	PSTAT	IFC1010-21051	Potentiostat
VPRESTEP	POTEN	-3.00000E-001	F	Pre-step Voltage (V)
TPRESTEP	QUANT	5.00000E-001	Pre-step Delay Time (s)
VSTEP1	POTEN	-4.00000E-001	F	Step 1 Voltage (V)
TSTEP1	QUANT	3.00000E+002	Step 1 Time (s)
VSTEP2	POTEN	-5.00000E-001	F	Step 2 Voltage (V)
TSTEP2	QUANT	1.00000E+000	Step 2 Time (s)
SAMPLETIME	QUANT	1.00000E-001	Sample Period (s)
DECIMATE	TOGGLE	T	Decimate
ILIMIT	QUANT	1.00000E+000	Limit I (mA/cm^2)
IMODE	SELECTOR	1	I/E Range Mode
IRANGE	QUANT	3.00000E-001	Max Current (mA)
EQDELAY	QUANT	5.00000E+000	Equil. Time (s)
SAMPLINGMODE	SELECTOR	1	Sampling Mode
AREA	QUANT	1.00000E+000	Sample Area (cm^2)
IRCOMP	SELECTOR	0	IRComp
PFCOR	QUANT	5.00000E+001	PF Corr. (ohm)
SEQUENCER	TOGGLE	TRUE	Run as Sequence
PSTATMODEL	IQUANT	64	Pstat Model
PSTATSECTION	LABEL	IFC1010-21051	Pstat Section
PSTATSERIALNO	LABEL	21051	Pstat Serial Number
CTRLMODE	IQUANT	1	Control Mode
ELECTROMETER	IQUANT	0	RE=0 or CS=1
IESTAB	IQUANT	0	I/E Stability
CASPEED	IQUANT	4	Control Amp Speed
CONVENTION	IQUANT	1	Current Convention
ICHRANGE	IQUANT	2	Ich Range
ICHRANGEMODE	TOGGLE	T	Ich Auto Range
ICHOFFSETENABLE	TOGGLE	F	Ich Offset Enable
ICHOFFSET	QUANT	0	Ich Offset (V)
ICHFILTER	IQUANT	3	Ich Filter
VCHRANGE	IQUANT	3	Vch Range
VCHRANGEMODE	TOGGLE	T	Vch Auto Range
VCHOFFSETENABLE	TOGGLE	F	Vch Offset Enable
VCHOFFSET	QUANT	0	Vch Offset (V)
VCHFILTER	IQUANT	3	Vch Filter
IERANGELOWERLIMIT	IQUANT	4	I/E Range Lower Limit
IERANGEMODE	TOGGLE	F	I/E AutoRange
IERANGE	IQUANT	9	I/E Range
ACHSELECT	IQUANT	0	Ach Select
ACHRANGE	IQUANT	2	Ach Range
ACHOFFSETENABLE	TOGGLE	F	Ach Offset Enable
ACHOFFSET	QUANT	0	Ach Offset (V)
ACHFILTER	IQUANT	1	Ach Filter
SENSECABLEID	IQUANT	14	Sense Cable ID
PWRCABLEID	IQUANT	14	Power Cable ID
DCCALDATE	LABEL	1/24/2022	DC Calibration Date
ACCALDATE	LABEL	4/2/2018	AC Calibration Date
FRAMEWORKVERSION	QUANT	7.06	Framework Version
INSTRUMENTVERSION	LABEL	4.30	Instrument Version
CURVE	TABLE	98
	Pt	T	Vf	Im	Vu	Sig	Ach	IERange	Over	Temp
	#	s	V vs. Ref.	A	V	V	V	#	bits	deg C
	0	-0.4	-3.01296E-001	-2.82598E-005	0.00000E+000	-3.00011E-001	0.00000E+000	9	...........	1426.04
	1	-0.3	-3.00689E-001	-2.81453E-005	0.00000E+000	-3.00011E-001	0.00000E+000	9	...........	1426.04
	2	-0.2	-3.00681E-001	-2.80216E-005	0.00000E+000	-3.00011E-001	0.00000E+000	9	...........	1426.04
	3	-0.1	-3.00688E-001	-2.78852E-005	0.00000E+000	-3.00011E-001	0.00000E+000	9	...........	1426.04
	4	0	-3.00678E-001	-2.77321E-005	0.00000E+000	-3.00011E-001	0.00000E+000	9	...........	1426.04
	5	0.1	-4.00725E-001	-1.71203E-004	0.00000E+000	-4.00011E-001	0.00000E+000	9	...........	1426.04
	6	0.2	-4.00735E-001	-1.52289E-004	0.00000E+000	-4.00011E-001	0.00000E+000	9	...........	1426.04
	7	0.3	-4.00711E-001	-1.46946E-004	0.00000E+000	-4.00011E-001	0.00000E+000	9	...........	1426.04
	8	0.4	-4.00722E-001	-1.43463E-004	0.00000E+000	-4.00011E-001	0.00000E+000	9	...........	1426.04
	9	0.5	-4.00723E-001	-1.40710E-004	0.00000E+000	-4.00011E-001	0.00000E+000	9	...........	1426.04
	10	0.6	-4.00733E-001	-1.38323E-004	0.00000E+000	-4.00011E-001	0.00000E+000	9	...........	1426.04
	11	0.7	-4.00730E-001	-1.36186E-004	0.00000E+000	-4.00011E-001	0.00000E+000	9	...........	1426.04
	12	0.8	-4.00724E-001	-1.34258E-004	0.00000E+000	-4.00011E-001	0.00000E+000	9	...........	1425.90
	13	0.9	-4.00724E-001	-1.32494E-004	0.00000E+000	-4.00011E-001	0.00000E+000	9	...........	1425.87
	14	1	-4.00727E-001	-1.30893E-004	0.00000E+000	-4.00011E-001	0.00000E+000	9	...........	1425.87
	15	1.1	-4.00733E-001	-1.29380E-004	0.00000E+000	-4.00011E-001	0.00000E+000	9	...........	1425.87
	16	1.2	-4.00735E-001	-1.27974E-004	0.00000E+000	-4.00011E-001	0.00000E+000	9	...........	1425.87
	17	1.3	-4.00731E-001	-1.26623E-004	0.00000E+000	-4.00011E-001	0.00000E+000	9	...........	1425.87
	18	1.4	-4.00724E-001	-1.25374E-004	0.00000E+000	-4.00011E-001	0.00000E+000	9	...........	1425.87
	19	1.5	-4.00707E-001	-1.24130E-004	0.00000E+000	-4.00011E-001	0.00000E+000	9	...........	1425.87
	20	1.6	-4.00716E-001	-1.23095E-004	0.00000E+000	-4.00011E-001	0.00000E+000	9	...........	1425.87
	21	1.7	-4.00734E-001	-1.22069E-004	0.00000E+000	-4.00011E-001	0.00000E+000	9	...........	1425.87
	22	1.8	-4.00717E-001	-1.21043E-004	0.00000E+000	-4.00011E-001	0.00000E+000	9	...........	1425.87
	23	1.9	-4.00723E-001	-1.20103E-004	0.00000E+000	-4.00011E-001	0.00000E+000	9	...........	1425.87
	24	2	-4.00731E-001	-1.19138E-004	0.00000E+000	-4.00011E-001	0.00000E+000	9	...........	1425.87
	25	2.1	-4.00731E-001	-1.18253E-004	0.00000E+000	-4.00011E-001	0.00000E+000	9	...........	1425.87
	26	2.2	-4.00720E-001	-1.17370E-004	0.00000E+000	-4.00011E-001	0.00000E+000	9	...........	1425.87
	27	2.3	-4.00723E-001	-1.16500E-004	0.00000E+000	-4.00011E-001	0.00000E+000	9	...........	1425.87
	28	2.4	-4.00725E-001	-1.15676E-004	0.00000E+000	-4.00011E-001	0.00000E+000	9	...........	1425.87
	29	2.5	-4.00721E-001	-1.14880E-004	0.00000E+000	-4.00011E-001	0.00000E+000	9	...........	1425.87
	30	2.6	-4.00731E-001	-1.14193E-004	0.00000E+000	-4.00011E-001	0.00000E+000	9	...........	1425.87
	31	2.7	-4.00746E-001	-1.13489E-004	0.00000E+000	-4.00011E-001	0.00000E+000	9	...........	1425.87
	32	2.8	-4.00736E-001	-1.12788E-004	0.00000E+000	-4.00011E-001	0.00000E+000	9	...........	1425.87
	33	2.9	-4.00717E-001	-1.12109E-004	0.00000E+000	-4.00011E-001	0.00000E+000	9	...........	1425.87
	34	3	-4.00740E-001	-1.11528E-004	0.00000E+000	-4.00011E-001	0.00000E+000	9	...........	1425.87
	35	3.1	-4.00722E-001	-1.10871E-004	0.00000E+000	-4.00011E-001	0.00000E+000	9	...........	1425.87
	36	3.2	-4.00719E-001	-1.10221E-004	0.00000E+000	-4.00011E-001	0.00000E+000	9	...........	1425.87
	37	3.3	-4.00728E-001	-1.09679E-004	0.00000E+000	-4.00011E-001	0.00000E+000	9	...........	1425.87
	38	3.4	-4.00720E-001	-1.09114E-004	0.00000E+000	-4.00011E-001	0.00000E+000	9	...........	1425.87
	39	3.5	-4.00730E-001	-1.08625E-004	0.00000E+000	-4.00011E-001	0.00000E+000	9	...........	1425.87
	40	3.6	-4.00729E-001	-1.08088E-004	0.00000E+000	-4.00011E-001	0.00000E+000	9	...........	1425.87
	41	3.7	-4.00728E-001	-1.07681E-004	0.00000E+000	-4.00011E-001	0.00000E+000	9	...........	1425.87
	42	3.8	-4.00712E-001	-1.07166E-004	0.00000E+000	-4.00011E-001	0.00000E+000	9	...........	1425.94
	43	3.9	-4.00714E-001	-1.06742E-004	0.00000E+000	-4.00011E-001	0.00000E+000	9	...........	1425.95
	44	4	-4.00716E-001	-1.06231E-004	0.00000E+000	-4.00011E-001	0.00000E+000	9	...........	1425.95
	45	4.1	-4.00731E-001	-1.05876E-004	0.00000E+000	-4.00011E-001	0.00000E+000	9	...........	1425.95
	46	4.2	-4.00726E-001	-1.05441E-004	0.00000E+000	-4.00011E-001	0.00000E+000	9	...........	1425.95
	47	4.3	-4.00721E-001	-1.05008E-004	0.00000E+000	-4.00011E-001	0.00000E+000	9	...........	1425.95
	48	4.4	-4.00730E-001	-1.04694E-004	0.00000E+000	-4.00011E-001	0.00000E+000	9	...........	1425.95
	49	4.5	-4.00728E-001	-1.04290E-004	0.00000E+000	-4.00011E-001	0.00000E+000	9	...........	1425.95
	50	4.6	-4.00733E-001	-1.03924E-004	0.00000E+000	-4.00011E-001	0.00000E+000	9	...........	1425.95
	51	4.7	-4.00747E-001	-1.03585E-004	0.00000E+000	-4.00011E-001	0.00000E+000	9	...........	1425.95
	52	4.8	-4.00745E-001	-1.03213E-004	0.00000E+000	-4.00011E-001	0.00000E+000	9	...........	1425.88
	53	4.9	-4.00734E-001	-1.02844E-004	0.00000E+000	-4.00011E-001	0.00000E+000	9	...........	1425.87
	54	5	-4.00734E-001	-1.02417E-004	0.00000E+000	-4.00011E-001	0.00000E+000	9	...........	1425.87
	55	5.1	-4.00728E-001	-1.02070E-004	0.00000E+000	-4.00011E-001	0.00000E+000	9	...........	1425.87
	56	5.2	-4.00727E-001	-1.01661E-004	0.00000E+000	-4.00011E-001	0.00000E+000	9	...........	1425.87
	57	5.3	-4.00731E-001	-1.01294E-004	0.00000E+000	-4.00011E-001	0.00000E+000	9	...........	1425.87
	58	5.4	-4.00728E-001	-1.00949E-004	0.00000E+000	-4.00011E-001	0.00000E+000	9	...........	1425.87
	59	5.5	-4.00728E-001	-1.00619E-004	0.00000E+000	-4.00011E-001	0.00000E+000	9	...........	1425.87
	60	5.6	-4.00723E-001	-1.00284E-004	0.00000E+000	-4.00011E-001	0.00000E+000	9	...........	1425.87
	61	5.7	-4.00732E-001	-9.99038E-005	0.00000E+000	-4.00011E-001	0.00000E+000	9	...........	1425.87
	62	5.8	-4.00724E-001	-9.95265E-005	0.00000E+000	-4.00011E-001	0.00000E+000	9	...........	1425.94
	63	5.9	-4.00736E-001	-9.91762E-005	0.00000E+000	-4.00011E-001	0.00000E+000	9	...........	1425.95
	64	6	-4.00738E-001	-9.88621E-005	0.00000E+000	-4.00011E-001	0.00000E+000	9	...........	1425.95
	65	6.1	-4.00728E-001	-9.85589E-005	0.00000E+000	-4.00011E-001	0.00000E+000	9	...........	1425.95
	66	7.1	-4.00713E-001	-9.57251E-005	0.00000E+000	-4.00011E-001	0.00000E+000	9	...........	1425.95
	67	8.1	-4.00723E-001	-9.29238E-005	0.00000E+000	-4.00011E-001	0.00000E+000	9	...........	1425.95
	68	9.1	-4.00726E-001	-9.02401E-005	0.00000E+000	-4.00011E-001	0.00000E+000	9	...........	1425.95
	69	10.1	-4.00736E-001	-8.82283E-005	0.00000E+000	-4.00011E-001	0.00000E+000	9	...........	1426.04
	70	11.1	-4.00739E-001	-8.62487E-005	0.00000E+000	-4.00011E-001	0.00000E+000	9	...........	1426.04
	71	12.1	-4.00720E-001	-8.47775E-005	0.00000E+000	-4.00011E-001	0.00000E+000	9	...........	1426.04
	72	13.1	-4.00724E-001	-8.37240E-005	0.00000E+000	-4.00011E-001	0.00000E+000	9	...........	1426.04
	73	14.1	-4.00723E-001	-8.23619E-005	0.00000E+000	-4.00011E-001	0.00000E+000	9	...........	1426.04
	74	15.1	-4.00734E-001	-8.10787E-005	0.00000E+000	-4.00011E-001	0.00000E+000	9	...........	1426.04
	75	16.1	-4.00736E-001	-7.98451E-005	0.00000E+000	-4.00011E-001	0.00000E+000	9	...........	1426.04
	76	26.1	-4.00721E-001	-7.00603E-005	0.00000E+000	-4.00011E-001	0.00000E+000	9	...........	1426.04
	77	36.1	-4.00736E-001	-6.43473E-005	0.00000E+000	-4.00011E-001	0.00000E+000	9	...........	1426.13
	78	46.1	-4.00728E-001	-6.08181E-005	0.00000E+000	-4.00011E-001	0.00000E+000	9	...........	1426.13
	79	56.1	-4.00730E-001	-5.77410E-005	0.00000E+000	-4.00011E-001	0.00000E+000	9	...........	1426.04
	80	66.1	-4.00723E-001	-5.49761E-005	0.00000E+000	-4.00011E-001	0.00000E+000	9	...........	1426.04
	81	76.1	-4.00709E-001	-5.36575E-005	0.00000E+000	-4.00011E-001	0.00000E+000	9	...........	1426.13
	82	86.1	-4.00710E-001	-5.18640E-005	0.00000E+000	-4.00011E-001	0.00000E+000	9	...........	1426.13
	83	96.1	-4.00719E-001	-5.11368E-005	0.00000E+000	-4.00011E-001	0.00000E+000	9	...........	1426.13
	84	106.1	-4.00728E-001	-4.92450E-005	0.00000E+000	-4.00011E-001	0.00000E+000	9	...........	1426.13
	85	116.1	-4.00718E-001	-4.87003E-005	0.00000E+000	-4.00011E-001	0.00000E+000	9	...........	1426.13
	86	216.1	-4.00717E-001	-4.14707E-005	0.00000E+000	-4.00011E-001	0.00000E+000	9	...........	1426.13
	87	300	-4.00726E-001	-3.86695E-005	0.00000E+000	-4.00011E-001	0.00000E+000	9	...........	1426.13
	88	300.1	-5.00731E-001	-1.93417E-004	0.00000E+000	-5.00010E-001	0.00000E+000	9	...........	1426.13
	89	300.2	-5.00742E-001	-1.78998E-004	0.00000E+000	-5.00010E-001	0.00000E+000	9	...........	1426.13
	90	300.3	-5.00728E-001	-1.76024E-004	0.00000E+000	-5.00010E-001	0.00000E+000	9	...........	1426.13
	91	300.4	-5.00732E-001	-1.74336E-004	0.00000E+000	-5.00010E-001	0.00000E+000	9	...........	1426.13
	92	300.5	-5.00750E-001	-1.73115E-004	0.00000E+000	-5.00010E-001	0.00000E+000	9	...........	1426.13
	93	300.6	-5.00732E-001	-1.72012E-004	0.00000E+000	-5.00010E-001	0.00000E+000	9	...........	1426.13
	94	300.7	-5.00739E-001	-1.71042E-004	0.00000E+000	-5.00010E-001	0.00000E+000	9	...........	1426.13
	95	300.8	-5.00746E-001	-1.70165E-004	0.00000E+000	-5.00010E-001	0.00000E+000	9	...........	1426.13
	96	300.9	-5.00736E-001	-1.69336E-004	0.00000E+000	-5.00010E-001	0.00000E+000	9	...........	1426.13
	97	301	-5.00738E-001	-1.68541E-004	0.00000E+000	-5.00010E-001	0.00000E+000	9	...........	1426.13
