#Wave		#Intensity
2001.242188	25238.187500
2000.272461	25178.031250
1999.302734	25186.166016
1998.333008	24828.472656
1997.363281	25315.160156
1996.392578	25208.044922
1995.422852	25183.607422
1994.452148	25119.117188
1993.481445	24957.013672
1992.510742	24774.941406
1991.540039	25140.998047
1990.568359	25126.597656
1989.596680	24872.039063
1988.625977	25062.792969
1987.654297	25163.451172
1986.681641	24861.507813
1985.709961	25024.664063
1984.738281	24905.312500
1983.765625	24955.943359
1982.792969	25146.478516
1981.820313	25149.578125
1980.847656	24962.845703
1979.874023	24361.619141
1978.901367	24656.990234
1977.927734	24884.853516
1976.954102	25145.085938
1975.980469	24723.925781
1975.006836	24989.082031
1974.032227	24712.789063
1973.058594	24838.171875
1972.083984	24871.238281
1971.109375	24844.451172
1970.134766	24914.896484
1969.160156	24987.810547
1968.184570	24734.230469
1967.209961	24779.738281
1966.234375	25091.792969
1965.258789	24923.013672
1964.283203	24873.828125
1963.306641	24707.632813
1962.331055	24548.960938
1961.354492	24910.560547
1960.377930	24298.978516
1959.401367	24966.541016
1958.424805	24377.550781
1957.447266	24388.208984
1956.470703	24747.029297
1955.493164	24511.458984
1954.515625	24514.628906
1953.538086	24900.576172
1952.560547	24200.376953
1951.582031	24588.728516
1950.604492	24676.343750
1949.625977	24664.572266
1948.647461	24630.455078
1947.668945	24489.582031
1946.689453	24822.919922
1945.710938	24823.539063
1944.731445	24198.777344
1943.751953	24874.400391
1942.772461	24612.041016
1941.792969	24630.056641
1940.813477	24397.589844
1939.833008	24606.554688
1938.852539	24631.996094
1937.873047	24392.212891
1936.891602	24677.890625
1935.911133	24428.269531
1934.930664	24599.880859
1933.949219	24578.234375
1932.967773	24742.330078
1931.986328	24653.810547
1931.004883	24468.773438
1930.023438	24815.960938
1929.041016	24299.343750
1928.059570	24557.363281
1927.077148	24686.648438
1926.094727	24373.144531
1925.112305	24697.781250
1924.128906	24461.033203
1923.146484	24187.285156
1922.163086	24336.291016
1921.179688	24574.210938
1920.196289	24737.919922
1919.212891	24335.849609
1918.228516	24546.470703
1917.245117	24581.681641
1916.260742	24347.746094
1915.276367	24775.494141
1914.291992	24356.486328
1913.307617	24019.064453
1912.322266	24454.042969
1911.336914	24365.880859
1910.352539	24810.509766
1909.367188	24317.878906
1908.380859	24338.269531
1907.395508	24383.306641
1906.409180	24218.820313
1905.423828	24436.361328
1904.437500	24491.208984
1903.451172	24117.392578
1902.463867	24440.746094
1901.477539	24357.654297
1900.490234	23883.105469
1899.503906	24139.861328
1898.516602	24300.533203
1897.528320	24291.347656
1896.541016	23981.988281
1895.553711	24174.582031
1894.565430	24170.339844
1893.577148	24038.220703
1892.588867	23901.232422
1891.600586	24187.115234
1890.611328	24158.291016
1889.623047	24350.644531
1888.633789	24198.949219
1887.644531	24332.269531
1886.655273	23962.033203
1885.666016	23901.345703
1884.675781	24044.464844
1883.686523	24010.785156
1882.696289	24178.376953
1881.706055	24164.314453
1880.715820	24295.015625
1879.724609	24069.968750
1878.734375	24337.990234
1877.743164	24331.261719
1876.751953	23964.119141
1875.760742	23888.818359
1874.769531	24181.189453
1873.778320	24096.072266
1872.786133	23888.480469
1871.793945	24489.351563
1870.801758	24115.214844
1869.809570	23966.498047
1868.817383	24307.507813
1867.824219	23828.333984
1866.832031	24737.070313
1865.838867	23790.593750
1864.845703	23935.658203
1863.851563	24178.519531
1862.858398	23963.931641
1861.865234	24228.708984
1860.871094	23769.691406
1859.876953	23926.849609
1858.882813	23702.675781
1857.887695	23847.572266
1856.893555	24031.505859
1855.898438	23993.082031
1854.904297	23966.880859
1853.909180	24109.181641
1852.913086	24190.394531
1851.917969	24076.291016
1850.922852	23810.908203
1849.926758	24031.220703
1848.930664	24151.421875
1847.934570	23981.296875
1846.938477	23935.617188
1845.941406	23965.544922
1844.945313	24139.306641
1843.948242	23815.728516
1842.951172	24121.064453
1841.954102	24036.406250
1840.956055	24339.156250
1839.958984	23794.097656
1838.960938	24108.960938
1837.962891	24114.457031
1836.964844	23964.134766
1835.966797	24208.205078
1834.968750	23870.515625
1833.969727	23822.513672
1832.970703	24068.910156
1831.971680	24071.970703
1830.972656	24118.806641
1829.973633	23657.412109
1828.973633	24044.669922
1827.974609	24108.498047
1826.974609	24162.582031
1825.974609	24294.402344
1824.974609	23996.154297
1823.973633	24096.376953
1822.973633	23873.554688
1821.972656	23898.488281
1820.971680	23998.673828
1819.970703	24067.267578
1818.968750	23978.083984
1817.967773	23918.050781
1816.965820	23744.009766
1815.964844	24060.011719
1814.961914	24269.191406
1813.959961	24335.234375
1812.958008	24090.933594
1811.955078	23822.478516
1810.953125	24281.169922
1809.950195	24167.851563
1808.947266	24243.539063
1807.943359	24423.355469
1806.940430	24472.330078
1805.936523	24153.236328
1804.932617	24069.087891
1803.928711	24185.869141
1802.924805	23922.654297
1801.920898	24189.439453
1800.916016	23943.250000
1799.911133	24384.089844
1798.907227	24241.941406
1797.901367	24049.064453
1796.896484	24247.896484
1795.891602	24217.031250
1794.885742	24420.593750
1793.879883	24193.990234
1792.874023	23998.871094
1791.868164	23980.146484
1790.862305	24492.720703
1789.855469	24430.449219
1788.848633	24254.736328
1787.842773	24088.738281
1786.834961	24115.859375
1785.828125	24420.449219
1784.821289	24264.156250
1783.813477	24271.933594
1782.805664	24571.507813
1781.797852	24420.091797
1780.790039	24365.154297
1779.782227	24459.675781
1778.773438	24325.224609
1777.764648	24320.929688
1776.755859	24369.634766
1775.747070	24524.298828
1774.738281	24442.908203
1773.729492	24503.599609
1772.719727	24152.619141
1771.709961	24528.642578
1770.700195	24526.716797
1769.690430	24488.701172
1768.680664	24308.765625
1767.669922	24157.753906
1766.659180	24266.511719
1765.648438	24324.736328
1764.637695	24361.306641
1763.626953	24587.738281
1762.615234	24071.539063
1761.604492	24711.195313
1760.592773	24387.333984
1759.581055	24289.353516
1758.569336	24337.890625
1757.556641	24696.132813
1756.544922	24626.953125
1755.532227	24788.207031
1754.519531	24503.064453
1753.506836	24637.890625
1752.494141	24801.451172
1751.480469	24463.689453
1750.466797	24492.935547
1749.454102	24790.697266
1748.440430	24740.769531
1747.425781	24676.476563
1746.412109	24530.732422
1745.397461	24847.439453
1744.383789	24660.992188
1743.369141	24893.736328
1742.353516	24764.814453
1741.338867	24767.617188
1740.324219	25000.214844
1739.308594	24801.935547
1738.292969	25015.300781
1737.277344	24965.417969
1736.261719	25008.841797
1735.245117	25384.685547
1734.229492	25270.197266
1733.212891	25351.794922
1732.196289	25058.074219
1731.179688	25189.867188
1730.162109	25701.541016
1729.145508	25768.666016
1728.127930	25451.189453
1727.110352	25654.460938
1726.092773	25626.042969
1725.075195	25850.695313
1724.056641	25710.060547
1723.039063	25927.458984
1722.020508	26407.251953
1721.001953	26490.845703
1719.983398	26512.394531
1718.963867	26283.521484
1717.945313	26357.554688
1716.925781	26417.253906
1715.906250	26519.837891
1714.886719	26379.298828
1713.867188	26841.644531
1712.846680	26717.773438
1711.826172	26608.238281
1710.806641	26667.824219
1709.786133	27034.544922
1708.764648	26805.974609
1707.744141	27041.626953
1706.722656	27008.277344
1705.701172	26960.662109
1704.679688	27005.841797
1703.658203	26924.943359
1702.636719	27502.808594
1701.614258	27231.632813
1700.592773	27288.615234
1699.570313	27145.919922
1698.547852	27136.355469
1697.524414	26955.720703
1696.501953	27119.607422
1695.478516	27221.681641
1694.456055	27178.859375
1693.432617	27765.244141
1692.408203	27527.679688
1691.384766	27629.603516
1690.360352	27501.304688
1689.336914	27778.771484
1688.312500	27714.539063
1687.288086	27875.648438
1686.262695	27856.474609
1685.238281	27773.292969
1684.212891	27775.476563
1683.187500	27967.267578
1682.162109	28031.027344
1681.136719	28305.626953
1680.110352	27897.900391
1679.084961	28089.529297
1678.058594	28231.361328
1677.032227	28460.742188
1676.005859	28486.462891
1674.978516	28604.478516
1673.952148	28523.677734
1672.924805	28603.789063
1671.897461	28541.939453
1670.870117	28605.458984
1669.842773	28728.070313
1668.814453	28845.910156
1667.787109	28864.427734
1666.758789	28741.132813
1665.730469	29014.859375
1664.701172	29038.056641
1663.672852	29039.986328
1662.643555	29034.828125
1661.615234	28982.445313
1660.585938	29369.203125
1659.555664	29418.275391
1658.526367	29297.408203
1657.497070	29091.636719
1656.466797	29591.335938
1655.436523	29461.062500
1654.406250	29903.916016
1653.375977	29537.837891
1652.344727	29509.015625
1651.313477	29529.699219
1650.282227	29545.660156
1649.250977	29479.146484
1648.219727	29516.312500
1647.188477	29819.626953
1646.156250	29616.505859
1645.124023	29712.488281
1644.091797	29634.226563
1643.059570	29539.517578
1642.027344	29640.164063
1640.994141	30129.005859
1639.961914	29580.222656
1638.928711	29798.410156
1637.895508	29616.736328
1636.861328	29952.398438
1635.828125	29918.863281
1634.793945	30113.324219
1633.759766	29609.773438
1632.725586	29778.373047
1631.691406	29932.818359
1630.656250	29967.421875
1629.622070	29870.505859
1628.586914	29947.369141
1627.551758	30129.837891
1626.516602	30262.953125
1625.480469	30393.673828
1624.445313	30385.917969
1623.409180	30260.875000
1622.373047	30189.818359
1621.336914	30236.035156
1620.300781	30378.359375
1619.263672	30731.605469
1618.227539	30925.349609
1617.190430	30882.351563
1616.153320	31584.404297
1615.115234	31728.699219
1614.078125	31933.833984
1613.040039	32106.113281
1612.001953	32318.128906
1610.963867	32464.525391
1609.925781	32318.320313
1608.887695	32279.806641
1607.848633	31890.371094
1606.809570	31587.621094
1605.770508	31065.138672
1604.731445	31092.341797
1603.692383	30623.902344
1602.652344	30560.009766
1601.613281	30136.232422
1600.573242	29609.794922
1599.533203	30046.062500
1598.492188	29358.656250
1597.452148	29418.814453
1596.411133	28951.250000
1595.370117	29146.861328
1594.329102	28824.222656
1593.288086	28830.753906
1592.247070	28708.951172
1591.205078	28769.154297
1590.163086	28239.218750
1589.121094	28607.312500
1588.079102	28252.466797
1587.036133	28471.226563
1585.994141	28375.248047
1584.951172	28118.507813
1583.908203	27913.115234
1582.865234	28485.867188
1581.822266	28101.136719
1580.778320	28356.943359
1579.734375	28072.486328
1578.691406	28214.136719
1577.646484	28032.214844
1576.602539	28045.830078
1575.558594	28064.093750
1574.513672	28498.746094
1573.468750	28151.765625
1572.423828	28249.060547
1571.378906	28032.445313
1570.333008	28155.294922
1569.288086	27929.474609
1568.242188	27831.539063
1567.196289	27608.177734
1566.150391	27528.917969
1565.103516	27570.453125
1564.057617	27623.583984
1563.010742	26950.009766
1561.963867	26796.638672
1560.916992	26863.798828
1559.869141	27077.123047
1558.822266	26731.246094
1557.774414	26833.173828
1556.726563	27006.960938
1555.678711	26948.804688
1554.630859	26800.253906
1553.582031	26563.671875
1552.534180	26711.884766
1551.485352	26127.833984
1550.436523	26623.574219
1549.386719	26257.476563
1548.337891	26533.007813
1547.288086	26252.726563
1546.238281	26241.089844
1545.188477	26386.853516
1544.138672	26060.460938
1543.088867	25949.369141
1542.038086	25789.732422
1540.987305	25900.773438
1539.936523	25967.833984
1538.885742	25889.203125
1537.834961	25785.169922
1536.783203	26016.316406
1535.731445	26041.707031
1534.679688	25357.763672
1533.627930	25875.310547
1532.576172	26046.218750
1531.523438	25872.984375
1530.471680	26080.771484
1529.418945	25602.878906
1528.366211	25695.236328
1527.312500	25967.554688
1526.259766	25748.339844
1525.206055	25573.033203
1524.152344	25725.291016
1523.098633	25720.689453
1522.044922	25976.615234
1520.990234	25427.955078
1519.936523	25423.406250
1518.881836	25547.898438
1517.827148	25667.736328
1516.772461	25628.591797
1515.716797	25764.492188
1514.662109	25879.619141
1513.606445	26003.914063
1512.550781	25980.843750
1511.495117	26013.017578
1510.438477	25946.232422
1509.382813	25812.753906
1508.326172	25872.539063
1507.269531	25826.509766
1506.212891	25743.707031
1505.155273	25277.007813
1504.098633	25132.269531
1503.041016	25378.265625
1501.983398	25109.482422
1500.925781	25164.716797
1499.867188	25215.333984
1498.809570	24802.042969
1497.750977	25160.380859
1496.692383	24990.585938
1495.633789	25098.576172
1494.575195	25380.933594
1493.515625	25165.298828
1492.457031	25268.609375
1491.397461	25023.251953
1490.337891	24979.783203
1489.277344	25133.509766
1488.217773	25055.650391
1487.157227	24909.056641
1486.096680	24845.011719
1485.036133	25033.013672
1483.975586	24948.351563
1482.915039	25067.556641
1481.853516	24719.576172
1480.791992	24941.804688
1479.730469	25099.857422
1478.668945	24960.326172
1477.606445	25308.242188
1476.544922	25164.144531
1475.482422	24951.474609
1474.419922	25216.869141
1473.357422	24997.404297
1472.293945	25056.933594
1471.231445	25198.730469
1470.167969	25013.664063
1469.104492	25632.978516
1468.041016	25230.863281
1466.976563	25114.412109
1465.913086	25301.742188
1464.848633	25310.902344
1463.784180	25116.876953
1462.719727	25137.476563
1461.655273	25244.789063
1460.589844	25066.847656
1459.524414	25347.511719
1458.458984	25062.412109
1457.393555	25085.279297
1456.328125	24880.130859
1455.261719	24969.128906
1454.196289	25222.203125
1453.129883	24875.847656
1452.063477	25149.349609
1450.996094	25055.990234
1449.929688	25345.302734
1448.862305	24851.152344
1447.794922	24917.269531
1446.727539	25003.849609
1445.660156	25399.931641
1444.591797	25379.439453
1443.524414	25406.732422
1442.456055	25361.222656
1441.387695	25329.375000
1440.318359	25534.025391
1439.250000	25549.900391
1438.180664	25652.146484
1437.111328	25365.720703
1436.041992	25681.556641
1434.972656	25322.525391
1433.903320	25692.769531
1432.833008	25799.433594
1431.762695	25601.791016
1430.692383	26035.347656
1429.622070	26130.541016
1428.550781	25513.093750
1427.480469	25646.917969
1426.409180	25853.289063
1425.337891	25744.302734
1424.266602	26009.542969
1423.194336	26109.166016
1422.122070	26186.083984
1421.050781	26333.234375
1419.978516	26550.583984
1418.905273	26355.484375
1417.833008	26525.175781
1416.759766	26287.113281
1415.687500	26361.644531
1414.614258	25956.148438
1413.540039	26057.873047
1412.466797	25768.005859
1411.392578	25914.984375
1410.319336	25901.271484
1409.245117	25715.642578
1408.169922	25941.707031
1407.095703	25851.109375
1406.020508	25950.457031
1404.946289	26293.900391
1403.871094	26354.708984
1402.794922	26304.771484
1401.719727	26503.369141
1400.643555	26471.490234
1399.568359	26191.195313
1398.492188	26240.671875
1397.415039	26335.281250
1396.338867	26118.361328
1395.261719	26170.078125
1394.185547	26020.953125
1393.108398	26158.394531
1392.031250	26054.437500
1390.953125	26433.126953
1389.875977	26056.326172
1388.797852	26029.087891
1387.719727	26170.906250
1386.641602	26323.941406
1385.562500	26055.578125
1384.484375	26084.673828
1383.405273	25730.859375
1382.326172	26086.533203
1381.247070	26052.562500
1380.166992	25969.078125
1379.087891	26079.183594
1378.007813	25727.933594
1376.927734	25786.292969
1375.847656	25804.138672
1374.767578	25621.808594
1373.686523	25473.271484
1372.605469	25612.570313
1371.524414	25518.035156
1370.443359	25470.732422
1369.362305	25142.560547
1368.280273	25117.804688
1367.199219	25178.417969
1366.117188	25256.972656
1365.034180	25140.144531
1363.952148	25243.371094
1362.870117	25375.742188
1361.787109	25409.316406
1360.704102	25465.314453
1359.621094	25720.958984
1358.537109	25462.855469
1357.454102	25343.886719
1356.370117	25397.611328
1355.286133	25128.494141
1354.202148	25094.820313
1353.118164	25058.916016
1352.033203	24718.304688
1350.948242	24693.679688
1349.863281	24832.568359
1348.778320	24648.935547
1347.693359	24344.460938
1346.607422	24597.501953
1345.521484	24358.052734
1344.435547	24541.626953
1343.349609	24541.669922
1342.263672	24409.732422
1341.176758	24351.646484
1340.090820	24206.369141
1339.003906	24094.681641
1337.916016	24300.451172
1336.829102	24570.960938
1335.741211	24445.855469
1334.654297	24577.722656
1333.566406	24396.816406
1332.478516	24550.974609
1331.389648	24662.650391
1330.301758	24588.986328
1329.212891	24513.115234
1328.124023	24673.832031
1327.035156	24618.052734
1325.945313	24591.292969
1324.856445	24974.957031
1323.766602	25182.300781
1322.676758	25035.048828
1321.586914	25262.369141
1320.496094	25222.138672
1319.406250	25625.392578
1318.315430	25442.511719
1317.224609	25486.919922
1316.133789	25827.539063
1315.041992	25771.650391
1313.951172	25793.707031
1312.859375	25918.154297
1311.767578	25690.898438
1310.675781	25850.921875
1309.583008	25919.666016
1308.491211	25521.248047
1307.398438	25432.115234
1306.305664	25536.472656
1305.212891	25485.164063
1304.119141	25253.822266
1303.026367	25322.591797
1301.932617	25520.216797
1300.838867	25375.634766
1299.744141	25539.855469
1298.650391	25906.113281
1297.555664	25848.132813
1296.461914	26014.396484
1295.366211	26096.253906
1294.271484	26557.568359
1293.176758	26355.283203
1292.081055	26110.921875
1290.985352	26241.492188
1289.889648	26046.025391
1288.793945	25939.316406
1287.697266	25679.683594
1286.601563	25318.187500
1285.504883	25142.968750
1284.408203	25328.957031
1283.311523	25014.238281
1282.213867	24797.083984
1281.116211	25051.679688
1280.018555	24557.843750
1278.920898	24436.072266
1277.823242	24467.054688
1276.725586	24433.855469
1275.626953	24248.009766
1274.528320	24405.091797
1273.429688	24179.507813
1272.330078	24181.757813
1271.231445	23903.236328
1270.131836	24181.833984
1269.032227	24078.000000
1267.932617	23956.525391
1266.833008	23894.744141
1265.732422	23742.421875
1264.632813	23841.910156
1263.532227	23501.970703
1262.430664	23718.468750
1261.330078	23771.554688
1260.228516	23385.466797
1259.127930	23906.349609
1258.026367	23685.824219
1256.924805	23224.968750
1255.822266	23368.503906
1254.720703	23220.951172
1253.618164	22974.255859
1252.515625	23452.761719
1251.413086	23162.039063
1250.309570	23171.054688
1249.207031	23338.667969
1248.103516	23149.431641
1247.000000	23257.531250
1245.895508	23193.867188
1244.791992	22965.134766
1243.687500	22941.158203
1242.583008	23040.412109
1241.478516	23150.630859
1240.374023	23164.023438
1239.269531	23096.041016
1238.164063	23351.306641
1237.058594	23195.376953
1235.953125	23191.164063
1234.847656	23538.568359
1233.741211	22822.398438
1232.635742	23174.136719
1231.529297	23038.142578
1230.422852	23084.464844
1229.315430	23016.599609
1228.208984	23282.429688
1227.101563	23249.666016
1225.994141	23142.304688
1224.886719	23296.068359
1223.779297	23340.095703
1222.670898	23504.732422
1221.562500	23088.208984
1220.454102	23294.486328
1219.345703	23073.242188
1218.237305	23202.736328
1217.127930	23027.603516
1216.018555	22964.263672
1214.909180	22822.091797
1213.799805	22618.650391
1212.690430	22756.863281
1211.580078	22833.728516
1210.469727	22700.433594
1209.359375	22497.158203
1208.249023	22797.205078
1207.138672	22812.746094
1206.027344	22605.183594
1204.916016	22784.767578
1203.804688	22408.925781
1202.693359	22490.105469
1201.581055	22785.449219
1200.469727	22578.074219
1199.357422	22696.318359
1198.245117	22406.023438
1197.131836	22703.347656
1196.019531	22734.154297
1194.906250	22847.914063
1193.792969	22752.074219
1192.679688	22723.925781
1191.566406	22802.708984
1190.452148	22698.201172
1189.337891	22783.501953
1188.223633	22580.892578
1187.109375	22402.341797
1185.995117	22350.300781
1184.879883	22285.201172
1183.764648	22316.011719
1182.649414	22329.378906
1181.534180	22425.523438
1180.418945	22125.216797
1179.302734	22310.646484
1178.186523	22230.376953
1177.070313	21899.789063
1175.954102	22285.396484
1174.837891	22166.001953
1173.720703	22031.419922
1172.603516	21912.113281
1171.486328	21899.421875
1170.369141	21971.539063
1169.250977	21897.962891
1168.132813	21850.496094
1167.015625	21670.472656
1165.896484	21699.117188
1164.778320	21762.511719
1163.660156	22058.302734
1162.541016	21769.781250
1161.421875	21796.210938
1160.302734	21746.646484
1159.182617	21486.552734
1158.063477	21925.351563
1156.943359	21984.277344
1155.823242	21661.367188
1154.703125	22010.962891
1153.582031	21716.357422
1152.461914	21792.619141
1151.340820	21535.009766
1150.219727	21524.580078
1149.097656	21689.679688
1147.976563	21679.222656
1146.854492	21894.056641
1145.732422	21580.347656
1144.610352	21580.742188
1143.488281	21548.658203
1142.365234	21540.396484
1141.243164	21791.845703
1140.120117	21885.242188
1138.996094	22013.218750
1137.873047	21903.210938
1136.750000	21979.230469
1135.625977	22204.419922
1134.501953	22051.195313
1133.377930	21934.771484
1132.252930	21861.611328
1131.127930	21807.923828
1130.003906	21944.361328
1128.878906	22011.630859
1127.752930	21841.328125
1126.627930	21943.136719
1125.501953	21710.302734
1124.375977	21831.519531
1123.250000	21836.164063
1122.124023	22153.648438
1120.997070	21728.957031
1119.871094	21923.408203
1118.744141	21859.023438
1117.617188	21788.195313
1116.489258	21557.878906
1115.362305	22019.457031
1114.234375	21763.322266
1113.106445	21936.005859
1111.978516	21565.816406
1110.849609	21975.365234
1109.721680	21525.634766
1108.592773	21870.455078
1107.463867	22008.515625
1106.333984	21778.529297
1105.205078	21647.599609
1104.075195	21800.681641
1102.945313	21545.046875
1101.815430	21773.355469
1100.685547	21582.318359
1099.554688	21730.996094
1098.424805	21714.125000
1097.293945	21821.894531
1096.162109	21693.291016
1095.031250	21530.363281
1093.899414	21717.570313
1092.768555	21614.820313
1091.636719	21522.839844
1090.503906	21596.177734
1089.372070	21555.740234
1088.239258	21489.568359
1087.106445	21438.437500
1085.973633	21235.033203
1084.840820	21454.181641
1083.708008	21362.341797
1082.574219	21392.732422
1081.440430	21663.167969
1080.306641	21397.757813
1079.171875	21410.980469
1078.038086	21441.333984
1076.903320	21544.500000
1075.768555	21529.845703
1074.633789	21397.441406
1073.498047	21115.240234
1072.363281	21325.396484
1071.227539	21520.496094
1070.091797	21741.197266
1068.956055	21608.871094
1067.819336	21241.335938
1066.682617	21374.294922
1065.546875	21402.447266
1064.409180	21631.511719
1063.272461	21520.693359
1062.135742	21420.595703
1060.998047	21442.306641
1059.860352	21513.132813
1058.722656	21746.236328
1057.583984	21607.734375
1056.446289	21174.687500
1055.307617	21328.748047
1054.168945	21175.458984
1053.029297	21128.904297
1051.890625	21395.945313
1050.750977	21018.781250
1049.611328	21194.050781
1048.471680	21414.025391
1047.332031	21277.937500
1046.191406	21361.414063
1045.051758	21261.607422
1043.911133	21308.837891
1042.769531	21334.750000
1041.628906	21537.414063
1040.487305	21314.146484
1039.346680	21261.271484
1038.205078	21425.521484
1037.062500	21098.117188
1035.920898	21247.441406
1034.778320	21049.953125
1033.635742	21086.501953
1032.493164	20918.886719
1031.350586	21017.103516
1030.207031	20885.699219
1029.063477	20937.125000
1027.919922	20943.904297
1026.776367	21061.162109
1025.632813	21384.423828
1024.488281	20877.150391
1023.343750	21236.423828
1022.199219	20920.435547
1021.054688	21271.076172
1019.910156	21135.589844
1018.764648	21316.310547
1017.619141	21087.517578
1016.473633	21106.974609
1015.327148	21124.304688
1014.181641	21035.611328
1013.035156	21343.375000
1011.888672	20966.414063
1010.742188	21125.736328
1009.594727	21176.941406
1008.448242	21115.853516
1007.300781	20948.888672
1006.153320	20883.626953
1005.005859	21550.939453
1003.857422	21273.910156
1002.708984	21358.888672
1001.560547	21232.232422
1000.412109	21528.748047
999.263672	21340.763672
998.114258	21616.000000
996.965820	21544.363281
995.816406	21350.132813
994.666016	21686.511719
993.516602	21519.796875
992.366211	21680.646484
991.215820	21539.343750
990.065430	21579.736328
988.915039	21430.054688
987.763672	21453.560547
986.613281	21576.271484
985.461914	21525.869141
984.309570	21458.601563
983.158203	21410.345703
982.005859	21585.707031
980.854492	21554.316406
979.701172	21573.542969
978.548828	21478.917969
977.396484	21519.228516
976.243164	21586.921875
975.089844	21372.238281
973.936523	21562.119141
972.783203	21362.261719
971.628906	21295.150391
970.474609	21512.310547
969.320313	21647.289063
968.166016	21251.814453
967.010742	21523.574219
965.856445	21279.755859
964.701172	21103.339844
963.545898	21410.728516
962.390625	21499.306641
961.234375	21608.878906
960.078125	21457.753906
958.921875	21527.357422
957.765625	21687.289063
956.609375	21574.046875
955.452148	21582.673828
954.294922	21725.703125
953.137695	21639.810547
951.980469	21413.291016
950.822266	21400.947266
949.665039	21222.820313
948.506836	21500.064453
947.347656	21609.380859
946.189453	21670.416016
945.030273	21886.607422
943.872070	21295.513672
942.712891	21446.708984
941.552734	21629.285156
940.393555	21683.968750
939.233398	21688.349609
938.073242	21284.259766
936.913086	21429.029297
935.752930	21674.253906
934.591797	21582.326172
933.430664	21948.832031
932.269531	21760.619141
931.108398	21691.738281
929.947266	21857.187500
928.785156	21756.939453
927.623047	21861.667969
926.460938	21853.451172
925.298828	21845.236328
924.135742	22014.677734
922.972656	21678.355469
921.810547	21877.013672
920.646484	22115.289063
919.483398	21766.597656
918.319336	21969.304688
917.155273	21956.896484
915.991211	21975.802734
914.827148	22170.005859
913.662109	21921.779297
912.498047	22368.351563
911.333008	22426.794922
910.167969	22451.847656
909.001953	22503.996094
907.836914	22652.019531
906.670898	22178.869141
905.504883	22441.509766
904.337891	22312.351563
903.171875	22339.476563
902.004883	22308.271484
900.837891	22474.902344
899.670898	22449.927734
898.503906	22266.759766
897.335938	22283.457031
896.167969	22218.992188
895.000000	22144.150391
893.832031	22285.658203
892.663086	22408.398438
891.495117	22389.699219
890.326172	22560.185547
889.156250	22516.521484
887.987305	22389.748047
886.817383	22487.416016
885.648438	22599.587891
884.478516	22279.707031
883.307617	22611.992188
882.137695	22582.894531
880.966797	22736.478516
879.795898	22734.347656
878.625000	23062.148438
877.454102	22794.398438
876.282227	23076.429688
875.110352	22958.095703
873.938477	22931.037109
872.766602	23248.126953
871.593750	23171.277344
870.421875	23210.507813
869.249023	22953.429688
868.076172	23065.187500
866.902344	23239.042969
865.729492	23238.880859
864.555664	23456.115234
863.381836	23772.630859
862.207031	23780.646484
861.033203	23877.636719
859.858398	23784.250000
858.683594	23846.039063
857.508789	23775.439453
856.333984	23634.562500
855.158203	23739.753906
853.982422	23917.251953
852.806641	23695.826172
851.630859	23519.937500
850.454102	23641.595703
849.278320	23810.712891
848.101563	23802.169922
846.924805	23632.580078
845.747070	23739.673828
844.570313	23813.701172
843.392578	23803.095703
842.214844	24172.117188
841.036133	24064.496094
839.858398	24363.207031
838.679688	24511.279297
837.500977	24879.890625
836.322266	24632.048828
835.143555	24689.304688
833.963867	24513.705078
832.784180	24739.890625
831.604492	24290.398438
830.424805	24401.216797
829.244141	24269.033203
828.063477	24227.476563
826.882813	24260.027344
825.702148	24105.304688
824.521484	24183.128906
823.339844	24127.214844
822.158203	24254.363281
820.976563	24319.775391
819.794922	24128.173828
818.612305	23749.587891
817.430664	23923.976563
816.248047	24120.902344
815.064453	24073.281250
813.881836	24224.916016
812.698242	23994.519531
811.514648	24094.779297
810.331055	24125.203125
809.147461	24044.779297
807.962891	24198.326172
806.778320	24318.984375
805.593750	24205.746094
804.409180	24041.275391
803.224609	24047.062500
802.039063	23907.281250
800.853516	24191.863281
799.667969	23945.535156
798.482422	23902.152344
797.295898	23932.537109
796.109375	23797.000000
794.922852	23688.132813
793.736328	23769.726563
792.548828	23894.277344
791.362305	23574.632813
790.174805	23576.390625
788.986328	23768.421875
787.798828	23817.189453
786.610352	23657.322266
785.421875	23665.191406
784.233398	23525.855469
783.044922	23593.023438
781.856445	23731.695313
780.666992	23602.636719
779.477539	23506.314453
778.288086	23211.894531
777.097656	23411.796875
775.907227	23621.832031
774.717773	23548.027344
773.526367	23315.046875
772.335938	23400.498047
771.144531	23432.869141
769.954102	23389.748047
768.762695	23503.689453
767.570313	23680.798828
766.378906	23360.378906
765.186523	23515.025391
763.994141	23535.105469
762.801758	23669.283203
761.609375	23815.632813
760.416016	23699.169922
759.222656	23594.968750
758.029297	23975.402344
756.835938	23861.005859
755.641602	23944.082031
754.447266	23968.113281
753.252930	24049.101563
752.058594	24089.375000
750.864258	23909.974609
749.668945	23805.880859
748.473633	23679.458984
747.278320	23675.046875
746.083008	23611.697266
744.886719	23645.904297
743.690430	23389.582031
742.494141	23572.091797
741.297852	23285.414063
740.100586	23610.005859
738.904297	23491.919922
737.707031	23457.095703
736.509766	23111.798828
735.311523	23312.412109
734.113281	23354.720703
732.916016	23090.759766
731.716797	23072.257813
730.518555	23207.847656
729.320313	23315.005859
728.121094	23053.271484
726.921875	23221.205078
725.721680	23370.841797
724.522461	23423.197266
723.322266	23325.669922
722.122070	23426.605469
720.921875	23183.355469
719.721680	23454.294922
718.520508	23138.279297
717.319336	23441.496094
716.118164	23352.160156
714.916992	23042.402344
713.714844	23410.171875
712.513672	23258.214844
711.311523	23553.035156
710.108398	23376.853516
708.906250	23483.623047
707.703125	23457.015625
706.500000	23450.615234
705.296875	23730.982422
704.093750	23482.238281
702.889648	23540.433594
701.685547	23602.642578
700.481445	23695.097656
699.277344	23928.748047
698.072266	23833.501953
696.868164	23974.261719
695.663086	23927.435547
694.457031	23975.384766
693.251953	24031.375000
692.045898	24034.945313
690.839844	24250.083984
689.633789	24303.974609
688.427734	24224.906250
687.220703	24256.626953
686.013672	24197.728516
684.806641	24229.441406
683.599609	23953.195313
682.391602	24200.257813
681.184570	24270.175781
679.976563	24036.316406
678.767578	24009.699219
677.559570	24174.117188
676.350586	23994.687500
675.141602	23909.796875
673.932617	24365.544922
672.723633	24190.193359
671.513672	24372.500000
670.303711	24223.322266
669.093750	24550.142578
667.883789	24284.533203
666.672852	23978.873047
665.462891	24076.744141
664.251953	23931.771484
663.040039	24021.587891
661.829102	24019.097656
660.617188	24118.890625
659.405273	23875.757813
658.193359	24049.716797
656.981445	23678.402344
655.768555	24124.882813
654.555664	23913.986328
653.342773	23689.142578
652.129883	24117.339844
650.916016	24345.121094
649.702148	23970.156250
648.488281	24181.863281
647.274414	24331.443359
646.059570	24290.865234
644.845703	24726.464844
643.630859	24591.812500
642.416016	24619.203125
641.200195	24668.578125
639.984375	24665.955078
638.769531	24591.375000
637.552734	24494.837891
636.336914	24436.298828
635.120117	24299.871094
633.904297	24211.427734
632.687500	24330.699219
631.469727	24459.908203
630.252930	24255.703125
629.035156	24299.054688
627.817383	24186.744141
626.599609	24084.451172
625.380859	24147.753906
624.163086	24306.757813
622.944336	24112.775391
621.724609	24279.699219
620.505859	24516.320313
619.286133	24278.562500
618.066406	24174.384766
616.846680	24213.673828
615.626953	24448.134766
614.406250	24341.990234
613.186523	24327.466797
611.965820	24086.021484
610.744141	24173.050781
609.523438	24256.066406
608.301758	24398.734375
607.080078	24308.623047
605.858398	24467.132813
604.635742	24677.281250
603.414063	24243.246094
602.191406	24405.652344
600.968750	24484.533203
599.745117	24581.263672
598.522461	24391.906250
597.298828	24643.531250
596.075195	24589.259766
594.850586	24677.951172
593.626953	24766.609375
592.402344	25008.048828
591.177734	24872.390625
589.953125	24780.427734
588.727539	25031.640625
587.501953	25245.080078
586.276367	25091.630859
585.050781	25471.494141
583.825195	25415.175781
582.598633	25321.224609
581.372070	25486.853516
580.145508	25381.037109
578.917969	26017.951172
577.691406	25654.654297
576.463867	25556.781250
575.236328	25793.460938
574.007813	26233.890625
572.780273	26209.169922
571.551758	25852.107422
570.323242	26017.345703
569.094727	25923.462891
567.865234	25964.060547
566.635742	25708.125000
565.406250	25811.990234
564.176758	25643.123047
562.947266	25555.320313
561.716797	25536.683594
560.486328	25482.505859
559.255859	25201.271484
558.024414	25172.837891
556.793945	25523.386719
555.562500	25153.496094
554.331055	25071.810547
553.098633	25343.269531
551.867188	24896.695313
550.634766	25264.708984
549.402344	24983.929688
548.168945	25115.238281
546.936523	25136.128906
545.703125	25084.103516
544.469727	24959.203125
543.236328	24820.560547
542.001953	25034.484375
540.767578	24939.195313
539.533203	25225.851563
538.298828	24770.371094
537.064453	24988.074219
535.829102	25050.259766
534.593750	24974.722656
533.358398	24991.650391
532.122070	25034.134766
530.886719	25318.421875
529.650391	25270.404297
528.414063	25139.863281
527.176758	25253.019531
525.940430	25572.406250
524.703125	25186.537109
523.465820	25323.181641
522.227539	25418.541016
520.990234	25449.082031
519.751953	25196.984375
518.513672	25123.550781
517.275391	25385.636719
516.036133	25475.005859
514.796875	25587.871094
513.557617	25447.746094
512.318359	25435.103516
511.079102	25475.386719
509.838867	25415.708984
508.598633	25050.390625
507.358398	25694.087891
506.117188	25581.515625
504.876953	25566.896484
503.635742	25468.091797
502.394531	25580.734375
501.152344	25413.462891
499.911133	25484.980469
498.668945	25642.548828
497.425781	25667.048828
496.183594	25836.255859
494.941406	25762.941406
493.698242	25568.449219
492.455078	25675.029297
491.210938	25621.326172
489.967773	25585.224609
488.723633	25838.248047
487.479492	25618.527344
486.235352	25844.107422
484.990234	25731.845703
483.745117	25838.246094
482.500000	26112.443359
481.254883	25728.968750
480.008789	25938.703125
478.763672	26179.562500
477.517578	25880.144531
476.271484	26269.105469
475.024414	26332.367188
473.777344	26165.621094
472.530273	26084.675781
471.283203	26424.591797
470.036133	26296.875000
468.788086	26328.906250
467.540039	26641.318359
466.291992	26525.310547
465.043945	26676.009766
463.794922	26764.375000
462.545898	26545.285156
461.296875	26954.621094
460.047852	26506.068359
458.797852	26802.466797
457.547852	26956.822266
456.297852	27089.736328
455.047852	26925.244141
453.796875	27108.632813
452.545898	26895.625000
451.294922	27205.203125
450.043945	27382.605469
448.792969	27400.720703
447.541016	27477.068359
446.289063	27138.027344
445.036133	27604.445313
443.784180	27525.490234
442.531250	27481.482422
441.278320	27627.554688
440.025391	27754.181641
438.771484	27326.283203
437.518555	27094.320313
436.264648	27331.437500
435.010742	27097.619141
433.755859	27047.929688
432.500977	26963.392578
431.246094	26944.728516
429.991211	27013.197266
428.736328	26735.132813
427.480469	26844.255859
426.224609	26912.699219
424.968750	26895.990234
423.712891	27022.425781
422.456055	26821.974609
421.199219	27058.587891
419.942383	26539.222656
418.685547	26868.574219
417.427734	26963.968750
416.169922	26796.558594
414.912109	27061.921875
413.654297	26676.306641
412.395508	26881.728516
411.136719	26880.490234
409.877930	27020.164063
408.619141	26949.419922
407.359375	26882.562500
406.099609	27074.240234
404.839844	26974.589844
403.580078	26743.841797
402.319336	26796.609375
401.059570	26752.970703
