#Wave		#Intensity
2001.242188	29719.851563
2000.272461	29639.642578
1999.302734	29649.505859
1998.333008	29711.982422
1997.363281	30127.669922
1996.392578	30129.923828
1995.422852	29981.916016
1994.452148	29668.703125
1993.481445	29808.722656
1992.510742	29778.486328
1991.540039	29240.236328
1990.568359	29482.841797
1989.596680	29612.785156
1988.625977	29910.267578
1987.654297	29377.367188
1986.681641	29432.246094
1985.709961	29747.099609
1984.738281	29556.937500
1983.765625	29391.832031
1982.792969	29656.552734
1981.820313	29633.882813
1980.847656	29888.474609
1979.874023	29448.714844
1978.901367	29710.738281
1977.927734	29465.884766
1976.954102	29692.867188
1975.980469	29695.164063
1975.006836	29490.361328
1974.032227	29522.626953
1973.058594	29699.550781
1972.083984	29724.285156
1971.109375	29654.259766
1970.134766	29676.498047
1969.160156	29559.146484
1968.184570	29593.851563
1967.209961	29842.828125
1966.234375	29426.554688
1965.258789	29859.791016
1964.283203	29692.695313
1963.306641	29657.625000
1962.331055	29722.142578
1961.354492	29338.607422
1960.377930	29549.986328
1959.401367	29422.896484
1958.424805	29532.185547
1957.447266	29696.158203
1956.470703	29322.904297
1955.493164	29618.634766
1954.515625	29461.804688
1953.538086	29362.199219
1952.560547	30030.537109
1951.582031	29312.167969
1950.604492	29461.064453
1949.625977	29257.201172
1948.647461	29396.119141
1947.668945	29626.855469
1946.689453	29529.816406
1945.710938	29817.537109
1944.731445	29440.066406
1943.751953	29769.878906
1942.772461	29370.220703
1941.792969	29474.214844
1940.813477	29664.968750
1939.833008	29183.710938
1938.852539	29728.953125
1937.873047	29555.201172
1936.891602	29369.117188
1935.911133	29406.095703
1934.930664	29455.447266
1933.949219	29487.441406
1932.967773	29509.517578
1931.986328	29152.753906
1931.004883	29543.742188
1930.023438	29642.523438
1929.041016	29516.068359
1928.059570	29575.230469
1927.077148	29480.988281
1926.094727	29342.257813
1925.112305	29552.267578
1924.128906	29317.140625
1923.146484	29640.796875
1922.163086	29667.734375
1921.179688	29697.132813
1920.196289	29301.537109
1919.212891	29526.148438
1918.228516	29523.441406
1917.245117	29488.632813
1916.260742	29500.746094
1915.276367	29352.392578
1914.291992	29404.015625
1913.307617	29334.697266
1912.322266	29729.267578
1911.336914	29423.089844
1910.352539	29501.791016
1909.367188	29553.337891
1908.380859	29508.703125
1907.395508	29439.433594
1906.409180	29412.087891
1905.423828	29579.431641
1904.437500	29419.017578
1903.451172	29593.691406
1902.463867	29322.490234
1901.477539	29482.341797
1900.490234	29533.798828
1899.503906	29526.156250
1898.516602	29469.287109
1897.528320	29597.003906
1896.541016	29264.572266
1895.553711	29566.937500
1894.565430	29529.775391
1893.577148	29672.140625
1892.588867	29556.291016
1891.600586	29327.398438
1890.611328	29698.302734
1889.623047	29489.123047
1888.633789	29289.843750
1887.644531	29446.835938
1886.655273	29483.419922
1885.666016	29254.775391
1884.675781	29642.480469
1883.686523	29173.312500
1882.696289	29801.425781
1881.706055	29521.347656
1880.715820	29535.791016
1879.724609	29864.228516
1878.734375	29410.140625
1877.743164	29493.255859
1876.751953	29515.046875
1875.760742	29438.771484
1874.769531	29195.855469
1873.778320	29528.900391
1872.786133	29371.806641
1871.793945	29763.492188
1870.801758	29292.906250
1869.809570	29498.357422
1868.817383	29564.177734
1867.824219	29133.039063
1866.832031	29279.664063
1865.838867	29409.109375
1864.845703	29768.492188
1863.851563	29455.035156
1862.858398	29444.964844
1861.865234	29813.929688
1860.871094	29786.685547
1859.876953	29422.105469
1858.882813	29663.785156
1857.887695	29560.822266
1856.893555	29479.884766
1855.898438	29340.347656
1854.904297	29747.947266
1853.909180	29852.603516
1852.913086	29786.316406
1851.917969	29453.972656
1850.922852	29629.400391
1849.926758	29726.677734
1848.930664	29670.212891
1847.934570	29857.703125
1846.938477	29652.458984
1845.941406	29774.042969
1844.945313	29744.423828
1843.948242	29656.310547
1842.951172	29694.962891
1841.954102	29718.978516
1840.956055	29825.820313
1839.958984	29528.261719
1838.960938	30036.953125
1837.962891	29715.109375
1836.964844	29953.341797
1835.966797	29517.214844
1834.968750	29760.263672
1833.969727	30275.763672
1832.970703	29898.195313
1831.971680	29613.195313
1830.972656	29984.951172
1829.973633	30118.275391
1828.973633	29789.621094
1827.974609	29983.699219
1826.974609	29861.761719
1825.974609	29800.615234
1824.974609	30009.162109
1823.973633	29882.423828
1822.973633	30137.023438
1821.972656	29903.462891
1820.971680	29602.005859
1819.970703	29676.894531
1818.968750	30125.501953
1817.967773	30042.546875
1816.965820	29874.705078
1815.964844	29871.867188
1814.961914	30133.378906
1813.959961	30021.376953
1812.958008	30076.695313
1811.955078	30270.158203
1810.953125	29913.414063
1809.950195	29825.755859
1808.947266	29992.507813
1807.943359	30122.865234
1806.940430	30182.945313
1805.936523	30153.410156
1804.932617	30106.937500
1803.928711	30295.271484
1802.924805	29934.175781
1801.920898	30362.017578
1800.916016	30320.375000
1799.911133	30271.490234
1798.907227	30225.039063
1797.901367	30214.871094
1796.896484	30410.199219
1795.891602	30506.353516
1794.885742	30206.136719
1793.879883	30205.640625
1792.874023	30178.570313
1791.868164	30446.185547
1790.862305	30691.972656
1789.855469	30157.769531
1788.848633	30883.929688
1787.842773	30567.111328
1786.834961	30272.125000
1785.828125	30768.656250
1784.821289	30408.599609
1783.813477	30615.488281
1782.805664	30419.570313
1781.797852	30556.458984
1780.790039	31038.029297
1779.782227	30591.466797
1778.773438	30721.019531
1777.764648	30660.177734
1776.755859	30724.626953
1775.747070	30618.041016
1774.738281	30754.716797
1773.729492	30681.869141
1772.719727	30669.228516
1771.709961	30880.431641
1770.700195	31024.179688
1769.690430	31249.679688
1768.680664	30666.812500
1767.669922	30889.888672
1766.659180	30771.408203
1765.648438	31145.857422
1764.637695	31101.892578
1763.626953	31158.888672
1762.615234	31285.552734
1761.604492	30946.056641
1760.592773	30950.197266
1759.581055	30999.968750
1758.569336	30934.457031
1757.556641	30940.994141
1756.544922	31410.828125
1755.532227	31352.474609
1754.519531	31474.115234
1753.506836	31180.642578
1752.494141	31141.546875
1751.480469	31397.466797
1750.466797	31427.884766
1749.454102	31482.267578
1748.440430	31706.826172
1747.425781	31763.533203
1746.412109	31453.587891
1745.397461	31524.693359
1744.383789	31581.400391
1743.369141	31879.980469
1742.353516	31512.759766
1741.338867	32012.353516
1740.324219	31745.773438
1739.308594	31711.437500
1738.292969	31734.542969
1737.277344	32099.761719
1736.261719	31632.417969
1735.245117	32009.480469
1734.229492	32027.728516
1733.212891	32301.781250
1732.196289	32463.390625
1731.179688	32373.998047
1730.162109	32874.843750
1729.145508	32919.195313
1728.127930	32803.492188
1727.110352	33038.894531
1726.092773	33018.718750
1725.075195	33454.542969
1724.056641	33274.371094
1723.039063	33528.613281
1722.020508	33360.421875
1721.001953	33643.183594
1719.983398	33517.960938
1718.963867	33853.062500
1717.945313	33792.226563
1716.925781	33907.824219
1715.906250	34595.445313
1714.886719	34474.925781
1713.867188	34344.914063
1712.846680	34481.769531
1711.826172	34320.839844
1710.806641	34545.761719
1709.786133	34542.023438
1708.764648	34528.761719
1707.744141	34284.621094
1706.722656	34209.531250
1705.701172	34648.414063
1704.679688	35044.316406
1703.658203	35166.546875
1702.636719	35198.363281
1701.614258	35051.839844
1700.592773	34791.257813
1699.570313	35146.371094
1698.547852	35016.566406
1697.524414	35171.929688
1696.501953	34890.125000
1695.478516	35190.335938
1694.456055	34932.375000
1693.432617	35367.800781
1692.408203	35247.582031
1691.384766	35229.464844
1690.360352	35451.031250
1689.336914	35620.316406
1688.312500	35476.410156
1687.288086	35370.503906
1686.262695	35769.734375
1685.238281	35765.761719
1684.212891	36304.636719
1683.187500	35864.464844
1682.162109	36419.718750
1681.136719	36259.253906
1680.110352	36304.933594
1679.084961	36104.281250
1678.058594	36498.066406
1677.032227	36778.066406
1676.005859	37084.007813
1674.978516	36620.644531
1673.952148	36860.242188
1672.924805	36707.011719
1671.897461	36960.699219
1670.870117	37242.675781
1669.842773	36538.492188
1668.814453	36993.031250
1667.787109	37523.046875
1666.758789	37317.859375
1665.730469	37566.433594
1664.701172	37273.894531
1663.672852	37144.441406
1662.643555	37281.910156
1661.615234	37395.714844
1660.585938	37308.800781
1659.555664	37460.324219
1658.526367	37465.472656
1657.497070	37595.671875
1656.466797	37371.949219
1655.436523	37377.101563
1654.406250	37693.554688
1653.375977	37757.597656
1652.344727	38158.738281
1651.313477	37803.105469
1650.282227	37619.636719
1649.250977	37989.953125
1648.219727	37846.562500
1647.188477	37700.863281
1646.156250	38000.312500
1645.124023	38287.882813
1644.091797	38043.304688
1643.059570	37709.371094
1642.027344	37982.710938
1640.994141	37933.605469
1639.961914	38355.015625
1638.928711	38134.156250
1637.895508	38012.144531
1636.861328	37871.363281
1635.828125	38377.105469
1634.793945	38492.500000
1633.759766	38316.457031
1632.725586	38389.527344
1631.691406	38107.847656
1630.656250	38695.296875
1629.622070	38690.761719
1628.586914	39125.281250
1627.551758	39097.191406
1626.516602	39400.046875
1625.480469	39214.691406
1624.445313	39458.757813
1623.409180	40019.421875
1622.373047	39712.089844
1621.336914	40063.800781
1620.300781	40124.664063
1619.263672	40448.042969
1618.227539	41235.363281
1617.190430	41940.386719
1616.153320	42010.234375
1615.115234	42660.988281
1614.078125	43711.996094
1613.040039	43746.363281
1612.001953	44028.886719
1610.963867	44208.308594
1609.925781	44120.863281
1608.887695	44471.019531
1607.848633	44112.167969
1606.809570	43680.925781
1605.770508	43245.160156
1604.731445	42215.621094
1603.692383	41798.972656
1602.652344	41134.699219
1601.613281	40928.718750
1600.573242	40447.089844
1599.533203	40671.171875
1598.492188	39766.976563
1597.452148	39741.207031
1596.411133	39801.839844
1595.370117	39085.042969
1594.329102	39113.085938
1593.288086	39409.500000
1592.247070	38732.816406
1591.205078	38557.945313
1590.163086	38439.113281
1589.121094	38499.890625
1588.079102	38693.546875
1587.036133	38229.726563
1585.994141	38598.171875
1584.951172	38763.738281
1583.908203	38843.031250
1582.865234	38318.941406
1581.822266	38433.226563
1580.778320	38761.707031
1579.734375	38677.957031
1578.691406	38594.238281
1577.646484	39003.972656
1576.602539	38720.093750
1575.558594	39355.343750
1574.513672	39036.605469
1573.468750	39415.726563
1572.423828	39390.089844
1571.378906	39722.511719
1570.333008	39210.988281
1569.288086	39276.039063
1568.242188	38827.519531
1567.196289	39208.585938
1566.150391	38530.261719
1565.103516	38319.003906
1564.057617	37485.500000
1563.010742	38142.808594
1561.963867	37506.937500
1560.916992	37444.539063
1559.869141	37386.804688
1558.822266	37259.488281
1557.774414	37225.000000
1556.726563	37155.734375
1555.678711	37037.796875
1554.630859	37116.960938
1553.582031	37080.199219
1552.534180	37166.277344
1551.485352	36914.023438
1550.436523	36847.195313
1549.386719	37445.164063
1548.337891	36982.246094
1547.288086	37133.089844
1546.238281	36628.718750
1545.188477	36978.628906
1544.138672	37043.761719
1543.088867	36849.722656
1542.038086	36602.542969
1540.987305	36642.261719
1539.936523	36279.578125
1538.885742	36039.562500
1537.834961	36784.437500
1536.783203	36421.917969
1535.731445	36433.894531
1534.679688	36658.429688
1533.627930	36577.953125
1532.576172	36400.496094
1531.523438	36678.027344
1530.471680	36544.480469
1529.418945	36528.710938
1528.366211	36321.382813
1527.312500	36284.886719
1526.259766	36435.285156
1525.206055	36680.207031
1524.152344	36551.410156
1523.098633	35956.851563
1522.044922	36236.304688
1520.990234	36232.128906
1519.936523	35974.429688
1518.881836	35859.691406
1517.827148	35959.253906
1516.772461	35897.535156
1515.716797	35778.257813
1514.662109	36096.531250
1513.606445	35707.898438
1512.550781	36129.648438
1511.495117	35906.847656
1510.438477	35523.054688
1509.382813	35551.203125
1508.326172	35563.238281
1507.269531	35766.152344
1506.212891	35543.609375
1505.155273	35578.625000
1504.098633	35365.382813
1503.041016	36064.578125
1501.983398	35741.035156
1500.925781	35385.441406
1499.867188	35385.992188
1498.809570	35310.761719
1497.750977	35462.863281
1496.692383	35743.468750
1495.633789	35652.144531
1494.575195	35381.847656
1493.515625	35368.625000
1492.457031	35421.933594
1491.397461	35874.308594
1490.337891	35615.628906
1489.277344	35657.394531
1488.217773	35644.125000
1487.157227	35346.656250
1486.096680	35340.324219
1485.036133	35624.960938
1483.975586	35307.039063
1482.915039	35827.480469
1481.853516	35395.136719
1480.791992	35452.894531
1479.730469	35467.140625
1478.668945	35737.710938
1477.606445	35781.644531
1476.544922	35827.847656
1475.482422	35720.777344
1474.419922	35417.054688
1473.357422	35687.382813
1472.293945	36163.375000
1471.231445	35752.300781
1470.167969	35633.902344
1469.104492	36015.957031
1468.041016	35842.722656
1466.976563	35920.804688
1465.913086	36332.289063
1464.848633	36108.851563
1463.784180	36506.449219
1462.719727	36111.871094
1461.655273	36452.269531
1460.589844	36267.753906
1459.524414	36500.781250
1458.458984	36439.488281
1457.393555	37126.214844
1456.328125	36556.371094
1455.261719	36691.148438
1454.196289	37074.312500
1453.129883	36746.339844
1452.063477	36803.535156
1450.996094	36735.421875
1449.929688	36993.027344
1448.862305	37093.414063
1447.794922	36959.250000
1446.727539	36592.945313
1445.660156	37046.117188
1444.591797	37037.187500
1443.524414	37330.855469
1442.456055	37597.121094
1441.387695	37519.863281
1440.318359	37870.128906
1439.250000	38020.199219
1438.180664	38183.851563
1437.111328	38470.167969
1436.041992	38317.828125
1434.972656	38331.386719
1433.903320	38388.101563
1432.833008	38526.550781
1431.762695	38560.496094
1430.692383	38619.402344
1429.622070	39157.226563
1428.550781	39125.222656
1427.480469	39120.457031
1426.409180	39206.437500
1425.337891	39380.843750
1424.266602	39609.617188
1423.194336	39738.535156
1422.122070	40157.585938
1421.050781	40055.167969
1419.978516	40154.472656
1418.905273	40342.105469
1417.833008	40325.789063
1416.759766	39892.722656
1415.687500	40035.007813
1414.614258	39624.785156
1413.540039	39330.164063
1412.466797	39146.546875
1411.392578	39241.332031
1410.319336	39069.109375
1409.245117	38711.453125
1408.169922	39104.804688
1407.095703	39294.500000
1406.020508	39025.164063
1404.946289	39332.347656
1403.871094	39542.234375
1402.794922	39835.652344
1401.719727	40377.480469
1400.643555	39710.625000
1399.568359	40177.750000
1398.492188	39757.292969
1397.415039	39824.636719
1396.338867	39684.289063
1395.261719	39189.667969
1394.185547	39340.558594
1393.108398	39265.792969
1392.031250	39804.574219
1390.953125	39741.027344
1389.875977	40151.003906
1388.797852	39798.847656
1387.719727	40217.679688
1386.641602	40519.171875
1385.562500	40523.136719
1384.484375	40423.472656
1383.405273	40677.460938
1382.326172	40359.363281
1381.247070	40428.640625
1380.166992	40304.296875
1379.087891	39981.929688
1378.007813	40184.003906
1376.927734	39922.519531
1375.847656	39703.867188
1374.767578	39480.796875
1373.686523	39446.691406
1372.605469	39252.972656
1371.524414	39016.609375
1370.443359	38807.300781
1369.362305	38755.359375
1368.280273	38519.210938
1367.199219	38844.710938
1366.117188	38348.105469
1365.034180	38657.800781
1363.952148	37954.859375
1362.870117	38812.203125
1361.787109	38345.128906
1360.704102	38531.183594
1359.621094	38838.312500
1358.537109	38485.875000
1357.454102	38929.699219
1356.370117	38904.738281
1355.286133	38438.144531
1354.202148	38292.238281
1353.118164	38112.769531
1352.033203	37541.261719
1350.948242	37823.468750
1349.863281	37317.167969
1348.778320	37632.902344
1347.693359	37041.734375
1346.607422	37511.863281
1345.521484	37267.843750
1344.435547	37037.335938
1343.349609	37111.195313
1342.263672	37267.789063
1341.176758	36795.855469
1340.090820	37471.238281
1339.003906	37594.140625
1337.916016	37848.886719
1336.829102	37690.074219
1335.741211	37531.316406
1334.654297	37687.628906
1333.566406	37850.582031
1332.478516	37729.843750
1331.389648	37642.640625
1330.301758	37731.835938
1329.212891	37872.339844
1328.124023	38267.203125
1327.035156	37918.894531
1325.945313	37936.582031
1324.856445	38295.527344
1323.766602	38562.906250
1322.676758	38433.304688
1321.586914	38593.550781
1320.496094	39217.351563
1319.406250	39751.781250
1318.315430	39361.363281
1317.224609	39913.394531
1316.133789	40289.269531
1315.041992	40798.617188
1313.951172	40595.308594
1312.859375	40850.644531
1311.767578	41023.535156
1310.675781	40989.410156
1309.583008	41211.156250
1308.491211	40611.992188
1307.398438	40186.523438
1306.305664	40223.726563
1305.212891	40034.140625
1304.119141	39937.980469
1303.026367	40510.816406
1301.932617	40230.171875
1300.838867	40896.050781
1299.744141	40846.445313
1298.650391	41007.835938
1297.555664	41440.058594
1296.461914	41925.406250
1295.366211	42483.820313
1294.271484	42709.148438
1293.176758	42730.261719
1292.081055	42609.386719
1290.985352	41989.492188
1289.889648	41631.503906
1288.793945	41439.937500
1287.697266	41210.750000
1286.601563	41037.054688
1285.504883	40136.562500
1284.408203	39794.734375
1283.311523	39898.285156
1282.213867	39667.363281
1281.116211	39739.894531
1280.018555	39008.710938
1278.920898	39107.898438
1277.823242	38954.738281
1276.725586	38356.859375
1275.626953	38513.628906
1274.528320	38077.515625
1273.429688	37926.863281
1272.330078	38189.753906
1271.231445	37548.332031
1270.131836	37709.515625
1269.032227	37565.660156
1267.932617	37262.761719
1266.833008	37132.289063
1265.732422	37361.898438
1264.632813	36683.769531
1263.532227	37070.140625
1262.430664	36992.777344
1261.330078	36820.527344
1260.228516	36840.332031
1259.127930	36939.554688
1258.026367	36687.988281
1256.924805	37095.988281
1255.822266	36332.875000
1254.720703	37040.636719
1253.618164	36619.488281
1252.515625	36438.730469
1251.413086	36531.281250
1250.309570	36222.812500
1249.207031	36513.617188
1248.103516	36733.835938
1247.000000	36299.984375
1245.895508	36240.554688
1244.791992	36229.574219
1243.687500	36275.816406
1242.583008	37019.570313
1241.478516	36379.246094
1240.374023	36467.226563
1239.269531	36357.242188
1238.164063	36493.562500
1237.058594	36524.308594
1235.953125	36387.992188
1234.847656	36598.949219
1233.741211	36748.300781
1232.635742	36543.914063
1231.529297	36550.457031
1230.422852	36886.394531
1229.315430	36809.433594
1228.208984	36668.839844
1227.101563	36780.695313
1225.994141	37337.976563
1224.886719	37212.714844
1223.779297	37315.636719
1222.670898	37354.910156
1221.562500	37479.691406
1220.454102	37181.289063
1219.345703	37310.433594
1218.237305	36939.843750
1217.127930	37318.785156
1216.018555	36926.414063
1214.909180	36853.988281
1213.799805	37193.312500
1212.690430	36974.156250
1211.580078	37024.351563
1210.469727	37146.761719
1209.359375	36978.062500
1208.249023	37085.117188
1207.138672	36842.105469
1206.027344	37049.753906
1204.916016	37228.898438
1203.804688	37250.546875
1202.693359	37018.609375
1201.581055	37501.460938
1200.469727	37332.929688
1199.357422	37433.195313
1198.245117	37502.839844
1197.131836	37609.585938
1196.019531	37471.722656
1194.906250	37766.191406
1193.792969	37538.847656
1192.679688	37870.300781
1191.566406	37433.539063
1190.452148	38037.593750
1189.337891	37289.035156
1188.223633	37443.628906
1187.109375	37146.808594
1185.995117	36880.613281
1184.879883	37000.320313
1183.764648	36884.617188
1182.649414	36457.371094
1181.534180	36912.574219
1180.418945	36596.562500
1179.302734	36465.765625
1178.186523	36378.562500
1177.070313	36417.652344
1175.954102	36186.835938
1174.837891	36173.714844
1173.720703	35908.214844
1172.603516	35836.410156
1171.486328	36247.468750
1170.369141	36021.234375
1169.250977	35825.519531
1168.132813	35810.296875
1167.015625	35714.660156
1165.896484	35786.378906
1164.778320	35532.183594
1163.660156	35671.242188
1162.541016	35719.031250
1161.421875	35695.148438
1160.302734	35684.300781
1159.182617	35742.910156
1158.063477	35569.289063
1156.943359	35714.687500
1155.823242	35361.070313
1154.703125	35521.636719
1153.582031	35636.597656
1152.461914	35543.371094
1151.340820	35467.515625
1150.219727	35617.101563
1149.097656	35749.292969
1147.976563	35699.437500
1146.854492	35744.914063
1145.732422	35690.742188
1144.610352	35883.449219
1143.488281	35822.777344
1142.365234	35952.609375
1141.243164	36084.562500
1140.120117	35935.160156
1138.996094	36352.640625
1137.873047	36058.316406
1136.750000	36408.574219
1135.625977	36471.121094
1134.501953	36429.871094
1133.377930	36645.855469
1132.252930	36176.687500
1131.127930	36204.656250
1130.003906	36617.140625
1128.878906	36299.429688
1127.752930	36469.878906
1126.627930	36333.671875
1125.501953	36305.445313
1124.375977	36300.972656
1123.250000	36417.343750
1122.124023	36304.972656
1120.997070	36220.679688
1119.871094	36306.804688
1118.744141	36287.230469
1117.617188	36233.167969
1116.489258	36198.523438
1115.362305	36222.082031
1114.234375	36124.960938
1113.106445	35620.695313
1111.978516	35732.652344
1110.849609	36221.449219
1109.721680	36335.406250
1108.592773	36315.847656
1107.463867	36197.281250
1106.333984	36123.953125
1105.205078	36272.261719
1104.075195	36383.949219
1102.945313	36659.054688
1101.815430	36385.695313
1100.685547	36708.000000
1099.554688	36249.855469
1098.424805	36546.273438
1097.293945	36417.101563
1096.162109	36270.789063
1095.031250	36689.472656
1093.899414	36274.699219
1092.768555	36418.371094
1091.636719	36611.371094
1090.503906	36587.500000
1089.372070	36546.464844
1088.239258	36033.382813
1087.106445	36249.906250
1085.973633	36101.703125
1084.840820	35951.410156
1083.708008	36030.593750
1082.574219	36246.949219
1081.440430	36047.410156
1080.306641	36062.238281
1079.171875	36051.351563
1078.038086	36323.238281
1076.903320	36250.187500
1075.768555	36406.296875
1074.633789	36102.027344
1073.498047	36031.195313
1072.363281	35814.851563
1071.227539	36116.429688
1070.091797	36300.226563
1068.956055	36466.839844
1067.819336	36338.253906
1066.682617	36282.414063
1065.546875	36776.035156
1064.409180	36715.859375
1063.272461	36339.410156
1062.135742	36343.433594
1060.998047	36599.539063
1059.860352	36468.949219
1058.722656	36276.472656
1057.583984	36562.335938
1056.446289	36047.562500
1055.307617	36666.324219
1054.168945	36290.421875
1053.029297	36017.070313
1051.890625	36607.761719
1050.750977	36018.792969
1049.611328	36165.718750
1048.471680	35890.453125
1047.332031	36280.351563
1046.191406	36297.140625
1045.051758	36269.175781
1043.911133	36313.652344
1042.769531	36117.414063
1041.628906	35899.949219
1040.487305	36010.476563
1039.346680	35833.554688
1038.205078	35990.875000
1037.062500	35835.300781
1035.920898	35879.792969
1034.778320	35932.769531
1033.635742	35811.320313
1032.493164	35887.683594
1031.350586	35749.273438
1030.207031	35904.269531
1029.063477	35566.117188
1027.919922	35908.085938
1026.776367	35686.910156
1025.632813	35931.011719
1024.488281	36177.148438
1023.343750	35854.117188
1022.199219	35703.164063
1021.054688	36029.863281
1019.910156	35855.585938
1018.764648	35649.542969
1017.619141	35797.863281
1016.473633	35657.660156
1015.327148	35810.160156
1014.181641	35665.761719
1013.035156	36208.265625
1011.888672	35707.761719
1010.742188	36004.238281
1009.594727	35675.570313
1008.448242	35575.804688
1007.300781	35814.953125
1006.153320	35907.894531
1005.005859	36312.031250
1003.857422	36485.285156
1002.708984	36482.808594
1001.560547	36533.234375
1000.412109	36801.550781
999.263672	36655.175781
998.114258	36927.597656
996.965820	37172.429688
995.816406	36831.570313
994.666016	36662.039063
993.516602	37107.542969
992.366211	37003.523438
991.215820	36523.511719
990.065430	36297.128906
988.915039	36812.054688
987.763672	36689.156250
986.613281	36887.171875
985.461914	36724.199219
984.309570	37521.425781
983.158203	37090.449219
982.005859	37161.671875
980.854492	36918.621094
979.701172	36977.191406
978.548828	37396.253906
977.396484	36693.773438
976.243164	37293.972656
975.089844	37008.968750
973.936523	36903.140625
972.783203	37079.593750
971.628906	36792.679688
970.474609	36640.621094
969.320313	36871.753906
968.166016	36854.441406
967.010742	36470.968750
965.856445	36628.363281
964.701172	36712.070313
963.545898	36781.023438
962.390625	36824.714844
961.234375	36891.515625
960.078125	36930.960938
958.921875	36831.683594
957.765625	36759.757813
956.609375	36811.808594
955.452148	36830.230469
954.294922	37222.460938
953.137695	36825.050781
951.980469	36746.886719
950.822266	36685.539063
949.665039	36829.875000
948.506836	36890.226563
947.347656	36749.164063
946.189453	37073.777344
945.030273	36769.164063
943.872070	36831.574219
942.712891	36910.726563
941.552734	37017.093750
940.393555	36915.972656
939.233398	37066.292969
938.073242	37365.281250
936.913086	36851.566406
935.752930	37146.292969
934.591797	37154.093750
933.430664	37226.777344
932.269531	37378.957031
931.108398	37706.843750
929.947266	37626.664063
928.785156	37458.664063
927.623047	37790.531250
926.460938	37373.750000
925.298828	37626.066406
924.135742	37665.101563
922.972656	37806.515625
921.810547	37596.875000
920.646484	37418.640625
919.483398	37825.261719
918.319336	37901.800781
917.155273	37921.941406
915.991211	37942.074219
914.827148	38346.203125
913.662109	38218.097656
912.498047	38644.968750
911.333008	38685.804688
910.167969	38455.515625
909.001953	38698.617188
907.836914	39116.738281
906.670898	39226.230469
905.504883	38902.230469
904.337891	39057.554688
903.171875	38996.175781
902.004883	38868.167969
900.837891	38796.433594
899.670898	38685.160156
898.503906	38315.812500
897.335938	38462.738281
896.167969	38449.386719
895.000000	38454.761719
893.832031	38562.050781
892.663086	38902.226563
891.495117	38454.226563
890.326172	38625.898438
889.156250	39049.007813
887.987305	38915.019531
886.817383	39362.847656
885.648438	39081.351563
884.478516	39902.835938
883.307617	39878.839844
882.137695	39975.273438
880.966797	40090.351563
879.795898	40006.140625
878.625000	40197.941406
877.454102	40634.484375
876.282227	40351.082031
875.110352	40704.472656
873.938477	40383.839844
872.766602	40154.539063
871.593750	40230.015625
870.421875	40313.750000
869.249023	40005.847656
868.076172	40342.328125
866.902344	40394.921875
865.729492	40683.570313
864.555664	40744.363281
863.381836	40898.281250
862.207031	41426.753906
861.033203	41191.460938
859.858398	41597.613281
858.683594	41174.132813
857.508789	41129.277344
856.333984	41460.769531
855.158203	41196.734375
853.982422	40699.222656
852.806641	40960.339844
851.630859	40880.429688
850.454102	40587.769531
849.278320	40974.750000
848.101563	40748.257813
846.924805	40955.433594
845.747070	41001.511719
844.570313	40806.093750
843.392578	41405.214844
842.214844	41723.515625
841.036133	41798.292969
839.858398	42165.898438
838.679688	42700.394531
837.500977	42785.250000
836.322266	42948.398438
835.143555	43253.683594
833.963867	43661.882813
832.784180	42922.441406
831.604492	42741.464844
830.424805	42449.343750
829.244141	42033.792969
828.063477	42093.925781
826.882813	41462.480469
825.702148	41179.039063
824.521484	40712.589844
823.339844	40894.281250
822.158203	40728.328125
820.976563	40496.632813
819.794922	40861.234375
818.612305	40748.816406
817.430664	40418.593750
816.248047	40203.558594
815.064453	40374.824219
813.881836	39985.285156
812.698242	39998.394531
811.514648	40270.207031
810.331055	40227.832031
809.147461	40335.296875
807.962891	40358.585938
806.778320	40176.695313
805.593750	40263.593750
804.409180	40588.367188
803.224609	40574.675781
802.039063	40157.097656
800.853516	40139.386719
799.667969	40131.929688
798.482422	39870.386719
797.295898	39699.085938
796.109375	39812.554688
794.922852	39985.371094
793.736328	39973.843750
792.548828	39374.789063
791.362305	39222.148438
790.174805	39464.515625
788.986328	39663.824219
787.798828	39691.226563
786.610352	39481.363281
785.421875	39502.652344
784.233398	39245.878906
783.044922	39369.402344
781.856445	39253.761719
780.666992	39313.890625
779.477539	39451.628906
778.288086	38661.980469
777.097656	38975.414063
775.907227	38766.019531
774.717773	39548.843750
773.526367	39043.468750
772.335938	39062.730469
771.144531	38665.761719
769.954102	39295.023438
768.762695	39047.042969
767.570313	39272.238281
766.378906	39472.882813
765.186523	39443.113281
763.994141	39541.746094
762.801758	39357.109375
761.609375	39926.328125
760.416016	39876.121094
759.222656	40051.980469
758.029297	40480.250000
756.835938	40092.027344
755.641602	40316.593750
754.447266	40402.691406
753.252930	40319.886719
752.058594	40346.957031
750.864258	40315.035156
749.668945	40327.855469
748.473633	40066.207031
747.278320	39853.437500
746.083008	40035.015625
744.886719	39749.175781
743.690430	39485.789063
742.494141	39651.082031
741.297852	39168.480469
740.100586	39455.593750
738.904297	39198.539063
737.707031	39300.835938
736.509766	38684.714844
735.311523	38843.875000
734.113281	38946.171875
732.916016	38778.683594
731.716797	39201.343750
730.518555	38825.042969
729.320313	39067.128906
728.121094	39142.933594
726.921875	38766.851563
725.721680	38769.746094
724.522461	38337.152344
723.322266	38607.445313
722.122070	38446.359375
720.921875	38603.164063
719.721680	38707.281250
718.520508	38380.320313
717.319336	38951.812500
716.118164	38756.414063
714.916992	38795.695313
713.714844	38816.765625
712.513672	39155.238281
711.311523	38814.402344
710.108398	39106.261719
708.906250	39278.792969
707.703125	39164.386719
706.500000	39009.625000
705.296875	39882.835938
704.093750	39392.820313
702.889648	39583.296875
701.685547	39785.812500
700.481445	39903.496094
699.277344	39569.191406
698.072266	39941.035156
696.868164	39865.000000
695.663086	40020.886719
694.457031	40023.488281
693.251953	40318.367188
692.045898	40468.027344
690.839844	40960.175781
689.633789	40672.492188
688.427734	40705.175781
687.220703	40774.089844
686.013672	40514.785156
684.806641	40424.675781
683.599609	39859.597656
682.391602	39972.886719
681.184570	40361.765625
679.976563	39690.398438
678.767578	39815.714844
677.559570	39922.886719
676.350586	39652.050781
675.141602	39596.390625
673.932617	39800.003906
672.723633	39826.714844
671.513672	39775.066406
670.303711	39803.781250
669.093750	39888.710938
667.883789	39969.589844
666.672852	39580.695313
665.462891	39545.191406
664.251953	39706.351563
663.040039	39468.195313
661.829102	39565.113281
660.617188	39647.957031
659.405273	39648.558594
658.193359	39637.125000
656.981445	39210.777344
655.768555	39728.500000
654.555664	39815.234375
653.342773	39407.113281
652.129883	39862.414063
650.916016	39660.699219
649.702148	39607.218750
648.488281	39836.015625
647.274414	39898.601563
646.059570	40487.445313
644.845703	40932.015625
643.630859	40706.312500
642.416016	40972.675781
641.200195	41376.906250
639.984375	40819.378906
638.769531	41459.343750
637.552734	41121.828125
636.336914	40870.359375
635.120117	40746.832031
633.904297	40960.894531
632.687500	40745.535156
631.469727	40160.890625
630.252930	40480.734375
629.035156	39984.167969
627.817383	39962.703125
626.599609	40174.667969
625.380859	39989.605469
624.163086	39878.398438
622.944336	40381.371094
621.724609	39919.261719
620.505859	40129.031250
619.286133	40253.031250
618.066406	39972.511719
616.846680	40022.781250
615.626953	40088.964844
614.406250	40057.546875
613.186523	40165.503906
611.965820	39954.929688
610.744141	40287.753906
609.523438	40453.308594
608.301758	40105.519531
607.080078	40611.171875
605.858398	40607.527344
604.635742	40275.804688
603.414063	40188.722656
602.191406	40517.078125
600.968750	40288.890625
599.745117	40974.734375
598.522461	40710.785156
597.298828	40476.722656
596.075195	40830.519531
594.850586	40757.335938
593.626953	41033.531250
592.402344	41152.835938
591.177734	41335.589844
589.953125	41601.597656
588.727539	41353.777344
587.501953	41780.312500
586.276367	41907.285156
585.050781	42214.605469
583.825195	42143.250000
582.598633	42341.417969
581.372070	42733.671875
580.145508	43129.738281
578.917969	43046.367188
577.691406	43737.265625
576.463867	43901.281250
575.236328	43841.562500
574.007813	43550.316406
572.780273	43981.386719
571.551758	44030.484375
570.323242	43668.160156
569.094727	43418.687500
567.865234	43396.679688
566.635742	43145.371094
565.406250	42947.515625
564.176758	42779.375000
562.947266	42848.378906
561.716797	42146.984375
560.486328	41817.140625
559.255859	41740.160156
558.024414	42034.355469
556.793945	41404.691406
555.562500	41493.597656
554.331055	41260.855469
553.098633	40860.523438
551.867188	41026.394531
550.634766	40811.613281
549.402344	40851.246094
548.168945	40845.527344
546.936523	40894.988281
545.703125	40838.023438
544.469727	40656.964844
543.236328	40980.222656
542.001953	41106.417969
540.767578	40927.375000
539.533203	40494.441406
538.298828	40766.304688
537.064453	40750.750000
535.829102	40876.863281
534.593750	41048.167969
533.358398	40930.292969
532.122070	41125.117188
530.886719	41225.500000
529.650391	41363.187500
528.414063	41046.839844
527.176758	41559.804688
525.940430	41626.621094
524.703125	41471.460938
523.465820	41173.000000
522.227539	40888.390625
520.990234	41332.183594
519.751953	40945.589844
518.513672	41612.906250
517.275391	41734.546875
516.036133	41752.175781
514.796875	41683.500000
513.557617	41887.406250
512.318359	41495.253906
511.079102	41695.195313
509.838867	41556.023438
508.598633	41428.664063
507.358398	41691.183594
506.117188	41691.152344
504.876953	41119.308594
503.635742	41544.238281
502.394531	41148.808594
501.152344	41630.324219
499.911133	41364.171875
498.668945	41370.058594
497.425781	41409.191406
496.183594	41315.324219
494.941406	41352.492188
493.698242	41559.726563
492.455078	41553.832031
491.210938	41381.832031
489.967773	41854.656250
488.723633	41899.492188
487.479492	41807.593750
486.235352	41877.804688
484.990234	41805.464844
483.745117	41643.359375
482.500000	41869.683594
481.254883	41688.109375
480.008789	42364.988281
478.763672	42421.347656
477.517578	42569.339844
476.271484	42676.328125
475.024414	42391.445313
473.777344	42326.910156
472.530273	42467.007813
471.283203	42696.667969
470.036133	42881.437500
468.788086	42678.574219
467.540039	42195.390625
466.291992	42755.882813
465.043945	43041.707031
463.794922	42801.984375
462.545898	42910.628906
461.296875	43270.183594
460.047852	43252.269531
458.797852	43282.980469
457.547852	43395.332031
456.297852	43532.910156
455.047852	44086.343750
453.796875	43833.167969
452.545898	44106.574219
451.294922	44032.183594
450.043945	44614.226563
448.792969	44440.738281
447.541016	45503.921875
446.289063	45200.285156
445.036133	45851.515625
443.784180	45992.230469
442.531250	46387.003906
441.278320	45910.808594
440.025391	45655.851563
438.771484	45133.441406
437.518555	44638.367188
436.264648	44036.886719
435.010742	44400.570313
433.755859	43942.714844
432.500977	43469.535156
431.246094	43095.296875
429.991211	43211.046875
428.736328	43077.031250
427.480469	42484.371094
426.224609	42650.476563
424.968750	43006.113281
423.712891	42698.140625
422.456055	42502.453125
421.199219	42523.402344
419.942383	42345.214844
418.685547	42391.308594
417.427734	42454.773438
416.169922	42485.363281
414.912109	42230.042969
413.654297	42166.023438
412.395508	42810.710938
411.136719	42339.234375
409.877930	42479.835938
408.619141	42533.535156
407.359375	42529.324219
406.099609	42679.449219
404.839844	42688.710938
403.580078	42337.347656
402.319336	42190.488281
401.059570	42265.375000
