#Wave		#Intensity
2001.242188	26446.332031
2000.272461	26413.746094
1999.302734	26679.792969
1998.333008	26534.818359
1997.363281	26667.972656
1996.392578	26440.392578
1995.422852	26468.332031
1994.452148	26501.269531
1993.481445	26371.468750
1992.510742	26662.220703
1991.540039	26452.353516
1990.568359	26437.724609
1989.596680	26563.197266
1988.625977	26080.814453
1987.654297	26393.865234
1986.681641	26486.769531
1985.709961	26169.648438
1984.738281	26355.041016
1983.765625	26295.457031
1982.792969	26363.324219
1981.820313	26276.275391
1980.847656	26071.861328
1979.874023	25782.609375
1978.901367	25927.917969
1977.927734	26510.058594
1976.954102	26223.373047
1975.980469	26291.164063
1975.006836	26201.732422
1974.032227	26484.046875
1973.058594	26446.347656
1972.083984	26408.609375
1971.109375	26370.873047
1970.134766	26333.134766
1969.160156	26295.398438
1968.184570	26257.623047
1967.209961	26219.886719
1966.234375	26182.111328
1965.258789	26144.335938
1964.283203	26106.560547
1963.306641	26009.869141
1962.331055	26343.890625
1961.354492	26130.203125
1960.377930	26021.109375
1959.401367	25929.470703
1958.424805	25977.179688
1957.447266	26338.271484
1956.470703	26022.802734
1955.493164	25956.087891
1954.515625	26150.429688
1953.538086	26225.392578
1952.560547	26233.228516
1951.582031	25972.712891
1950.604492	25933.388672
1949.625977	25953.687500
1948.647461	25949.146484
1947.668945	26051.373047
1946.689453	26262.792969
1945.710938	26002.539063
1944.731445	25742.376953
1943.751953	25829.675781
1942.772461	25852.443359
1941.792969	26123.238281
1940.813477	26064.105469
1939.833008	25762.001953
1938.852539	25717.826172
1937.873047	25403.494141
1936.891602	26043.376953
1935.911133	25902.539063
1934.930664	25734.498047
1933.949219	25871.173828
1932.967773	25990.466797
1931.986328	26062.669922
1931.004883	25986.312500
1930.023438	25984.236328
1929.041016	25927.714844
1928.059570	25782.136719
1927.077148	25975.529297
1926.094727	25951.191406
1925.112305	25815.574219
1924.128906	25623.136719
1923.146484	25912.830078
1922.163086	25725.382813
1921.179688	25592.369141
1920.196289	25605.179688
1919.212891	25516.699219
1918.228516	25588.794922
1917.245117	25599.126953
1916.260742	25725.500000
1915.276367	25780.238281
1914.291992	25593.070313
1913.307617	25872.378906
1912.322266	25611.238281
1911.336914	25912.646484
1910.352539	25829.173828
1909.367188	25141.544922
1908.380859	25598.208984
1907.395508	25571.533203
1906.409180	25811.060547
1905.423828	25589.671875
1904.437500	25853.748047
1903.451172	25477.228516
1902.463867	25659.951172
1901.477539	25741.640625
1900.490234	25205.294922
1899.503906	25341.191406
1898.516602	25555.802734
1897.528320	25812.171875
1896.541016	25660.015625
1895.553711	25581.710938
1894.565430	25562.464844
1893.577148	25348.949219
1892.588867	25541.199219
1891.600586	25576.048828
1890.611328	25532.232422
1889.623047	25358.189453
1888.633789	25744.400391
1887.644531	25346.830078
1886.655273	25430.800781
1885.666016	25087.449219
1884.675781	25318.750000
1883.686523	25444.410156
1882.696289	25535.664063
1881.706055	25229.341797
1880.715820	25224.910156
1879.724609	25716.009766
1878.734375	25503.015625
1877.743164	25192.003906
1876.751953	25447.470703
1875.760742	25452.806641
1874.769531	25237.552734
1873.778320	25529.632813
1872.786133	25292.388672
1871.793945	25339.388672
1870.801758	25165.937500
1869.809570	25430.884766
1868.817383	25521.902344
1867.824219	25140.433594
1866.832031	25498.248047
1865.838867	25295.552734
1864.845703	25183.453125
1863.851563	25210.828125
1862.858398	25233.300781
1861.865234	25536.980469
1860.871094	25322.226563
1859.876953	25029.324219
1858.882813	25342.654297
1857.887695	25411.507813
1856.893555	25260.445313
1855.898438	25075.238281
1854.904297	25429.855469
1853.909180	25137.234375
1852.913086	25059.568359
1851.917969	25492.113281
1850.922852	25382.681641
1849.926758	25312.332031
1848.930664	25229.806641
1847.934570	25147.308594
1846.938477	25328.242188
1845.941406	25011.660156
1844.945313	25394.912109
1843.948242	25312.439453
1842.951172	25466.404297
1841.954102	25457.048828
1840.956055	25130.970703
1839.958984	25314.113281
1838.960938	25231.722656
1837.962891	25232.152344
1836.964844	25347.007813
1835.966797	25588.402344
1834.968750	25530.353516
1833.969727	25355.525391
1832.970703	25428.916016
1831.971680	25217.675781
1830.972656	25471.035156
1829.973633	25490.867188
1828.973633	25017.154297
1827.974609	25231.519531
1826.974609	25419.074219
1825.974609	25297.960938
1824.974609	25405.263672
1823.973633	25437.224609
1822.973633	25444.886719
1821.972656	25384.556641
1820.971680	25668.990234
1819.970703	25552.810547
1818.968750	25480.355469
1817.967773	25267.185547
1816.965820	25439.837891
1815.964844	25515.402344
1814.961914	25452.701172
1813.959961	25460.339844
1812.958008	25404.941406
1811.955078	25528.931641
1810.953125	25585.019531
1809.950195	25691.972656
1808.947266	25333.736328
1807.943359	25627.205078
1806.940430	25382.927734
1805.936523	25356.662109
1804.932617	25579.759766
1803.928711	25756.789063
1802.924805	25536.859375
1801.920898	25769.484375
1800.916016	25479.468750
1799.911133	25467.720703
1798.907227	25530.943359
1797.901367	25756.146484
1796.896484	25500.179688
1795.891602	25708.388672
1794.885742	25742.521484
1793.879883	25559.175781
1792.874023	25511.183594
1791.868164	25856.916016
1790.862305	25833.033203
1789.855469	26050.615234
1788.848633	25708.041016
1787.842773	25925.564453
1786.834961	26191.277344
1785.828125	25728.212891
1784.821289	25938.378906
1783.813477	25719.132813
1782.805664	25676.007813
1781.797852	25958.402344
1780.790039	25777.837891
1779.782227	25657.591797
1778.773438	26069.970703
1777.764648	25809.966797
1776.755859	25843.955078
1775.747070	25779.175781
1774.738281	25957.644531
1773.729492	25774.888672
1772.719727	26047.177734
1771.709961	25823.550781
1770.700195	25549.466797
1769.690430	26370.226563
1768.680664	25882.039063
1767.669922	25740.371094
1766.659180	25877.705078
1765.648438	25894.773438
1764.637695	26274.826172
1763.626953	26205.289063
1762.615234	26066.085938
1761.604492	26099.923828
1760.592773	26270.673828
1759.581055	26117.119141
1758.569336	26242.177734
1757.556641	26047.865234
1756.544922	26074.468750
1755.532227	25995.457031
1754.519531	26180.435547
1753.506836	26226.193359
1752.494141	26202.365234
1751.480469	26149.765625
1750.466797	26504.839844
1749.454102	26550.501953
1748.440430	26246.166016
1747.425781	26440.451172
1746.412109	26387.849609
1745.397461	26476.621094
1744.383789	26402.472656
1743.369141	26280.447266
1742.353516	26565.542969
1741.338867	26433.955078
1740.324219	26469.972656
1739.308594	26623.248047
1738.292969	26580.251953
1737.277344	26465.496094
1736.261719	26726.330078
1735.245117	26678.552734
1734.229492	26989.470703
1733.212891	26580.652344
1732.196289	27089.875000
1731.179688	26815.019531
1730.162109	26972.759766
1729.145508	27295.291016
1728.127930	27118.476563
1727.110352	27302.345703
1726.092773	27271.248047
1725.075195	27440.699219
1724.056641	27524.158203
1723.039063	27629.066406
1722.020508	27665.939453
1721.001953	27702.814453
1719.983398	27739.687500
1718.963867	27776.597656
1717.945313	27813.470703
1716.925781	27850.380859
1715.906250	27887.291016
1714.886719	27924.199219
1713.867188	27961.109375
1712.846680	27998.052734
1711.826172	28034.998047
1710.806641	28241.982422
1709.786133	28067.923828
1708.764648	28550.980469
1707.744141	28124.625000
1706.722656	28405.216797
1705.701172	28143.210938
1704.679688	28257.169922
1703.658203	28563.750000
1702.636719	28558.687500
1701.614258	28218.371094
1700.592773	28584.222656
1699.570313	28605.300781
1698.547852	28614.488281
1697.524414	28702.080078
1696.501953	28630.476563
1695.478516	28848.664063
1694.456055	28703.439453
1693.432617	28582.007813
1692.408203	28743.113281
1691.384766	29048.941406
1690.360352	28896.660156
1689.336914	29285.392578
1688.312500	29273.080078
1687.288086	29218.080078
1686.262695	29452.406250
1685.238281	29736.437500
1684.212891	29645.822266
1683.187500	29647.673828
1682.162109	29379.378906
1681.136719	29708.232422
1680.110352	29634.263672
1679.084961	30133.480469
1678.058594	29806.083984
1677.032227	30155.931641
1676.005859	29698.451172
1674.978516	29889.621094
1673.952148	29896.146484
1672.924805	30148.724609
1671.897461	30306.589844
1670.870117	30353.242188
1669.842773	30172.869141
1668.814453	30077.671875
1667.787109	30221.251953
1666.758789	30244.246094
1665.730469	30056.925781
1664.701172	30767.441406
1663.672852	30473.796875
1662.643555	30555.767578
1661.615234	30437.000000
1660.585938	30287.580078
1659.555664	30813.300781
1658.526367	30796.027344
1657.497070	30901.458984
1656.466797	31032.800781
1655.436523	30548.457031
1654.406250	30837.824219
1653.375977	30896.007813
1652.344727	30697.203125
1651.313477	30630.462891
1650.282227	31280.175781
1649.250977	30937.671875
1648.219727	31415.119141
1647.188477	30815.970703
1646.156250	31297.978516
1645.124023	31193.521484
1644.091797	31331.580078
1643.059570	31170.662109
1642.027344	31073.341797
1640.994141	31547.810547
1639.961914	31299.894531
1638.928711	31658.900391
1637.895508	31766.148438
1636.861328	31682.908203
1635.828125	31867.691406
1634.793945	31916.082031
1633.759766	31731.806641
1632.725586	31949.371094
1631.691406	31913.148438
1630.656250	31750.107422
1629.622070	32096.705078
1628.586914	32459.613281
1627.551758	32000.775391
1626.516602	32135.904297
1625.480469	31834.509766
1624.445313	32305.126953
1623.409180	32261.845703
1622.373047	32748.634766
1621.336914	32632.593750
1620.300781	33079.285156
1619.263672	33141.375000
1618.227539	33008.914063
1617.190430	33652.132813
1616.153320	34004.601563
1615.115234	34656.781250
1614.078125	34570.980469
1613.040039	34782.597656
1612.001953	35073.738281
1610.963867	35175.167969
1609.925781	35077.628906
1608.887695	34949.703125
1607.848633	34639.339844
1606.809570	34492.820313
1605.770508	34161.597656
1604.731445	33706.558594
1603.692383	33247.003906
1602.652344	33332.242188
1601.613281	33141.675781
1600.573242	33025.949219
1599.533203	32583.193359
1598.492188	32245.703125
1597.452148	32676.673828
1596.411133	32056.753906
1595.370117	32009.019531
1594.329102	32096.679688
1593.288086	31876.255859
1592.247070	31844.908203
1591.205078	31918.550781
1590.163086	31896.533203
1589.121094	31517.716797
1588.079102	31882.828125
1587.036133	31627.703125
1585.994141	31612.740234
1584.951172	31756.248047
1583.908203	31368.468750
1582.865234	31432.761719
1581.822266	31441.130859
1580.778320	31398.263672
1579.734375	31367.050781
1578.691406	31868.939453
1577.646484	31767.826172
1576.602539	31622.535156
1575.558594	31423.781250
1574.513672	32011.365234
1573.468750	32052.169922
1572.423828	32197.603516
1571.378906	31761.734375
1570.333008	32134.972656
1569.288086	32073.457031
1568.242188	31637.839844
1567.196289	31748.359375
1566.150391	31371.025391
1565.103516	30989.179688
1564.057617	30821.101563
1563.010742	31198.675781
1561.963867	30784.564453
1560.916992	30700.160156
1559.869141	30323.408203
1558.822266	30440.955078
1557.774414	30294.023438
1556.726563	30434.722656
1555.678711	30227.552734
1554.630859	30083.052734
1553.582031	30005.824219
1552.534180	30086.212891
1551.485352	29863.029297
1550.436523	29642.242188
1549.386719	29217.697266
1548.337891	29298.164063
1547.288086	29376.287109
1546.238281	29044.615234
1545.188477	29178.304688
1544.138672	29372.113281
1543.088867	29251.173828
1542.038086	28984.533203
1540.987305	28833.634766
1539.936523	29293.306641
1538.885742	29140.093750
1537.834961	29053.972656
1536.783203	29418.591797
1535.731445	29138.333984
1534.679688	28929.800781
1533.627930	29231.869141
1532.576172	28984.126953
1531.523438	28805.750000
1530.471680	28442.726563
1529.418945	28368.386719
1528.366211	28965.707031
1527.312500	28736.689453
1526.259766	28466.220703
1525.206055	28355.017578
1524.152344	28255.382813
1523.098633	28365.626953
1522.044922	28226.830078
1520.990234	28002.792969
1519.936523	28170.636719
1518.881836	27935.164063
1517.827148	28061.488281
1516.772461	27849.152344
1515.716797	27901.746094
1514.662109	27602.011719
1513.606445	27983.849609
1512.550781	27838.427734
1511.495117	27759.798828
1510.438477	27651.283203
1509.382813	27390.966797
1508.326172	27901.306641
1507.269531	27746.824219
1506.212891	27530.314453
1505.155273	27723.095703
1504.098633	27853.746094
1503.041016	27572.982422
1501.983398	27522.089844
1500.925781	27232.292969
1499.867188	27121.759766
1498.809570	27348.845703
1497.750977	27325.578125
1496.692383	27093.412109
1495.633789	27070.197266
1494.575195	27035.513672
1493.515625	27482.673828
1492.457031	27246.052734
1491.397461	27628.791016
1490.337891	27256.927734
1489.277344	26704.068359
1488.217773	26690.111328
1487.157227	26827.429688
1486.096680	27019.695313
1485.036133	26831.560547
1483.975586	27039.789063
1482.915039	26998.296875
1481.853516	27156.039063
1480.791992	27121.408203
1479.730469	27203.531250
1478.668945	26736.339844
1477.606445	27047.326172
1476.544922	26774.796875
1475.482422	26886.654297
1474.419922	27087.666016
1473.357422	27002.775391
1472.293945	26936.205078
1471.231445	27105.093750
1470.167969	26869.406250
1469.104492	27111.365234
1468.041016	26994.556641
1466.976563	26640.236328
1465.913086	26820.439453
1464.848633	27135.296875
1463.784180	26616.765625
1462.719727	26972.628906
1461.655273	27072.765625
1460.589844	26935.568359
1459.524414	27090.423828
1458.458984	27039.943359
1457.393555	27007.724609
1456.328125	27306.125000
1455.261719	27159.884766
1454.196289	27095.748047
1453.129883	26794.632813
1452.063477	27060.955078
1450.996094	27140.382813
1449.929688	26896.359375
1448.862305	27167.072266
1447.794922	27130.316406
1446.727539	27384.953125
1445.660156	27619.011719
1444.591797	27368.289063
1443.524414	27522.634766
1442.456055	27472.195313
1441.387695	28060.863281
1440.318359	27796.591797
1439.250000	27580.160156
1438.180664	27707.044922
1437.111328	27802.066406
1436.041992	27801.613281
1434.972656	28230.548828
1433.903320	27980.154297
1432.833008	28156.812500
1431.762695	27995.074219
1430.692383	27965.070313
1429.622070	28202.916016
1428.550781	28145.650391
1427.480469	28381.107422
1426.409180	28559.763672
1425.337891	28484.312500
1424.266602	28334.050781
1423.194336	28768.832031
1422.122070	28580.031250
1421.050781	28676.888672
1419.978516	28945.939453
1418.905273	29124.259766
1417.833008	28749.765625
1416.759766	29043.568359
1415.687500	29049.667969
1414.614258	29017.271484
1413.540039	28674.753906
1412.466797	28861.976563
1411.392578	28859.046875
1410.319336	28598.189453
1409.245117	28636.023438
1408.169922	28599.205078
1407.095703	28374.712891
1406.020508	28634.128906
1404.946289	28506.910156
1403.871094	28956.052734
1402.794922	28643.525391
1401.719727	28832.666016
1400.643555	28902.015625
1399.568359	28650.642578
1398.492188	28604.837891
1397.415039	28635.810547
1396.338867	28786.402344
1395.261719	28532.966797
1394.185547	28496.238281
1393.108398	28594.882813
1392.031250	29277.689453
1390.953125	28837.164063
1389.875977	28613.253906
1388.797852	28885.388672
1387.719727	28855.390625
1386.641602	29499.220703
1385.562500	29000.462891
1384.484375	29220.511719
1383.405273	28744.505859
1382.326172	28856.425781
1381.247070	28848.974609
1380.166992	28810.007813
1379.087891	28838.576172
1378.007813	28777.119141
1376.927734	28605.437500
1375.847656	28465.310547
1374.767578	28471.423828
1373.686523	28243.669922
1372.605469	28243.074219
1371.524414	28359.367188
1370.443359	27967.687500
1369.362305	27924.443359
1368.280273	28393.455078
1367.199219	27572.939453
1366.117188	28113.710938
1365.034180	28039.029297
1363.952148	28249.498047
1362.870117	28147.880859
1361.787109	27855.541016
1360.704102	28034.509766
1359.621094	27881.384766
1358.537109	28215.050781
1357.454102	27978.968750
1356.370117	27628.619141
1355.286133	27587.763672
1354.202148	27688.130859
1353.118164	27730.195313
1352.033203	27649.009766
1350.948242	27476.003906
1349.863281	27468.804688
1348.778320	27228.708984
1347.693359	27313.353516
1346.607422	27480.791016
1345.521484	27319.158203
1344.435547	27421.638672
1343.349609	27528.554688
1342.263672	27044.873047
1341.176758	27082.482422
1340.090820	27207.289063
1339.003906	27036.929688
1337.916016	27228.755859
1336.829102	27199.253906
1335.741211	27201.042969
1334.654297	27117.933594
1333.566406	27233.656250
1332.478516	27425.267578
1331.389648	27208.185547
1330.301758	27098.339844
1329.212891	27535.402344
1328.124023	27398.753906
1327.035156	27420.578125
1325.945313	27373.234375
1324.856445	27716.246094
1323.766602	27706.775391
1322.676758	27982.708984
1321.586914	27850.580078
1320.496094	27901.267578
1319.406250	27878.394531
1318.315430	28544.007813
1317.224609	28396.273438
1316.133789	29008.095703
1315.041992	28922.681641
1313.951172	29131.193359
1312.859375	29036.880859
1311.767578	28971.535156
1310.675781	28596.900391
1309.583008	28629.550781
1308.491211	28444.189453
1307.398438	28472.404297
1306.305664	28358.292969
1305.212891	28379.841797
1304.119141	28339.140625
1303.026367	28218.445313
1301.932617	28206.671875
1300.838867	28345.974609
1299.744141	28736.224609
1298.650391	28575.564453
1297.555664	28845.726563
1296.461914	29291.171875
1295.366211	28897.433594
1294.271484	28894.419922
1293.176758	29519.337891
1292.081055	29187.882813
1290.985352	28982.976563
1289.889648	28986.597656
1288.793945	28821.708984
1287.697266	28532.734375
1286.601563	28607.357422
1285.504883	28141.244141
1284.408203	28266.869141
1283.311523	28040.226563
1282.213867	27835.812500
1281.116211	27850.699219
1280.018555	27289.935547
1278.920898	27601.539063
1277.823242	27667.359375
1276.725586	27370.255859
1275.626953	27427.242188
1274.528320	27528.447266
1273.429688	27120.945313
1272.330078	27297.349609
1271.231445	27146.488281
1270.131836	26885.160156
1269.032227	26798.515625
1267.932617	26665.500000
1266.833008	26680.548828
1265.732422	26967.273438
1264.632813	26509.660156
1263.532227	26610.837891
1262.430664	26681.070313
1261.330078	26479.791016
1260.228516	26448.505859
1259.127930	26328.976563
1258.026367	26361.703125
1256.924805	26178.267578
1255.822266	26336.703125
1254.720703	26411.296875
1253.618164	26320.533203
1252.515625	26265.066406
1251.413086	26341.833984
1250.309570	25953.697266
1249.207031	26252.972656
1248.103516	26391.365234
1247.000000	26139.951172
1245.895508	26119.794922
1244.791992	26145.871094
1243.687500	26224.755859
1242.583008	26182.587891
1241.478516	26028.234375
1240.374023	26181.878906
1239.269531	26020.982422
1238.164063	26029.451172
1237.058594	26125.849609
1235.953125	25910.097656
1234.847656	25953.740234
1233.741211	25883.109375
1232.635742	26025.593750
1231.529297	25937.404297
1230.422852	25853.634766
1229.315430	25794.048828
1228.208984	25896.927734
1227.101563	25879.054688
1225.994141	25766.826172
1224.886719	25663.412109
1223.779297	25946.113281
1222.670898	25807.611328
1221.562500	25550.748047
1220.454102	25890.314453
1219.345703	25734.357422
1218.237305	25685.847656
1217.127930	25650.501953
1216.018555	25466.191406
1214.909180	25459.371094
1213.799805	25172.228516
1212.690430	25421.648438
1211.580078	25449.865234
1210.469727	25278.884766
1209.359375	25385.898438
1208.249023	25186.544922
1207.138672	25586.679688
1206.027344	25448.603516
1204.916016	25236.222656
1203.804688	25528.990234
1202.693359	25736.392578
1201.581055	25353.591797
1200.469727	25528.169922
1199.357422	25766.044922
1198.245117	25645.580078
1197.131836	25916.105469
1196.019531	25754.166016
1194.906250	25749.478516
1193.792969	25814.644531
1192.679688	25790.302734
1191.566406	25593.585938
1190.452148	25783.095703
1189.337891	25501.380859
1188.223633	25876.210938
1187.109375	25561.871094
1185.995117	25722.904297
1184.879883	25890.416016
1183.764648	25857.371094
1182.649414	25974.679688
1181.534180	25882.808594
1180.418945	25568.804688
1179.302734	25453.083984
1178.186523	25770.689453
1177.070313	25474.289063
1175.954102	25232.406250
1174.837891	25219.105469
1173.720703	25471.246094
1172.603516	24935.824219
1171.486328	25209.671875
1170.369141	25183.333984
1169.250977	25124.390625
1168.132813	25143.722656
1167.015625	24960.925781
1165.896484	24858.591797
1164.778320	25014.830078
1163.660156	24986.376953
1162.541016	25138.189453
1161.421875	25053.265625
1160.302734	25215.863281
1159.182617	25447.857422
1158.063477	25050.414063
1156.943359	25332.257813
1155.823242	25195.306641
1154.703125	25047.556641
1153.582031	25105.878906
1152.461914	24875.804688
1151.340820	24611.130859
1150.219727	24478.763672
1149.097656	24842.691406
1147.976563	24788.326172
1146.854492	24707.986328
1145.732422	25086.830078
1144.610352	24766.097656
1143.488281	24774.570313
1142.365234	24707.273438
1141.243164	24986.281250
1140.120117	24717.730469
1138.996094	24663.458984
1137.873047	24697.892578
1136.750000	24916.138672
1135.625977	24833.748047
1134.501953	24948.117188
1133.377930	24697.152344
1132.252930	24647.259766
1131.127930	24746.472656
1130.003906	24657.703125
1128.878906	24830.312500
1127.752930	24566.634766
1126.627930	24639.876953
1125.501953	24536.074219
1124.375977	24900.667969
1123.250000	24494.742188
1122.124023	24636.980469
1120.997070	24382.250000
1119.871094	24539.550781
1118.744141	24336.681641
1117.617188	24621.134766
1116.489258	24532.568359
1115.362305	24217.738281
1114.234375	24168.062500
1113.106445	23978.367188
1111.978516	24141.996094
1110.849609	24497.234375
1109.721680	24316.193359
1108.592773	24042.646484
1107.463867	24259.949219
1106.333984	24242.601563
1105.205078	24192.984375
1104.075195	24016.460938
1102.945313	24343.298828
1101.815430	24302.099609
1100.685547	24260.902344
1099.554688	24219.667969
1098.424805	24178.470703
1097.293945	24137.236328
1096.162109	24095.966797
1095.031250	24054.732422
1093.899414	24013.462891
1092.768555	23974.712891
1091.636719	24333.154297
1090.503906	24030.335938
1089.372070	24015.207031
1088.239258	23897.087891
1087.106445	24066.486328
1085.973633	23847.585938
1084.840820	23956.882813
1083.708008	24143.328125
1082.574219	23832.347656
1081.440430	23920.150391
1080.306641	23875.054688
1079.171875	24393.476563
1078.038086	23971.279297
1076.903320	23864.082031
1075.768555	23829.732422
1074.633789	23851.060547
1073.498047	23906.628906
1072.363281	23919.373047
1071.227539	23917.130859
1070.091797	23810.056641
1068.956055	24135.109375
1067.819336	23901.849609
1066.682617	23987.279297
1065.546875	24179.570313
1064.409180	23925.050781
1063.272461	23830.908203
1062.135742	24127.818359
1060.998047	24157.576172
1059.860352	24338.974609
1058.722656	23734.425781
1057.583984	23640.398438
1056.446289	23873.023438
1055.307617	23962.558594
1054.168945	23708.490234
1053.029297	23842.826172
1051.890625	23746.726563
1050.750977	23906.597656
1049.611328	23541.835938
1048.471680	23978.847656
1047.332031	23680.285156
1046.191406	23669.546875
1045.051758	23716.345703
1043.911133	23613.994141
1042.769531	23667.173828
1041.628906	23466.902344
1040.487305	23673.394531
1039.346680	23777.625000
1038.205078	23607.238281
1037.062500	23481.603516
1035.920898	23577.296875
1034.778320	23645.298828
1033.635742	23481.439453
1032.493164	23398.447266
1031.350586	23632.281250
1030.207031	23659.830078
1029.063477	23440.822266
1027.919922	23621.392578
1026.776367	23525.697266
1025.632813	23300.460938
1024.488281	23582.898438
1023.343750	23708.095703
1022.199219	23240.919922
1021.054688	23410.707031
1019.910156	23705.646484
1018.764648	23546.396484
1017.619141	23539.949219
1016.473633	23652.285156
1015.327148	23427.386719
1014.181641	23471.849609
1013.035156	23647.728516
1011.888672	23634.906250
1010.742188	23422.886719
1009.594727	23469.431641
1008.448242	23568.917969
1007.300781	23575.175781
1006.153320	23532.726563
1005.005859	23668.136719
1003.857422	24029.992188
1002.708984	24080.601563
1001.560547	24296.242188
1000.412109	24662.011719
999.263672	24549.597656
998.114258	24790.408203
996.965820	24785.849609
995.816406	24823.572266
994.666016	24402.609375
993.516602	24546.052734
992.366211	24763.392578
991.215820	24710.250000
990.065430	24684.582031
988.915039	24718.052734
987.763672	24812.738281
986.613281	24571.744141
985.461914	24299.177734
984.309570	24790.603516
983.158203	24680.550781
982.005859	24707.650391
980.854492	24350.894531
979.701172	24378.041016
978.548828	24301.873047
977.396484	24160.388672
976.243164	24208.626953
975.089844	24741.478516
973.936523	24707.429688
972.783203	24365.869141
971.628906	24401.394531
970.474609	24344.263672
969.320313	24122.949219
968.166016	24249.001953
967.010742	24280.308594
965.856445	24004.421875
964.701172	24250.328125
963.545898	24523.486328
962.390625	24542.099609
961.234375	24478.708984
960.078125	24413.238281
958.921875	24614.703125
957.765625	24696.320313
956.609375	24542.605469
955.452148	24716.625000
954.294922	24691.068359
953.137695	24531.136719
951.980469	24373.363281
950.822266	24391.958984
949.665039	24555.347656
948.506836	24439.617188
947.347656	24302.949219
946.189453	24371.876953
945.030273	24442.875000
943.872070	24239.187500
942.712891	24358.396484
941.552734	24288.931641
940.393555	24433.230469
939.233398	24066.273438
938.073242	24453.542969
936.913086	24438.560547
935.752930	24360.763672
934.591797	24381.392578
933.430664	24590.394531
932.269531	24500.054688
931.108398	24219.337891
929.947266	24411.515625
928.785156	24645.455078
927.623047	24626.267578
926.460938	24370.820313
925.298828	24491.750000
924.135742	24351.373047
922.972656	24319.712891
921.810547	24398.792969
920.646484	24797.449219
919.483398	24632.052734
918.319336	24224.494141
917.155273	24138.597656
915.991211	24466.031250
914.827148	24630.558594
913.662109	24262.941406
912.498047	24512.976563
911.333008	24520.962891
910.167969	24616.535156
909.001953	24609.902344
907.836914	24528.222656
906.670898	24475.750000
905.504883	24683.785156
904.337891	24752.146484
903.171875	24805.900391
902.004883	24874.210938
900.837891	24665.542969
899.670898	24650.574219
898.503906	24533.611328
897.335938	24387.554688
896.167969	24449.630859
895.000000	24530.408203
893.832031	24762.998047
892.663086	24845.765625
891.495117	24764.238281
890.326172	24695.212891
889.156250	24900.574219
887.987305	24804.531250
886.817383	24831.109375
885.648438	24868.064453
884.478516	24948.619141
883.307617	24669.894531
882.137695	24814.816406
880.966797	25001.201172
879.795898	25212.419922
878.625000	25023.074219
877.454102	25140.849609
876.282227	25484.675781
875.110352	25612.689453
873.938477	25323.876953
872.766602	25331.626953
871.593750	25405.703125
870.421875	25193.763672
869.249023	25439.808594
868.076172	25399.880859
866.902344	25388.964844
865.729492	25827.421875
864.555664	25543.126953
863.381836	25679.162109
862.207031	25794.447266
861.033203	26058.677734
859.858398	26202.812500
858.683594	26086.257813
857.508789	26085.562500
856.333984	26250.285156
855.158203	26481.103516
853.982422	26100.003906
852.806641	25969.103516
851.630859	26139.921875
850.454102	26207.380859
849.278320	26157.083984
848.101563	26051.046875
846.924805	25916.140625
845.747070	26165.248047
844.570313	26410.134766
843.392578	26110.150391
842.214844	26047.541016
841.036133	26024.144531
839.858398	25887.326172
838.679688	26455.767578
837.500977	26281.806641
836.322266	26412.976563
835.143555	26364.798828
833.963867	26409.359375
832.784180	26346.777344
831.604492	26537.564453
830.424805	26112.535156
829.244141	26243.582031
828.063477	26211.951172
826.882813	26069.187500
825.702148	25860.625000
824.521484	25750.896484
823.339844	25836.628906
822.158203	25642.619141
820.976563	25890.783203
819.794922	25719.449219
818.612305	25877.060547
817.430664	25561.929688
816.248047	25883.892578
815.064453	25542.166016
813.881836	25843.470703
812.698242	25898.226563
811.514648	25739.423828
810.331055	26215.013672
809.147461	26064.417969
807.962891	25954.919922
806.778320	25995.236328
805.593750	25674.501953
804.409180	25995.833984
803.224609	25949.992188
802.039063	26195.294922
800.853516	26155.580078
799.667969	26138.423828
798.482422	25619.255859
797.295898	25864.431641
796.109375	25685.519531
794.922852	25510.769531
793.736328	25669.830078
792.548828	25855.443359
791.362305	25615.257813
790.174805	25502.037109
788.986328	25658.929688
787.798828	25204.121094
786.610352	25465.316406
785.421875	25483.074219
784.233398	25609.181641
783.044922	25310.068359
781.856445	25033.546875
780.666992	25198.486328
779.477539	25322.505859
778.288086	25665.035156
777.097656	25300.832031
775.907227	25120.527344
774.717773	25346.537109
773.526367	24968.306641
772.335938	25110.589844
771.144531	24969.214844
769.954102	24976.808594
768.762695	24857.945313
767.570313	25069.468750
766.378906	25097.070313
765.186523	25124.697266
763.994141	25152.322266
762.801758	25179.947266
761.609375	25207.572266
760.416016	25235.218750
759.222656	25262.867188
758.029297	25060.658203
756.835938	24992.882813
755.641602	25358.664063
754.447266	25488.250000
753.252930	25373.632813
752.058594	25436.037109
750.864258	25254.351563
749.668945	25052.400391
748.473633	25322.199219
747.278320	25039.000000
746.083008	25097.335938
744.886719	24980.900391
743.690430	25195.656250
742.494141	24750.189453
741.297852	24948.658203
740.100586	24948.068359
738.904297	24716.050781
737.707031	24616.046875
736.509766	24611.457031
735.311523	24623.099609
734.113281	24669.222656
732.916016	24433.410156
731.716797	24505.910156
730.518555	24914.933594
729.320313	24758.257813
728.121094	24881.320313
726.921875	24657.839844
725.721680	24574.230469
724.522461	24626.359375
723.322266	24431.400391
722.122070	24481.511719
720.921875	24408.113281
719.721680	24545.240234
718.520508	24629.699219
717.319336	24153.683594
716.118164	24580.048828
714.916992	24506.695313
713.714844	24742.755859
712.513672	24236.742188
711.311523	24868.949219
710.108398	24795.591797
708.906250	24655.582031
707.703125	24519.662109
706.500000	24482.765625
705.296875	24914.402344
704.093750	24770.431641
702.889648	24927.302734
701.685547	24847.966797
700.481445	24578.970703
699.277344	24830.615234
698.072266	24914.734375
696.868164	24976.634766
695.663086	24982.050781
694.457031	24771.740234
693.251953	25170.255859
692.045898	25264.302734
690.839844	25396.599609
689.633789	25341.488281
688.427734	25256.181641
687.220703	25420.623047
686.013672	25359.494141
684.806641	25346.701172
683.599609	25356.050781
682.391602	25665.232422
681.184570	25080.992188
679.976563	25357.921875
678.767578	25339.101563
677.559570	25360.503906
676.350586	25269.310547
675.141602	25332.925781
673.932617	25302.062500
672.723633	25454.054688
671.513672	25437.240234
670.303711	25402.351563
669.093750	25194.771484
667.883789	25019.392578
666.672852	25287.722656
665.462891	25096.333984
664.251953	25256.185547
663.040039	25082.927734
661.829102	24957.876953
660.617188	24913.093750
659.405273	24888.376953
658.193359	25154.367188
656.981445	24794.873047
655.768555	24676.000000
654.555664	24659.355469
653.342773	25023.347656
652.129883	25008.646484
650.916016	25296.335938
649.702148	25097.386719
648.488281	25382.947266
647.274414	25118.007813
646.059570	25431.470703
644.845703	25576.755859
643.630859	25577.964844
642.416016	25513.175781
641.200195	25472.402344
639.984375	25519.607422
638.769531	25410.886719
637.552734	25526.031250
636.336914	25219.539063
635.120117	25288.726563
633.904297	25198.101563
632.687500	25107.509766
631.469727	25366.347656
630.252930	25122.048828
629.035156	25055.468750
627.817383	25172.492188
626.599609	25056.048828
625.380859	24991.507813
624.163086	24940.951172
622.944336	25153.613281
621.724609	24849.859375
620.505859	25096.341797
619.286133	24942.171875
618.066406	24740.240234
616.846680	24787.392578
615.626953	25342.408203
614.406250	25305.792969
613.186523	25117.875000
611.965820	25266.435547
610.744141	25016.898438
609.523438	25161.441406
608.301758	24991.591797
607.080078	25456.326172
605.858398	25348.132813
604.635742	25037.169922
603.414063	25243.193359
602.191406	25065.533203
600.968750	25136.339844
599.745117	25242.882813
598.522461	25168.617188
597.298828	25459.818359
596.075195	25427.236328
594.850586	25347.015625
593.626953	25374.013672
592.402344	25412.908203
591.177734	25713.707031
589.953125	25377.570313
588.727539	25604.869141
587.501953	25768.623047
586.276367	25854.986328
585.050781	26101.888672
583.825195	26255.542969
582.598633	25967.236328
581.372070	25942.541016
580.145508	26296.205078
578.917969	26546.746094
577.691406	26620.960938
576.463867	26707.025391
575.236328	26747.529297
574.007813	26740.519531
572.780273	26911.589844
571.551758	26752.224609
570.323242	26507.865234
569.094727	26896.408203
567.865234	26337.744141
566.635742	26488.955078
565.406250	26671.732422
564.176758	26299.169922
562.947266	26256.683594
561.716797	26190.507813
560.486328	26136.207031
559.255859	25884.468750
558.024414	25889.466797
556.793945	26006.970703
555.562500	26063.251953
554.331055	25894.582031
553.098633	26008.068359
551.867188	25756.630859
550.634766	26006.164063
549.402344	26072.244141
548.168945	25929.349609
546.936523	25715.556641
545.703125	25834.853516
544.469727	25828.017578
543.236328	25927.548828
542.001953	26017.193359
540.767578	26047.734375
539.533203	25863.683594
538.298828	26051.699219
537.064453	25810.646484
535.829102	25693.634766
534.593750	25820.589844
533.358398	26185.476563
532.122070	26003.566406
530.886719	26163.810547
529.650391	25919.070313
528.414063	26081.232422
527.176758	26524.314453
525.940430	26474.130859
524.703125	26282.542969
523.465820	26387.560547
522.227539	26435.597656
520.990234	26320.679688
519.751953	26378.523438
518.513672	26461.851563
517.275391	26407.812500
516.036133	26624.490234
514.796875	26429.230469
513.557617	26422.283203
512.318359	26481.994141
511.079102	26586.763672
509.838867	26362.255859
508.598633	26429.779297
507.358398	26364.062500
506.117188	26533.404297
504.876953	26354.111328
503.635742	26529.261719
502.394531	26704.345703
501.152344	26141.519531
499.911133	26079.837891
498.668945	26321.419922
497.425781	26502.273438
496.183594	26438.599609
494.941406	26537.238281
493.698242	26555.685547
492.455078	26722.671875
491.210938	26461.625000
489.967773	26796.591797
488.723633	26869.667969
487.479492	26366.556641
486.235352	26640.812500
484.990234	26518.638672
483.745117	26712.730469
482.500000	26569.119141
481.254883	26786.539063
480.008789	27068.253906
478.763672	27037.781250
477.517578	27157.478516
476.271484	27232.285156
475.024414	27211.542969
473.777344	27034.884766
472.530273	27242.175781
471.283203	27194.164063
470.036133	27535.750000
468.788086	27450.695313
467.540039	27207.947266
466.291992	27385.802734
465.043945	27439.015625
463.794922	27169.160156
462.545898	27241.849609
461.296875	27195.843750
460.047852	27546.628906
458.797852	27617.255859
457.547852	27650.916016
456.297852	27552.376953
455.047852	27496.632813
453.796875	27648.822266
452.545898	27682.445313
451.294922	27702.457031
450.043945	27722.458984
448.792969	28154.085938
447.541016	27956.568359
446.289063	28157.013672
445.036133	28244.830078
443.784180	28507.226563
442.531250	28752.066406
441.278320	28182.240234
440.025391	28302.943359
438.771484	28237.482422
437.518555	28179.798828
436.264648	27930.275391
435.010742	27928.859375
433.755859	27644.603516
432.500977	27645.175781
431.246094	27742.574219
429.991211	27398.490234
428.736328	27319.738281
427.480469	27573.908203
426.224609	27582.226563
424.968750	27466.722656
423.712891	27506.005859
422.456055	27452.443359
421.199219	27077.923828
419.942383	27772.615234
418.685547	27655.244141
417.427734	27605.554688
416.169922	27519.169922
414.912109	27102.488281
413.654297	27624.617188
412.395508	27712.066406
411.136719	27704.880859
409.877930	27141.771484
408.619141	27736.828125
407.359375	27391.964844
406.099609	27504.449219
404.839844	27429.792969
403.580078	27544.152344
402.319336	27430.953125
401.059570	27510.566406
