#Wave		#Intensity
2001.248047	23952.365234
2000.278320	23654.089844
1999.308594	23963.220703
1998.338867	23698.451172
1997.369141	23766.964844
1996.398438	23998.263672
1995.428711	23623.431641
1994.458008	23904.751953
1993.487305	24193.482422
1992.516602	23963.986328
1991.545898	23919.759766
1990.574219	23878.050781
1989.603516	23646.224609
1988.631836	23787.167969
1987.660156	23843.033203
1986.688477	24123.916016
1985.715820	23889.703125
1984.744141	23780.550781
1983.771484	23721.416016
1982.798828	23647.308594
1981.826172	23865.519531
1980.853516	23746.451172
1979.880859	23467.593750
1978.907227	23925.421875
1977.933594	23906.261719
1976.959961	23919.556641
1975.986328	23920.367188
1975.012695	23177.617188
1974.039063	23892.048828
1973.064453	23730.732422
1972.089844	23763.992188
1971.115234	23859.574219
1970.140625	23506.384766
1969.166016	23659.306641
1968.190430	23822.140625
1967.215820	23780.601563
1966.240234	23497.423828
1965.264648	23685.107422
1964.289063	23643.609375
1963.312500	23734.091797
1962.336914	23729.941406
1961.360352	23486.841797
1960.383789	23525.039063
1959.407227	23722.468750
1958.430664	23591.443359
1957.454102	23487.824219
1956.476563	23881.617188
1955.499023	23546.740234
1954.521484	23510.302734
1953.543945	23866.599609
1952.566406	23467.283203
1951.587891	23719.103516
1950.610352	23623.033203
1949.631836	23623.867188
1948.653320	23306.824219
1947.674805	23493.933594
1946.696289	23671.046875
1945.716797	23644.564453
1944.737305	23317.808594
1943.758789	23417.939453
1942.779297	23594.937500
1941.798828	23608.169922
1940.819336	23368.441406
1939.838867	23438.736328
1938.859375	23392.488281
1937.878906	23574.289063
1936.898438	23671.767578
1935.916992	23509.044922
1934.936523	23462.812500
1933.955078	23555.302734
1932.974609	23479.359375
1931.993164	23745.134766
1931.010742	23448.853516
1930.029297	23598.207031
1929.047852	23267.408203
1928.065430	23300.447266
1927.083008	23239.464844
1926.100586	23396.166016
1925.118164	23394.539063
1924.135742	23229.724609
1923.152344	23069.908203
1922.168945	23565.148438
1921.185547	23501.708984
1920.202148	23252.976563
1919.218750	23394.654297
1918.235352	23543.691406
1917.250977	23472.888672
1916.266602	23313.220703
1915.282227	23074.609375
1914.297852	23485.226563
1913.313477	23634.113281
1912.328125	23217.919922
1911.343750	23391.466797
1910.358398	23296.105469
1909.373047	23070.074219
1908.387695	23435.873047
1907.401367	23064.447266
1906.416016	23075.191406
1905.429688	23186.968750
1904.443359	23557.414063
1903.457031	23095.076172
1902.470703	23288.068359
1901.483398	23493.304688
1900.497070	23220.804688
1899.509766	23305.353516
1898.522461	23178.199219
1897.535156	23095.384766
1896.546875	23305.390625
1895.559570	23148.779297
1894.571289	23361.160156
1893.583008	23433.294922
1892.594727	23601.292969
1891.606445	23294.781250
1890.618164	23172.714844
1889.628906	23080.179688
1888.639648	23233.375000
1887.650391	23209.644531
1886.661133	23222.761719
1885.671875	23454.431641
1884.682617	23219.519531
1883.692383	23561.574219
1882.702148	22894.746094
1881.711914	23145.939453
1880.721680	23141.875000
1879.731445	23311.980469
1878.740234	23239.210938
1877.749023	23195.894531
1876.757813	23250.664063
1875.766602	23241.675781
1874.775391	23083.181641
1873.784180	23179.599609
1872.791992	23094.673828
1871.799805	23124.910156
1870.807617	23172.281250
1869.815430	23192.699219
1868.823242	22958.474609
1867.830078	23182.099609
1866.837891	23060.544922
1865.844727	23291.412109
1864.851563	23245.726563
1863.858398	23261.208984
1862.864258	23381.857422
1861.871094	23206.570313
1860.876953	23292.953125
1859.882813	23252.191406
1858.888672	22849.716797
1857.894531	23456.613281
1856.899414	23181.291016
1855.905273	23160.115234
1854.910156	23493.087891
1853.915039	23205.693359
1852.919922	23501.916016
1851.923828	23229.265625
1850.928711	23173.925781
1849.932617	23106.404297
1848.936523	23165.773438
1847.940430	23173.896484
1846.944336	23206.402344
1845.947266	23448.609375
1844.951172	23278.693359
1843.954102	23557.365234
1842.957031	23580.029297
1841.959961	23149.443359
1840.962891	23335.404297
1839.964844	23448.222656
1838.966797	23414.869141
1837.969727	23500.845703
1836.970703	23384.716797
1835.972656	23312.441406
1834.974609	23344.845703
1833.975586	23389.402344
1832.976563	23555.589844
1831.978516	23466.304688
1830.978516	23583.777344
1829.979492	22862.291016
1828.980469	23344.507813
1827.980469	23384.150391
1826.980469	23260.945313
1825.980469	23631.058594
1824.980469	23711.927734
1823.979492	23161.210938
1822.979492	23484.998047
1821.978516	23704.257813
1820.977539	23282.501953
1819.976563	23635.222656
1818.975586	23410.207031
1817.973633	23452.187500
1816.972656	23450.480469
1815.970703	23422.091797
1814.968750	23289.427734
1813.966797	23377.466797
1812.963867	23269.097656
1811.961914	23468.609375
1810.958984	23219.697266
1809.956055	23826.222656
1808.953125	23664.550781
1807.950195	23750.001953
1806.946289	23549.648438
1805.943359	23814.269531
1804.939453	23597.027344
1803.935547	23621.914063
1802.930664	23608.068359
1801.926758	23780.541016
1800.922852	23735.220703
1799.917969	23876.164063
1798.913086	23971.107422
1797.908203	23947.537109
1796.903320	23720.898438
1795.897461	23499.175781
1794.891602	24116.119141
1793.886719	23821.912109
1792.880859	23769.394531
1791.874023	24038.140625
1790.868164	23724.783203
1789.862305	23706.109375
1788.855469	23849.189453
1787.848633	23596.369141
1786.841797	23780.439453
1785.833984	23831.740234
1784.827148	23880.607422
1783.819336	23845.035156
1782.812500	24243.560547
1781.804688	23814.917969
1780.795898	23981.876953
1779.788086	23890.873047
1778.779297	24060.166016
1777.771484	23925.806641
1776.762695	24191.392578
1775.753906	24196.755859
1774.744141	23929.994141
1773.735352	24166.542969
1772.725586	23993.761719
1771.715820	23963.048828
1770.706055	24375.136719
1769.696289	23810.222656
1768.686523	24003.277344
1767.675781	24253.988281
1766.666016	24297.798828
1765.655273	24108.373047
1764.644531	24161.806641
1763.632813	24176.765625
1762.622070	24064.357422
1761.610352	24288.355469
1760.598633	24404.175781
1759.586914	24154.878906
1758.575195	24578.054688
1757.563477	24309.607422
1756.550781	24185.285156
1755.538086	24581.826172
1754.525391	24539.085938
1753.512695	24460.371094
1752.500000	24384.082031
1751.486328	24557.253906
1750.473633	24370.666016
1749.459961	24596.521484
1748.446289	24429.167969
1747.432617	24602.205078
1746.417969	24760.802734
1745.404297	24751.630859
1744.389648	24617.900391
1743.375000	24896.158203
1742.360352	24812.732422
1741.344727	24626.388672
1740.330078	24689.056641
1739.314453	25141.812500
1738.298828	24804.751953
1737.283203	24939.126953
1736.267578	24812.720703
1735.251953	25152.724609
1734.235352	25330.005859
1733.218750	25191.638672
1732.202148	25182.400391
1731.185547	25299.830078
1730.168945	25479.345703
1729.151367	25395.996094
1728.133789	25236.238281
1727.117188	25315.359375
1726.098633	25867.240234
1725.081055	25905.632813
1724.063477	25920.142578
1723.044922	25999.083984
1722.026367	25734.392578
1721.007813	26278.546875
1719.989258	26390.773438
1718.970703	26109.455078
1717.951172	26321.816406
1716.931641	26505.492188
1715.912109	26348.248047
1714.892578	26732.037109
1713.873047	26748.746094
1712.853516	26610.597656
1711.833008	26829.783203
1710.812500	26732.152344
1709.791992	26855.994141
1708.771484	26994.074219
1707.750000	27110.681641
1706.729492	27182.031250
1705.708008	27227.181641
1704.686523	27400.777344
1703.665039	27571.933594
1702.642578	27262.648438
1701.621094	27471.808594
1700.598633	27457.429688
1699.576172	27711.638672
1698.553711	27557.011719
1697.531250	27806.359375
1696.507813	27609.005859
1695.485352	27725.244141
1694.461914	27869.937500
1693.438477	27841.251953
1692.415039	28090.322266
1691.390625	28156.544922
1690.367188	28443.437500
1689.342773	28414.666016
1688.318359	28224.593750
1687.293945	28281.253906
1686.269531	28947.335938
1685.244141	28515.429688
1684.218750	28723.718750
1683.194336	28981.705078
1682.168945	28770.400391
1681.142578	29004.591797
1680.117188	28693.863281
1679.090820	29441.931641
1678.064453	29401.187500
1677.038086	29348.617188
1676.011719	29511.478516
1674.985352	29316.900391
1673.958008	29299.865234
1672.931641	29441.349609
1671.904297	29298.925781
1670.876953	29894.451172
1669.848633	29638.492188
1668.821289	30011.505859
1667.792969	29866.712891
1666.764648	30095.384766
1665.736328	30196.375000
1664.708008	30131.949219
1663.679688	30117.148438
1662.650391	30326.714844
1661.621094	30144.232422
1660.591797	30242.755859
1659.562500	30331.802734
1658.533203	30548.257813
1657.502930	30401.253906
1656.472656	30601.103516
1655.442383	30506.033203
1654.412109	30783.615234
1653.381836	30396.160156
1652.351563	30569.929688
1651.320313	30741.279297
1650.289063	30764.095703
1649.257813	30848.167969
1648.226563	30755.517578
1647.194336	31018.570313
1646.163086	31100.191406
1645.130859	31097.017578
1644.098633	30700.697266
1643.066406	30878.832031
1642.033203	30840.394531
1641.000977	31409.023438
1639.967773	31255.230469
1638.934570	31045.042969
1637.901367	31559.238281
1636.868164	31381.984375
1635.833984	31801.902344
1634.800781	31493.044922
1633.766602	31522.693359
1632.732422	31702.701172
1631.697266	31654.777344
1630.663086	31921.597656
1629.627930	31885.390625
1628.593750	31997.113281
1627.558594	32106.447266
1626.522461	32013.892578
1625.487305	31937.796875
1624.451172	32094.001953
1623.416016	32182.123047
1622.379883	32023.945313
1621.343750	32189.429688
1620.306641	32415.810547
1619.270508	32881.210938
1618.233398	32671.455078
1617.196289	32714.847656
1616.159180	33435.320313
1615.122070	33513.695313
1614.083984	33435.125000
1613.046875	33766.367188
1612.008789	34352.683594
1610.970703	34302.089844
1609.932617	34164.917969
1608.893555	34156.496094
1607.855469	33923.472656
1606.816406	33723.285156
1605.777344	33511.468750
1604.738281	33500.824219
1603.698242	33256.390625
1602.659180	32885.820313
1601.619141	32664.955078
1600.579102	32376.402344
1599.539063	32043.562500
1598.499023	31727.191406
1597.458008	31873.337891
1596.417969	31300.259766
1595.376953	31397.402344
1594.335938	31342.789063
1593.294922	31089.828125
1592.252930	31177.617188
1591.210938	31134.734375
1590.169922	30954.248047
1589.127930	31408.144531
1588.084961	30912.900391
1587.042969	30643.960938
1586.000000	30953.156250
1584.958008	31008.226563
1583.915039	31307.923828
1582.872070	31162.566406
1581.828125	31408.556641
1580.785156	31507.748047
1579.741211	31239.029297
1578.697266	31419.687500
1577.653320	31788.808594
1576.609375	32211.318359
1575.564453	32000.826172
1574.520508	32281.244141
1573.475586	32268.507813
1572.430664	32206.939453
1571.384766	32231.417969
1570.339844	32214.042969
1569.293945	32036.306641
1568.249023	32111.919922
1567.202148	31880.824219
1566.156250	31670.716797
1565.110352	31597.710938
1564.063477	31139.261719
1563.017578	30757.591797
1561.970703	30636.037109
1560.922852	30029.466797
1559.875977	29924.326172
1558.829102	29881.863281
1557.781250	30034.259766
1556.733398	29912.937500
1555.685547	29731.369141
1554.636719	30013.535156
1553.588867	29679.025391
1552.540039	29393.302734
1551.491211	29230.488281
1550.442383	29023.712891
1549.393555	29148.240234
1548.344727	28712.279297
1547.294922	28968.796875
1546.245117	28806.197266
1545.195313	28599.675781
1544.145508	28835.246094
1543.094727	28404.351563
1542.044922	28621.361328
1540.994141	28792.031250
1539.943359	29219.335938
1538.892578	28645.322266
1537.840820	28832.078125
1536.790039	28410.882813
1535.738281	28532.904297
1534.686523	28837.412109
1533.634766	28746.781250
1532.583008	28947.203125
1531.530273	29221.449219
1530.477539	28685.187500
1529.424805	28795.478516
1528.372070	28241.019531
1527.319336	28462.113281
1526.265625	28217.074219
1525.212891	28654.929688
1524.159180	28516.035156
1523.105469	28531.687500
1522.051758	28554.250000
1520.997070	28415.443359
1519.942383	28251.332031
1518.888672	28419.101563
1517.833984	28623.669922
1516.778320	28268.417969
1515.723633	27811.955078
1514.667969	27576.710938
1513.612305	27944.740234
1512.556641	27962.757813
1511.500977	27663.169922
1510.445313	27793.976563
1509.388672	27878.724609
1508.332031	27749.523438
1507.275391	27700.859375
1506.218750	27636.117188
1505.162109	27352.994141
1504.104492	27430.843750
1503.047852	27419.037109
1501.990234	27712.830078
1500.931641	27652.732422
1499.874023	27654.669922
1498.816406	27291.462891
1497.757813	27279.687500
1496.699219	27371.218750
1495.640625	27361.724609
1494.582031	27641.382813
1493.522461	27299.148438
1492.462891	27390.605469
1491.403320	27576.068359
1490.343750	27740.822266
1489.284180	27607.455078
1488.224609	27453.501953
1487.164063	27547.136719
1486.103516	27310.751953
1485.042969	27635.781250
1483.982422	27321.578125
1482.920898	27683.132813
1481.860352	27316.363281
1480.798828	27524.390625
1479.737305	27402.710938
1478.675781	27228.435547
1477.613281	27209.822266
1476.550781	27339.927734
1475.489258	27309.863281
1474.426758	27364.427734
1473.363281	27258.908203
1472.300781	27361.470703
1471.237305	27290.273438
1470.174805	27459.068359
1469.111328	27275.914063
1468.046875	27501.763672
1466.983398	27442.007813
1465.919922	27439.369141
1464.855469	27443.578125
1463.791016	27125.890625
1462.726563	27458.837891
1461.661133	27426.523438
1460.596680	27526.560547
1459.531250	27578.652344
1458.465820	27564.578125
1457.400391	27390.875000
1456.334961	27746.208984
1455.268555	27622.685547
1454.202148	27647.357422
1453.135742	28004.728516
1452.069336	27616.923828
1451.002930	27566.404297
1449.935547	27893.986328
1448.869141	27734.126953
1447.801758	27565.214844
1446.734375	27701.400391
1445.666016	27664.562500
1444.598633	27721.033203
1443.530273	28009.548828
1442.461914	27959.021484
1441.393555	28352.009766
1440.325195	28383.298828
1439.256836	28246.333984
1438.187500	28350.369141
1437.118164	28368.001953
1436.048828	28721.927734
1434.979492	28675.871094
1433.909180	28772.935547
1432.839844	28254.500000
1431.769531	28267.585938
1430.699219	28929.962891
1429.627930	28861.205078
1428.557617	28622.263672
1427.486328	29143.535156
1426.416016	28752.628906
1425.343750	29053.667969
1424.272461	28851.144531
1423.201172	28768.863281
1422.128906	29035.730469
1421.056641	29286.632813
1419.984375	29109.136719
1418.912109	29674.875000
1417.839844	29529.085938
1416.766602	29324.457031
1415.693359	29407.498047
1414.620117	29033.152344
1413.546875	28926.060547
1412.473633	29022.705078
1411.399414	29137.417969
1410.325195	28645.734375
1409.250977	28753.683594
1408.176758	28800.529297
1407.102539	28772.732422
1406.027344	29228.775391
1404.952148	29535.460938
1403.876953	29715.470703
1402.801758	29712.380859
1401.726563	29636.994141
1400.650391	29728.789063
1399.574219	29657.941406
1398.498047	29815.179688
1397.421875	29717.248047
1396.345703	29206.277344
1395.268555	29191.990234
1394.191406	29258.939453
1393.114258	29113.796875
1392.037109	28966.449219
1390.959961	29166.455078
1389.881836	29244.626953
1388.804688	29047.736328
1387.726563	29299.457031
1386.647461	29149.949219
1385.569336	29901.759766
1384.491211	29470.601563
1383.412109	29395.466797
1382.333008	29773.001953
1381.253906	29603.273438
1380.173828	29865.822266
1379.094727	29826.677734
1378.014648	29567.015625
1376.934570	29462.689453
1375.854492	29623.841797
1374.773438	29578.017578
1373.693359	29613.160156
1372.612305	29398.730469
1371.531250	29334.984375
1370.450195	28880.197266
1369.369141	28857.011719
1368.287109	29033.789063
1367.205078	28684.873047
1366.123047	28567.406250
1365.041016	28849.671875
1363.958984	28833.242188
1362.875977	28426.250000
1361.793945	28629.835938
1360.710938	28626.914063
1359.626953	28336.832031
1358.543945	28504.433594
1357.460938	28645.060547
1356.376953	28660.070313
1355.292969	28222.228516
1354.208984	28448.000000
1353.124023	28342.019531
1352.040039	28516.152344
1350.955078	27841.185547
1349.870117	28122.853516
1348.785156	28270.054688
1347.700195	28038.814453
1346.614258	27953.162109
1345.528320	28223.412109
1344.442383	28439.855469
1343.356445	28219.931641
1342.270508	28098.513672
1341.183594	28059.890625
1340.096680	28327.632813
1339.009766	28259.916016
1337.922852	28221.281250
1336.835938	28178.189453
1335.748047	28394.318359
1334.661133	28261.841797
1333.573242	28529.251953
1332.484375	28557.597656
1331.396484	28507.779297
1330.307617	28335.187500
1329.219727	28135.873047
1328.130859	28271.386719
1327.041992	28502.794922
1325.952148	28290.169922
1324.863281	28104.384766
1323.773438	28346.845703
1322.683594	28468.814453
1321.593750	28167.171875
1320.502930	28213.343750
1319.413086	28261.726563
1318.322266	28187.544922
1317.231445	28160.171875
1316.140625	28215.214844
1315.048828	27945.113281
1313.958008	27822.056641
1312.866211	28373.542969
1311.774414	28297.189453
1310.682617	27860.369141
1309.589844	28271.378906
1308.498047	28057.164063
1307.405273	28356.785156
1306.312500	28342.759766
1305.218750	28724.478516
1304.125977	28950.457031
1303.032227	28980.777344
1301.939453	29115.521484
1300.845703	29712.318359
1299.750977	30053.455078
1298.657227	30185.707031
1297.562500	30653.197266
1296.467773	31089.437500
1295.373047	31345.726563
1294.278320	31695.128906
1293.183594	31332.158203
1292.087891	31501.740234
1290.992188	31788.816406
1289.896484	32004.822266
1288.800781	30604.390625
1287.704102	30386.033203
1286.608398	30147.804688
1285.511719	29987.222656
1284.415039	29735.857422
1283.317383	29690.595703
1282.220703	29149.232422
1281.123047	29243.599609
1280.025391	29001.400391
1278.927734	29396.810547
1277.830078	29010.810547
1276.731445	28892.701172
1275.633789	28619.763672
1274.535156	28605.728516
1273.436523	28602.755859
1272.336914	28400.773438
1271.238281	28373.517578
1270.138672	28058.916016
1269.039063	27934.490234
1267.939453	27730.560547
1266.839844	28240.277344
1265.739258	27861.869141
1264.638672	27870.068359
1263.538086	27633.173828
1262.437500	27590.632813
1261.336914	27585.628906
1260.235352	27551.937500
1259.134766	27491.779297
1258.033203	27438.261719
1256.930664	27252.423828
1255.829102	27068.859375
1254.726563	27293.248047
1253.625000	27391.902344
1252.522461	27054.128906
1251.418945	27214.490234
1250.316406	26942.962891
1249.212891	26984.333984
1248.110352	26981.638672
1247.006836	26928.296875
1245.902344	26795.716797
1244.798828	26865.693359
1243.694336	27012.671875
1242.589844	26699.710938
1241.485352	26857.664063
1240.380859	26734.009766
1239.276367	26946.876953
1238.170898	26939.785156
1237.065430	26644.703125
1235.959961	26793.726563
1234.854492	26481.195313
1233.748047	26891.658203
1232.642578	27119.634766
1231.536133	27103.726563
1230.429688	27300.837891
1229.322266	27328.152344
1228.215820	27355.441406
1227.108398	27382.755859
1226.000977	27410.070313
1224.893555	27437.382813
1223.786133	27464.697266
1222.677734	27492.035156
1221.569336	27085.751953
1220.460938	27567.546875
1219.352539	27152.626953
1218.244141	27531.226563
1217.134766	27622.636719
1216.025391	27094.005859
1214.916016	27174.507813
1213.806641	27051.304688
1212.697266	27160.248047
1211.586914	27113.712891
1210.476563	26959.941406
1209.366211	27114.794922
1208.255859	26980.769531
1207.145508	26910.232422
1206.034180	27071.570313
1204.922852	27204.416016
1203.811523	26681.279297
1202.700195	27297.265625
1201.587891	27119.630859
1200.476563	27088.474609
1199.364258	26980.857422
1198.251953	26777.162109
1197.138672	26763.552734
1196.026367	27295.865234
1194.913086	26991.789063
1193.799805	27255.369141
1192.686523	26927.402344
1191.573242	27271.634766
1190.458984	27111.769531
1189.344727	27228.986328
1188.230469	27219.667969
1187.116211	27083.882813
1186.001953	27146.533203
1184.886719	27226.599609
1183.772461	27088.703125
1182.657227	27353.955078
1181.541016	27078.837891
1180.425781	26982.425781
1179.309570	26618.187500
1178.193359	26844.134766
1177.077148	26523.591797
1175.960938	26904.003906
1174.844727	27094.955078
1173.727539	26648.345703
1172.610352	26519.496094
1171.493164	26492.914063
1170.375977	26464.166016
1169.257813	26207.142578
1168.139648	26213.234375
1167.022461	26406.232422
1165.903320	26664.347656
1164.785156	26348.810547
1163.666992	26274.498047
1162.547852	26245.818359
1161.428711	26466.857422
1160.309570	26453.347656
1159.189453	26628.681641
1158.070313	26165.917969
1156.950195	26215.390625
1155.830078	26264.845703
1154.709961	26188.478516
1153.588867	26281.289063
1152.468750	26289.503906
1151.347656	26089.605469
1150.226563	26340.601563
1149.104492	26259.951172
1147.983398	25813.167969
1146.861328	26293.693359
1145.739258	25855.728516
1144.617188	26247.287109
1143.495117	26300.953125
1142.372070	26261.519531
1141.250000	26189.634766
1140.126953	26422.878906
1139.003906	26216.853516
1137.879883	26162.316406
1136.756836	26475.455078
1135.632813	26265.205078
1134.508789	26500.378906
1133.384766	26320.458984
1132.259766	26391.291016
1131.135742	26014.832031
1130.010742	26016.562500
1128.885742	26396.275391
1127.759766	26270.521484
1126.634766	26224.699219
1125.508789	26455.210938
1124.382813	26286.345703
1123.256836	26052.802734
1122.130859	26404.037109
1121.003906	26043.283203
1119.877930	25751.675781
1118.750977	26059.642578
1117.624023	26009.605469
1116.496094	25998.386719
1115.369141	26288.894531
1114.241211	26068.611328
1113.113281	26311.601563
1111.985352	26252.941406
1110.856445	26577.644531
1109.728516	26564.173828
1108.599609	26363.410156
1107.470703	26612.576172
1106.340820	26362.378906
1105.211914	26391.984375
1104.082031	26501.173828
1102.952148	26296.298828
1101.822266	26558.146484
1100.692383	26596.291016
1099.561523	26458.146484
1098.431641	26305.005859
1097.300781	26472.105469
1096.169922	26308.273438
1095.038086	26153.093750
1093.907227	26182.671875
1092.775391	26343.224609
1091.643555	26581.005859
1090.511719	26593.314453
1089.378906	26287.988281
1088.246094	26497.751953
1087.114258	26222.587891
1085.980469	26400.109375
1084.847656	26240.869141
1083.714844	26004.494141
1082.581055	26250.556641
1081.447266	26560.828125
1080.313477	26127.367188
1079.179688	26270.421875
1078.044922	26269.896484
1076.910156	26453.564453
1075.775391	26196.031250
1074.640625	26533.798828
1073.505859	26569.611328
1072.370117	26804.453125
1071.234375	26574.857422
1070.098633	26655.568359
1068.962891	26612.181641
1067.826172	26844.699219
1066.690430	26814.121094
1065.553711	26924.654297
1064.416992	26894.070313
1063.279297	26735.269531
1062.142578	27067.972656
1061.004883	27041.648438
1059.867188	26870.087891
1058.729492	26540.560547
1057.590820	26646.722656
1056.453125	27085.869141
1055.314453	26782.089844
1054.175781	26734.500000
1053.037109	27198.988281
1051.897461	27091.607422
1050.757813	27029.052734
1049.618164	26405.697266
1048.478516	26720.656250
1047.338867	26828.732422
1046.199219	26753.480469
1045.058594	27004.275391
1043.917969	26730.884766
1042.777344	26685.507813
1041.635742	26635.888672
1040.495117	26454.271484
1039.353516	26773.009766
1038.211914	27040.546875
1037.069336	26869.589844
1035.927734	26713.591797
1034.785156	26442.771484
1033.642578	26720.800781
1032.500000	26579.796875
1031.357422	26838.562500
1030.213867	26893.158203
1029.071289	27073.128906
1027.927734	26828.033203
1026.783203	26935.710938
1025.639648	26595.140625
1024.495117	26847.238281
1023.351563	26678.804688
1022.207031	26988.115234
1021.061523	26932.214844
1019.916992	27043.992188
1018.771484	26977.490234
1017.625977	26857.974609
1016.480469	26971.822266
1015.334961	27024.125000
1014.188477	27004.318359
1013.041992	27096.873047
1011.895508	27180.914063
1010.749023	27125.060547
1009.602539	27024.730469
1008.455078	26943.501953
1007.307617	26930.078125
1006.160156	27088.183594
1005.012695	27364.791016
1003.864258	27370.343750
1002.716797	27727.220703
1001.568359	27895.636719
1000.419922	28298.828125
999.270508	28363.427734
998.122070	28637.373047
996.972656	28629.992188
995.823242	28417.546875
994.673828	28790.671875
993.523438	28641.671875
992.373047	28384.966797
991.222656	28411.431641
990.072266	28366.074219
988.921875	28671.283203
987.771484	28946.820313
986.620117	28158.322266
985.468750	28615.359375
984.317383	28645.966797
983.165039	28092.144531
982.013672	28247.291016
980.861328	27948.935547
979.708984	28038.679688
978.555664	28313.917969
977.403320	28184.339844
976.250000	28183.367188
975.096680	27969.576172
973.943359	27974.958984
972.790039	28218.353516
971.635742	27705.628906
970.481445	28001.619141
969.327148	27868.046875
968.172852	27641.914063
967.018555	27645.240234
965.863281	27492.869141
964.708008	27620.332031
963.552734	27728.816406
962.397461	27601.744141
961.241211	27413.746094
960.084961	27679.859375
958.929688	27802.960938
957.772461	27648.646484
956.616211	27515.396484
955.458984	27512.425781
954.301758	27658.564453
953.144531	27894.935547
951.987305	27543.400391
950.830078	27727.230469
949.671875	27824.947266
948.513672	27437.949219
947.355469	27709.798828
946.196289	27729.857422
945.038086	27429.064453
943.878906	27769.951172
942.719727	27488.125000
941.560547	27747.134766
940.400391	27924.322266
939.241211	28072.113281
938.081055	27738.066406
936.919922	28005.210938
935.759766	28207.341797
934.599609	27982.316406
933.438477	27686.203125
932.277344	28049.423828
931.116211	28115.388672
929.954102	28143.671875
928.791992	28274.431641
927.630859	28193.929688
926.467773	28121.818359
925.305664	28196.064453
924.143555	28121.886719
922.980469	28246.255859
921.817383	28090.611328
920.654297	28024.845703
919.490234	28180.488281
918.327148	28118.904297
917.163086	28268.205078
915.999023	28333.955078
914.833984	28380.896484
913.669922	28463.291016
912.504883	28466.378906
911.339844	28627.986328
910.174805	28334.906250
909.008789	28431.839844
907.843750	28428.669922
906.677734	28727.722656
905.511719	28684.904297
904.345703	28790.029297
903.178711	28780.542969
902.011719	28741.900391
900.844727	28582.492188
899.677734	28745.849609
898.510742	28515.724609
897.342773	28543.751953
896.174805	28498.939453
895.006836	28674.667969
893.838867	28394.798828
892.670898	28433.220703
891.501953	28502.818359
890.333008	28412.312500
889.164063	28301.052734
887.994141	28329.068359
886.825195	28552.380859
885.655273	28416.224609
884.485352	28940.597656
883.315430	28287.345703
882.144531	28809.468750
880.973633	28656.755859
879.803711	28614.095703
878.631836	28556.923828
877.460938	28958.275391
876.289063	28693.628906
875.118164	29146.650391
873.945313	29076.976563
872.773438	29272.689453
871.601563	29339.816406
870.428711	29147.871094
869.255859	29658.400391
868.083008	29420.888672
866.910156	29440.294922
865.736328	29689.556641
864.562500	29456.308594
863.388672	29761.363281
862.214844	29704.109375
861.040039	30033.833984
859.866211	30371.712891
858.691406	30103.382813
857.516602	29955.103516
856.340820	30199.751953
855.166016	30107.328125
853.990234	29975.662109
852.814453	30213.968750
851.637695	29962.486328
850.461914	29890.826172
849.285156	30203.369141
848.108398	30059.410156
846.931641	30541.109375
845.754883	30000.789063
844.577148	29968.394531
843.399414	30627.304688
842.221680	30318.339844
841.043945	30677.832031
839.865234	30775.263672
838.687500	31351.048828
837.508789	31159.687500
836.329102	31477.525391
835.150391	31376.886719
833.970703	31636.871094
832.791992	31525.937500
831.611328	31299.697266
830.431641	30783.171875
829.251953	31059.539063
828.071289	30897.324219
826.890625	30648.722656
825.709961	30661.554688
824.528320	30392.511719
823.347656	30197.623047
822.166016	30434.705078
820.984375	30681.980469
819.801758	30073.902344
818.620117	30325.261719
817.437500	30588.857422
816.254883	30529.753906
815.072266	30725.414063
813.888672	30035.726563
812.706055	30282.744141
811.522461	30330.503906
810.338867	30476.783203
809.154297	30584.009766
807.970703	30424.421875
806.786133	30621.890625
805.601563	30587.482422
804.416992	30538.730469
803.231445	30412.072266
802.045898	30402.322266
800.861328	30091.250000
799.674805	30458.656250
798.489258	30459.142578
797.302734	30619.423828
796.117188	30496.980469
794.930664	30147.263672
793.743164	30080.234375
792.556641	30232.273438
791.369141	30271.681641
790.181641	30102.343750
788.994141	29681.406250
787.805664	29962.275391
786.618164	30345.300781
785.429688	30096.318359
784.241211	30262.458984
783.052734	29866.406250
781.863281	29856.763672
780.673828	29757.216797
779.484375	29745.550781
778.294922	29831.933594
777.105469	29722.232422
775.915039	29851.462891
774.724609	29741.794922
773.534180	29703.603516
772.343750	29745.011719
771.152344	29570.130859
769.960938	29633.984375
768.769531	30003.744141
767.578125	29924.750000
766.385742	29927.333984
765.194336	29795.382813
764.001953	30160.755859
762.808594	30124.576172
761.616211	30080.259766
760.422852	30139.837891
759.230469	29855.224609
758.037109	30153.046875
756.842773	30654.333984
755.649414	30449.158203
754.455078	30600.179688
753.260742	30423.572266
752.066406	30151.419922
750.871094	30225.123047
749.676758	30136.119141
748.481445	30472.064453
747.286133	30488.746094
746.089844	29987.173828
744.894531	29845.445313
743.698242	29910.988281
742.501953	29771.353516
741.304688	29735.341797
740.108398	29536.906250
738.911133	29502.978516
737.713867	29838.466797
736.516602	29469.656250
735.319336	29675.171875
734.121094	29838.007813
732.922852	29680.330078
731.724609	29368.597656
730.526367	29569.917969
729.327148	29525.888672
728.127930	29342.035156
726.928711	29241.326172
725.729492	29391.865234
724.530273	29329.667969
723.330078	29668.470703
722.129883	29411.863281
720.929688	29513.667969
719.728516	29437.320313
718.528320	29176.847656
717.327148	29582.125000
716.125977	29710.115234
714.923828	29749.064453
713.722656	29211.691406
712.520508	29792.544922
711.318359	29495.906250
710.116211	29773.337891
708.913086	29711.201172
707.710938	29531.914063
706.507813	29879.875000
705.304688	29864.197266
704.100586	30040.339844
702.897461	29966.091797
701.693359	30228.937500
700.489258	30077.996094
699.284180	30244.886719
698.080078	30411.644531
696.875000	30578.535156
695.669922	30745.425781
694.464844	30912.318359
693.258789	31079.345703
692.053711	31246.236328
690.847656	31413.263672
689.641602	31580.289063
688.434570	31747.451172
687.228516	31914.478516
686.021484	31577.085938
684.814453	31436.306641
683.607422	31599.496094
682.399414	31613.710938
681.191406	31553.476563
679.983398	31398.720703
678.775391	31312.400391
677.567383	31386.976563
676.358398	31387.136719
675.149414	31859.664063
673.940430	31186.484375
672.730469	31315.275391
671.521484	31564.552734
670.311523	31454.201172
669.101563	31265.570313
667.890625	30984.650391
666.680664	30974.835938
665.469727	30573.648438
664.258789	30822.775391
663.047852	30455.869141
661.835938	30283.675781
660.625000	30524.691406
659.413086	30597.179688
658.201172	30372.925781
656.988281	30319.132813
655.776367	30309.449219
654.563477	30213.607422
653.350586	30468.378906
652.136719	30386.562500
650.923828	30623.181641
649.709961	30733.572266
648.496094	30261.392578
647.282227	30481.886719
646.067383	30334.101563
644.852539	30310.412109
643.637695	30518.767578
642.422852	30297.054688
641.208008	30293.376953
639.992188	30817.486328
638.776367	30469.914063
637.560547	30580.111328
636.344727	30726.232422
635.127930	30654.550781
633.911133	30780.626953
632.694336	30730.923828
631.477539	30824.990234
630.259766	30613.603516
629.042969	30583.914063
627.825195	30442.488281
626.606445	30803.873047
625.388672	30409.128906
624.169922	30427.357422
622.951172	30505.396484
621.732422	30703.019531
620.513672	30404.259766
619.293945	30298.914063
618.074219	30219.509766
616.854492	30285.554688
615.634766	30688.169922
614.414063	30574.880859
613.193359	30242.625000
611.972656	30625.113281
610.751953	30742.759766
609.530273	30573.822266
608.309570	30293.537109
607.087891	30719.482422
605.866211	30490.980469
604.643555	30578.707031
603.420898	31032.187500
602.198242	31151.578125
600.975586	30746.296875
599.752930	31010.734375
598.529297	30991.005859
597.305664	31171.878906
596.082031	30997.236328
594.858398	31048.988281
593.633789	31170.195313
592.410156	31368.753906
591.185547	31366.830078
589.959961	31317.291016
588.735352	31303.472656
587.509766	31577.208984
586.284180	31646.619141
585.058594	32110.494141
583.832031	32146.082031
582.606445	32478.898438
581.379883	33033.488281
580.153320	32641.005859
578.925781	33135.937500
577.699219	33197.035156
576.471680	33188.812500
575.244141	33186.531250
574.015625	33809.617188
572.788086	33397.636719
571.559570	33543.683594
570.331055	33383.097656
569.101563	33236.414063
567.873047	32905.906250
566.643555	32984.718750
565.414063	32861.902344
564.184570	32867.578125
562.954102	32353.644531
561.724609	32155.953125
560.494141	32110.402344
559.263672	32282.070313
558.032227	31960.125000
556.800781	31490.261719
555.570313	31517.882813
554.337891	31746.746094
553.106445	31320.583984
551.874023	31285.101563
550.642578	31379.781250
549.409180	31245.720703
548.176758	31038.771484
546.944336	31090.082031
545.710938	31157.134766
544.477539	30780.886719
543.243164	31011.457031
542.009766	31046.970703
540.775391	30879.666016
539.541016	30846.287109
538.306641	31007.777344
537.071289	31312.859375
535.836914	31295.154297
534.601563	31198.769531
533.366211	31188.955078
532.129883	31019.867188
530.894531	31544.847656
529.658203	31304.988281
528.421875	31448.449219
527.184570	31210.660156
525.948242	31468.025391
524.710938	31530.837891
523.473633	31522.929688
522.235352	31650.498047
520.998047	31601.341797
519.759766	31326.494141
518.521484	31899.470703
517.283203	32107.306641
516.043945	32052.210938
514.804688	32057.931641
513.565430	32530.328125
512.326172	32581.044922
511.085938	32292.644531
509.846680	32231.677734
508.606445	32121.750000
507.366211	31958.968750
506.125000	32070.455078
504.883789	31655.126953
503.643555	31925.214844
502.401367	32069.916016
501.160156	31877.933594
499.917969	31958.013672
498.675781	32036.105469
497.433594	32159.154297
496.191406	31988.806641
494.948242	32092.263672
493.705078	31910.259766
492.461914	31849.503906
491.218750	32036.953125
489.975586	31814.029297
488.731445	32132.291016
487.487305	31788.339844
486.242188	32430.632813
484.998047	32032.085938
483.752930	32324.685547
482.507813	32447.382813
481.262695	32452.958984
480.016602	32452.677734
478.771484	32349.019531
477.525391	32545.718750
476.278320	32522.019531
475.032227	32476.884766
473.785156	32843.007813
472.538086	32688.701172
471.291016	32754.607422
470.043945	32742.570313
468.795898	32600.050781
467.547852	32868.437500
466.299805	32973.191406
465.051758	32762.576172
463.802734	32923.742188
462.553711	33158.781250
461.304688	33205.035156
460.055664	33356.296875
458.805664	33258.589844
457.555664	33285.347656
456.305664	33632.832031
455.055664	33490.425781
453.804688	33684.230469
452.553711	33961.500000
451.302734	33970.609375
450.051758	34047.687500
448.799805	33986.875000
447.548828	34582.242188
446.296875	34090.464844
445.043945	34802.015625
443.791992	34789.605469
442.539063	34843.152344
441.286133	35098.382813
440.033203	34426.625000
438.779297	34387.148438
437.526367	34305.039063
436.272461	34341.175781
435.017578	34123.468750
433.763672	33702.433594
432.508789	33605.015625
431.253906	33631.566406
429.999023	33524.515625
428.744141	33522.035156
427.488281	33180.855469
426.232422	33861.507813
424.976563	33425.589844
423.720703	33243.234375
422.463867	33501.882813
421.207031	33528.402344
419.950195	33392.519531
418.693359	33293.414063
417.435547	33275.503906
416.177734	33475.933594
414.919922	33311.179688
413.662109	33320.312500
412.403320	33091.925781
411.144531	32606.847656
409.885742	33509.828125
408.626953	33356.796875
407.367188	33709.367188
406.107422	33270.832031
404.847656	33314.671875
403.587891	33373.917969
402.327148	33481.339844
401.067383	33663.906250
