#Wave		#Intensity
2001.242188	30173.531250
2000.272461	29785.021484
1999.302734	29824.931641
1998.333008	29509.023438
1997.363281	30112.638672
1996.392578	29628.970703
1995.422852	29506.093750
1994.452148	29681.222656
1993.481445	29841.267578
1992.510742	29555.718750
1991.540039	29540.546875
1990.568359	29445.310547
1989.596680	29742.875000
1988.625977	29682.652344
1987.654297	29777.501953
1986.681641	29747.296875
1985.709961	29457.103516
1984.738281	29569.435547
1983.765625	29766.697266
1982.792969	29454.162109
1981.820313	29289.128906
1980.847656	29348.953125
1979.874023	29705.941406
1978.901367	29560.923828
1977.927734	29668.099609
1976.954102	29505.664063
1975.980469	29450.595703
1975.006836	29742.373047
1974.032227	29906.816406
1973.058594	29407.718750
1972.083984	29676.902344
1971.109375	29621.845703
1970.134766	29811.119141
1969.160156	29820.863281
1968.184570	29763.314453
1967.209961	29865.253906
1966.234375	29478.871094
1965.258789	29824.919922
1964.283203	29324.121094
1963.306641	29694.972656
1962.331055	29654.927734
1961.354492	29607.425781
1960.377930	29500.214844
1959.401367	29450.265625
1958.424805	29664.037109
1957.447266	30089.156250
1956.470703	29653.660156
1955.493164	29591.283203
1954.515625	29479.207031
1953.538086	29406.939453
1952.560547	29389.367188
1951.582031	29742.023438
1950.604492	29458.580078
1949.625977	29622.326172
1948.647461	29602.242188
1947.668945	29644.236328
1946.689453	29884.820313
1945.710938	29360.828125
1944.731445	29653.490234
1943.751953	29782.285156
1942.772461	29595.974609
1941.792969	29397.324219
1940.813477	29598.011719
1939.833008	29659.775391
1938.852539	29324.867188
1937.873047	29391.611328
1936.891602	29778.019531
1935.911133	29591.927734
1934.930664	29591.701172
1933.949219	29564.226563
1932.967773	29712.587891
1931.986328	29806.425781
1931.004883	29283.804688
1930.023438	29451.935547
1929.041016	29560.613281
1928.059570	29515.845703
1927.077148	29822.380859
1926.094727	29443.669922
1925.112305	29693.228516
1924.128906	29524.835938
1923.146484	29532.023438
1922.163086	29573.810547
1921.179688	29603.224609
1920.196289	29222.470703
1919.212891	29909.058594
1918.228516	29508.623047
1917.245117	29725.707031
1916.260742	29372.353516
1915.276367	29693.068359
1914.291992	29789.060547
1913.307617	29282.875000
1912.322266	29640.443359
1911.336914	29558.771484
1910.352539	29306.937500
1909.367188	29331.390625
1908.380859	29454.460938
1907.395508	29562.693359
1906.409180	29461.382813
1905.423828	29584.361328
1904.437500	29475.687500
1903.451172	29522.250000
1902.463867	29371.751953
1901.477539	29785.242188
1900.490234	29541.185547
1899.503906	29634.472656
1898.516602	29304.380859
1897.528320	29685.595703
1896.541016	29687.767578
1895.553711	29571.857422
1894.565430	29143.619141
1893.577148	29177.851563
1892.588867	29295.666016
1891.600586	29531.437500
1890.611328	29843.316406
1889.623047	29548.101563
1888.633789	29459.376953
1887.644531	29719.513672
1886.655273	29537.455078
1885.666016	29247.408203
1884.675781	29495.166016
1883.686523	29762.472656
1882.696289	29366.996094
1881.706055	29810.916016
1880.715820	29852.298828
1879.724609	29449.650391
1878.734375	29625.976563
1877.743164	29380.453125
1876.751953	29500.335938
1875.760742	29607.917969
1874.769531	29671.343750
1873.778320	29671.031250
1872.786133	29817.724609
1871.793945	29699.800781
1870.801758	29562.324219
1869.809570	29238.783203
1868.817383	29865.328125
1867.824219	29541.845703
1866.832031	29827.908203
1865.838867	29957.255859
1864.845703	29655.945313
1863.851563	29618.931641
1862.858398	29755.582031
1861.865234	29635.417969
1860.871094	29591.089844
1859.876953	29923.230469
1858.882813	29363.162109
1857.887695	29800.300781
1856.893555	29792.617188
1855.898438	29672.568359
1854.904297	29772.371094
1853.909180	29806.207031
1852.913086	29681.332031
1851.917969	29661.464844
1850.922852	29309.675781
1849.926758	29629.068359
1848.930664	29931.269531
1847.934570	29945.519531
1846.938477	29881.716797
1845.941406	29925.230469
1844.945313	30100.382813
1843.948242	29812.320313
1842.951172	29921.623047
1841.954102	29602.013672
1840.956055	29996.365234
1839.958984	30100.703125
1838.960938	29734.953125
1837.962891	29829.556641
1836.964844	30045.857422
1835.966797	30113.595703
1834.968750	30135.066406
1833.969727	30158.960938
1832.970703	30091.427734
1831.971680	30023.894531
1830.972656	29956.359375
1829.973633	29888.826172
1828.973633	29821.226563
1827.974609	30219.484375
1826.974609	29849.609375
1825.974609	30065.476563
1824.974609	30028.597656
1823.973633	30178.769531
1822.973633	30069.021484
1821.972656	30136.572266
1820.971680	30111.841797
1819.970703	30414.810547
1818.968750	30137.636719
1817.967773	30207.548828
1816.965820	30073.644531
1815.964844	30175.074219
1814.961914	30198.859375
1813.959961	30205.662109
1812.958008	30202.761719
1811.955078	30277.429688
1810.953125	30274.517578
1809.950195	30353.988281
1808.947266	30300.185547
1807.943359	30454.710938
1806.940430	30451.763672
1805.936523	30170.359375
1804.932617	30310.296875
1803.928711	30941.550781
1802.924805	30464.175781
1801.920898	30531.394531
1800.916016	30547.783203
1799.911133	30179.574219
1798.907227	30781.267578
1797.901367	30391.382813
1796.896484	30352.177734
1795.891602	30748.064453
1794.885742	30442.970703
1793.879883	30582.576172
1792.874023	30661.736328
1791.868164	30349.570313
1790.862305	30762.007813
1789.855469	30944.914063
1788.848633	30657.001953
1787.842773	30695.039063
1786.834961	30653.421875
1785.828125	30713.160156
1784.821289	30842.835938
1783.813477	30651.667969
1782.805664	30800.597656
1781.797852	30756.583984
1780.790039	30948.833984
1779.782227	30699.929688
1778.773438	30716.199219
1777.764648	30973.406250
1776.755859	30972.755859
1775.747070	31277.996094
1774.738281	30872.716797
1773.729492	30795.033203
1772.719727	31025.511719
1771.709961	30909.314453
1770.700195	30990.488281
1769.690430	31278.552734
1768.680664	30921.808594
1767.669922	30945.207031
1766.659180	31261.980469
1765.648438	31292.523438
1764.637695	31058.623047
1763.626953	31091.591797
1762.615234	31160.591797
1761.604492	31448.208984
1760.592773	31183.212891
1759.581055	31028.791016
1758.569336	31469.962891
1757.556641	31361.160156
1756.544922	31353.216797
1755.532227	31443.677734
1754.519531	31229.349609
1753.506836	31718.074219
1752.494141	31496.572266
1751.480469	31471.816406
1750.466797	31444.671875
1749.454102	31909.031250
1748.440430	31668.470703
1747.425781	31715.599609
1746.412109	32040.677734
1745.397461	31936.781250
1744.383789	31943.111328
1743.369141	31650.060547
1742.353516	32080.277344
1741.338867	32357.113281
1740.324219	32044.992188
1739.308594	32336.093750
1738.292969	32138.941406
1737.277344	32532.798828
1736.261719	32342.855469
1735.245117	32353.873047
1734.229492	32333.800781
1733.212891	32724.949219
1732.196289	32809.992188
1731.179688	32689.468750
1730.162109	32975.203125
1729.145508	33141.378906
1728.127930	32724.664063
1727.110352	33296.824219
1726.092773	33541.652344
1725.075195	33564.363281
1724.056641	33119.218750
1723.039063	33786.363281
1722.020508	33787.539063
1721.001953	34036.824219
1719.983398	33859.058594
1718.963867	33886.449219
1717.945313	34271.496094
1716.925781	34448.996094
1715.906250	34621.664063
1714.886719	34555.953125
1713.867188	34833.378906
1712.846680	35120.234375
1711.826172	34709.089844
1710.806641	34898.222656
1709.786133	34696.792969
1708.764648	34909.664063
1707.744141	34958.222656
1706.722656	34944.886719
1705.701172	35095.734375
1704.679688	35032.421875
1703.658203	34812.144531
1702.636719	34720.363281
1701.614258	34676.164063
1700.592773	35095.550781
1699.570313	34801.730469
1698.547852	34964.285156
1697.524414	35160.046875
1696.501953	35331.984375
1695.478516	35408.851563
1694.456055	35250.589844
1693.432617	35353.554688
1692.408203	35190.609375
1691.384766	35682.800781
1690.360352	35206.605469
1689.336914	35871.816406
1688.312500	35478.785156
1687.288086	35742.875000
1686.262695	35473.312500
1685.238281	35429.085938
1684.212891	36086.546875
1683.187500	35843.136719
1682.162109	35772.792969
1681.136719	36275.839844
1680.110352	36124.902344
1679.084961	36431.125000
1678.058594	36192.593750
1677.032227	36813.582031
1676.005859	36837.820313
1674.978516	36166.226563
1673.952148	36734.824219
1672.924805	36718.839844
1671.897461	36922.851563
1670.870117	36651.410156
1669.842773	36701.652344
1668.814453	36936.289063
1667.787109	37208.660156
1666.758789	36897.175781
1665.730469	37105.652344
1664.701172	37077.800781
1663.672852	37038.148438
1662.643555	36979.613281
1661.615234	37190.281250
1660.585938	37365.464844
1659.555664	37413.117188
1658.526367	37321.507813
1657.497070	37227.574219
1656.466797	37459.238281
1655.436523	37306.339844
1654.406250	37283.203125
1653.375977	37616.121094
1652.344727	37604.722656
1651.313477	37763.035156
1650.282227	37690.335938
1649.250977	37629.445313
1648.219727	37493.187500
1647.188477	37665.535156
1646.156250	37741.261719
1645.124023	37838.156250
1644.091797	37607.785156
1643.059570	37756.445313
1642.027344	38203.925781
1640.994141	37644.199219
1639.961914	38133.878906
1638.928711	37835.441406
1637.895508	38150.890625
1636.861328	38024.195313
1635.828125	38240.757813
1634.793945	38565.363281
1633.759766	38248.304688
1632.725586	38314.339844
1631.691406	38608.214844
1630.656250	38911.378906
1629.622070	38451.230469
1628.586914	38604.046875
1627.551758	38407.035156
1626.516602	39181.769531
1625.480469	39346.101563
1624.445313	39498.644531
1623.409180	39163.203125
1622.373047	39768.378906
1621.336914	40052.078125
1620.300781	40466.964844
1619.263672	41010.636719
1618.227539	41230.675781
1617.190430	41373.308594
1616.153320	41820.460938
1615.115234	42773.425781
1614.078125	43103.066406
1613.040039	43247.597656
1612.001953	43853.292969
1610.963867	43934.433594
1609.925781	44141.925781
1608.887695	43436.753906
1607.848633	43225.476563
1606.809570	42944.101563
1605.770508	42398.546875
1604.731445	41949.054688
1603.692383	41410.882813
1602.652344	41183.785156
1601.613281	40440.277344
1600.573242	40271.843750
1599.533203	39526.425781
1598.492188	39556.753906
1597.452148	38961.187500
1596.411133	38765.113281
1595.370117	38615.796875
1594.329102	38489.875000
1593.288086	38009.269531
1592.247070	37902.160156
1591.205078	37694.777344
1590.163086	37972.617188
1589.121094	37667.343750
1588.079102	37320.210938
1587.036133	37348.523438
1585.994141	37066.828125
1584.951172	37440.074219
1583.908203	37202.730469
1582.865234	37454.675781
1581.822266	37410.730469
1580.778320	37888.433594
1579.734375	37660.484375
1578.691406	37958.722656
1577.646484	37460.851563
1576.602539	37812.539063
1575.558594	38233.894531
1574.513672	38424.804688
1573.468750	38294.679688
1572.423828	38476.207031
1571.378906	38673.937500
1570.333008	38497.343750
1569.288086	37874.570313
1568.242188	37967.730469
1567.196289	38172.378906
1566.150391	38130.722656
1565.103516	37615.285156
1564.057617	37209.171875
1563.010742	37334.863281
1561.963867	37834.234375
1560.916992	37110.335938
1559.869141	36985.371094
1558.822266	36542.601563
1557.774414	36517.519531
1556.726563	36601.445313
1555.678711	36423.320313
1554.630859	36486.367188
1553.582031	36025.531250
1552.534180	35944.937500
1551.485352	36005.710938
1550.436523	35851.011719
1549.386719	36062.335938
1548.337891	35516.296875
1547.288086	35560.890625
1546.238281	35383.222656
1545.188477	35684.746094
1544.138672	35321.980469
1543.088867	35375.828125
1542.038086	34971.601563
1540.987305	35083.312500
1539.936523	35569.617188
1538.885742	35209.500000
1537.834961	35367.339844
1536.783203	35196.914063
1535.731445	35246.082031
1534.679688	35514.730469
1533.627930	35242.722656
1532.576172	35381.929688
1531.523438	35528.015625
1530.471680	35281.539063
1529.418945	35115.949219
1528.366211	35372.785156
1527.312500	35477.222656
1526.259766	35113.261719
1525.206055	35102.367188
1524.152344	35013.058594
1523.098633	35408.031250
1522.044922	35171.140625
1520.990234	35185.597656
1519.936523	35017.968750
1518.881836	35073.921875
1517.827148	35185.144531
1516.772461	35001.476563
1515.716797	35011.335938
1514.662109	34539.933594
1513.606445	35150.753906
1512.550781	34921.183594
1511.495117	34958.660156
1510.438477	34816.640625
1509.382813	34601.054688
1508.326172	35183.707031
1507.269531	34818.644531
1506.212891	34359.433594
1505.155273	34553.289063
1504.098633	34503.429688
1503.041016	34481.164063
1501.983398	34500.265625
1500.925781	34698.546875
1499.867188	34869.191406
1498.809570	34828.500000
1497.750977	34723.531250
1496.692383	34894.074219
1495.633789	34711.089844
1494.575195	34450.144531
1493.515625	34845.496094
1492.457031	34669.496094
1491.397461	35138.058594
1490.337891	34725.867188
1489.277344	34710.472656
1488.217773	34598.804688
1487.157227	34592.601563
1486.096680	34742.226563
1485.036133	34676.429688
1483.975586	34594.621094
1482.915039	34327.320313
1481.853516	34536.417969
1480.791992	34566.859375
1479.730469	34631.625000
1478.668945	34520.132813
1477.606445	34557.421875
1476.544922	34487.164063
1475.482422	34275.109375
1474.419922	34964.222656
1473.357422	34749.867188
1472.293945	34969.968750
1471.231445	34792.261719
1470.167969	34742.597656
1469.104492	34834.621094
1468.041016	34812.378906
1466.976563	35048.253906
1465.913086	35069.371094
1464.848633	34875.843750
1463.784180	35422.054688
1462.719727	35048.210938
1461.655273	35094.410156
1460.589844	35542.171875
1459.524414	35538.074219
1458.458984	35739.253906
1457.393555	35600.574219
1456.328125	35601.023438
1455.261719	35549.039063
1454.196289	35444.648438
1453.129883	36035.339844
1452.063477	35247.367188
1450.996094	35238.757813
1449.929688	35225.597656
1448.862305	35638.277344
1447.794922	35777.593750
1446.727539	35677.835938
1445.660156	35582.664063
1444.591797	35669.570313
1443.524414	36284.281250
1442.456055	36200.421875
1441.387695	36321.281250
1440.318359	36560.339844
1439.250000	36296.863281
1438.180664	36631.308594
1437.111328	36708.816406
1436.041992	36813.562500
1434.972656	36895.550781
1433.903320	37011.582031
1432.833008	37261.558594
1431.762695	37198.093750
1430.692383	37273.136719
1429.622070	37463.914063
1428.550781	37532.070313
1427.480469	37781.726563
1426.409180	37781.738281
1425.337891	38108.371094
1424.266602	38357.781250
1423.194336	38425.710938
1422.122070	38962.878906
1421.050781	38479.886719
1419.978516	39173.214844
1418.905273	39220.550781
1417.833008	39086.632813
1416.759766	38982.210938
1415.687500	38560.785156
1414.614258	38687.429688
1413.540039	38150.753906
1412.466797	38243.476563
1411.392578	38895.105469
1410.319336	38587.582031
1409.245117	38279.777344
1408.169922	37971.695313
1407.095703	37917.371094
1406.020508	38075.593750
1404.946289	38059.695313
1403.871094	38595.261719
1402.794922	38337.492188
1401.719727	38364.480469
1400.643555	38951.652344
1399.568359	38533.601563
1398.492188	38210.535156
1397.415039	38156.246094
1396.338867	38291.578125
1395.261719	38345.617188
1394.185547	38575.636719
1393.108398	38158.093750
1392.031250	38033.929688
1390.953125	38712.656250
1389.875977	38259.234375
1388.797852	38394.371094
1387.719727	38657.929688
1386.641602	38531.523438
1385.562500	38689.062500
1384.484375	38483.847656
1383.405273	39046.757813
1382.326172	38958.652344
1381.247070	39100.234375
1380.166992	38773.523438
1379.087891	38584.226563
1378.007813	38845.062500
1376.927734	38554.570313
1375.847656	38792.816406
1374.767578	38279.773438
1373.686523	38137.949219
1372.605469	38011.914063
1371.524414	37706.089844
1370.443359	37470.046875
1369.362305	37238.582031
1368.280273	37438.562500
1367.199219	37148.777344
1366.117188	37076.949219
1365.034180	37368.906250
1363.952148	37254.402344
1362.870117	37588.871094
1361.787109	37469.875000
1360.704102	37837.835938
1359.621094	37777.167969
1358.537109	37806.238281
1357.454102	37344.164063
1356.370117	37294.824219
1355.286133	37258.949219
1354.202148	37084.121094
1353.118164	36877.976563
1352.033203	36403.035156
1350.948242	36750.414063
1349.863281	36100.960938
1348.778320	36781.933594
1347.693359	36228.984375
1346.607422	36329.894531
1345.521484	36092.800781
1344.435547	36274.257813
1343.349609	35974.613281
1342.263672	36191.812500
1341.176758	36370.910156
1340.090820	36053.515625
1339.003906	36596.996094
1337.916016	36382.500000
1336.829102	36704.464844
1335.741211	36275.503906
1334.654297	36340.445313
1333.566406	36590.757813
1332.478516	36921.378906
1331.389648	36144.347656
1330.301758	36532.972656
1329.212891	36988.417969
1328.124023	37224.992188
1327.035156	36870.179688
1325.945313	37189.226563
1324.856445	37581.765625
1323.766602	37635.183594
1322.676758	38054.253906
1321.586914	37668.394531
1320.496094	37739.593750
1319.406250	38497.144531
1318.315430	38799.886719
1317.224609	38926.531250
1316.133789	39378.312500
1315.041992	39233.125000
1313.951172	39978.578125
1312.859375	40144.980469
1311.767578	40306.867188
1310.675781	40421.968750
1309.583008	39945.207031
1308.491211	39904.617188
1307.398438	39548.218750
1306.305664	39392.078125
1305.212891	39100.375000
1304.119141	38893.242188
1303.026367	39379.585938
1301.932617	39496.894531
1300.838867	39845.210938
1299.744141	40037.910156
1298.650391	40370.453125
1297.555664	41100.332031
1296.461914	41599.058594
1295.366211	41556.015625
1294.271484	41459.722656
1293.176758	41691.847656
1292.081055	41336.007813
1290.985352	41559.195313
1289.889648	40708.972656
1288.793945	40355.710938
1287.697266	40476.980469
1286.601563	39831.320313
1285.504883	39440.734375
1284.408203	39205.378906
1283.311523	38930.238281
1282.213867	38683.984375
1281.116211	38431.175781
1280.018555	38016.835938
1278.920898	38036.507813
1277.823242	38111.503906
1276.725586	37690.804688
1275.626953	37522.468750
1274.528320	37612.996094
1273.429688	37258.957031
1272.330078	37194.710938
1271.231445	36838.660156
1270.131836	36767.882813
1269.032227	37147.968750
1267.932617	36637.441406
1266.833008	36792.074219
1265.732422	36511.511719
1264.632813	36515.929688
1263.532227	36076.542969
1262.430664	36164.925781
1261.330078	36312.871094
1260.228516	36756.472656
1259.127930	36460.765625
1258.026367	35946.773438
1256.924805	36013.039063
1255.822266	35887.421875
1254.720703	35536.964844
1253.618164	35869.996094
1252.515625	35861.281250
1251.413086	35956.140625
1250.309570	35766.750000
1249.207031	35685.363281
1248.103516	35643.648438
1247.000000	35271.648438
1245.895508	35304.875000
1244.791992	35056.335938
1243.687500	35542.949219
1242.583008	35450.683594
1241.478516	35222.046875
1240.374023	35556.589844
1239.269531	35528.140625
1238.164063	35515.093750
1237.058594	35284.406250
1235.953125	35077.980469
1234.847656	35533.109375
1233.741211	35462.937500
1232.635742	35570.730469
1231.529297	35753.160156
1230.422852	35349.187500
1229.315430	35590.867188
1228.208984	35680.992188
1227.101563	35659.144531
1225.994141	35984.023438
1224.886719	35995.035156
1223.779297	36012.625000
1222.670898	36196.890625
1221.562500	35666.230469
1220.454102	36297.742188
1219.345703	36078.519531
1218.237305	36148.667969
1217.127930	36001.855469
1216.018555	36150.863281
1214.909180	35940.578125
1213.799805	35885.863281
1212.690430	36253.765625
1211.580078	35953.816406
1210.469727	35754.660156
1209.359375	36153.019531
1208.249023	36317.113281
1207.138672	36505.207031
1206.027344	36365.144531
1204.916016	36336.664063
1203.804688	36196.679688
1202.693359	36561.722656
1201.581055	36441.417969
1200.469727	36277.449219
1199.357422	36347.320313
1198.245117	36578.812500
1197.131836	36628.941406
1196.019531	36805.703125
1194.906250	37314.257813
1193.792969	37128.468750
1192.679688	36763.785156
1191.566406	36890.199219
1190.452148	36837.671875
1189.337891	36630.285156
1188.223633	36479.679688
1187.109375	36309.500000
1185.995117	36056.539063
1184.879883	35679.425781
1183.764648	35978.031250
1182.649414	35851.636719
1181.534180	36034.640625
1180.418945	35927.882813
1179.302734	35529.351563
1178.186523	35690.531250
1177.070313	35921.316406
1175.954102	35745.003906
1174.837891	35525.230469
1173.720703	35355.578125
1172.603516	35433.972656
1171.486328	35416.644531
1170.369141	35290.589844
1169.250977	35388.515625
1168.132813	35264.683594
1167.015625	35273.472656
1165.896484	35297.464844
1164.778320	35178.054688
1163.660156	35395.375000
1162.541016	35662.566406
1161.421875	35369.445313
1160.302734	35213.199219
1159.182617	34918.089844
1158.063477	35413.035156
1156.943359	35393.558594
1155.823242	35415.304688
1154.703125	35666.957031
1153.582031	35272.273438
1152.461914	35372.082031
1151.340820	35098.988281
1150.219727	35708.132813
1149.097656	35879.312500
1147.976563	35632.273438
1146.854492	35526.125000
1145.732422	35855.347656
1144.610352	35868.292969
1143.488281	35738.339844
1142.365234	35759.957031
1141.243164	36002.320313
1140.120117	35705.792969
1138.996094	36118.988281
1137.873047	36162.144531
1136.750000	36086.335938
1135.625977	35984.609375
1134.501953	36088.296875
1133.377930	36189.781250
1132.252930	36040.539063
1131.127930	36165.761719
1130.003906	36040.339844
1128.878906	35997.039063
1127.752930	35793.949219
1126.627930	35800.367188
1125.501953	35951.414063
1124.375977	35877.941406
1123.250000	35653.433594
1122.124023	36071.957031
1120.997070	35759.050781
1119.871094	35735.261719
1118.744141	35782.644531
1117.617188	35745.921875
1116.489258	35217.738281
1115.362305	35513.027344
1114.234375	35549.632813
1113.106445	35689.632813
1111.978516	35614.183594
1110.849609	35446.152344
1109.721680	35934.910156
1108.592773	35517.152344
1107.463867	35682.855469
1106.333984	35598.855469
1105.205078	35536.406250
1104.075195	35656.828125
1102.945313	35641.707031
1101.815430	36213.660156
1100.685547	35903.878906
1099.554688	35880.113281
1098.424805	35787.578125
1097.293945	35776.734375
1096.162109	35802.417969
1095.031250	35793.718750
1093.899414	36004.085938
1092.768555	35780.621094
1091.636719	35774.074219
1090.503906	35662.347656
1089.372070	35745.960938
1088.239258	35518.406250
1087.106445	35906.648438
1085.973633	35683.437500
1084.840820	35492.472656
1083.708008	35597.472656
1082.574219	35841.777344
1081.440430	35563.003906
1080.306641	35747.218750
1079.171875	35727.820313
1078.038086	35489.917969
1076.903320	35528.398438
1075.768555	35575.425781
1074.633789	35434.027344
1073.498047	35451.082031
1072.363281	35521.636719
1071.227539	35851.089844
1070.091797	35731.128906
1068.956055	35893.570313
1067.819336	36276.234375
1066.682617	36087.832031
1065.546875	36074.804688
1064.409180	36010.484375
1063.272461	36136.382813
1062.135742	36063.523438
1060.998047	36157.320313
1059.860352	36041.761719
1058.722656	36107.761719
1057.583984	36054.171875
1056.446289	35906.667969
1055.307617	36064.429688
1054.168945	36290.421875
1053.029297	36125.882813
1051.890625	35628.625000
1050.750977	35965.472656
1049.611328	35839.460938
1048.471680	36135.632813
1047.332031	35892.394531
1046.191406	36109.593750
1045.051758	35798.257813
1043.911133	36015.390625
1042.769531	35810.683594
1041.628906	35993.656250
1040.487305	36067.964844
1039.346680	35861.230469
1038.205078	35867.421875
1037.062500	35499.058594
1035.920898	35567.015625
1034.778320	35841.296875
1033.635742	35745.386719
1032.493164	35139.136719
1031.350586	35204.976563
1030.207031	35585.402344
1029.063477	35638.382813
1027.919922	35181.339844
1026.776367	35720.902344
1025.632813	35765.324219
1024.488281	35607.964844
1023.343750	35265.925781
1022.199219	35151.171875
1021.054688	35730.570313
1019.910156	35656.093750
1018.764648	35509.500000
1017.619141	35379.933594
1016.473633	35341.617188
1015.327148	35413.589844
1014.181641	35116.601563
1013.035156	35612.570313
1011.888672	35292.335938
1010.742188	35141.746094
1009.594727	35351.402344
1008.448242	35448.703125
1007.300781	35484.546875
1006.153320	35444.144531
1005.005859	35844.132813
1003.857422	35680.898438
1002.708984	35998.148438
1001.560547	36048.664063
1000.412109	36147.820313
999.263672	36695.367188
998.114258	36439.066406
996.965820	36768.566406
995.816406	36338.988281
994.666016	36237.187500
993.516602	36545.406250
992.366211	36671.796875
991.215820	36075.656250
990.065430	36214.757813
988.915039	36362.250000
987.763672	36463.242188
986.613281	36361.539063
985.461914	36555.351563
984.309570	36107.593750
983.158203	36354.125000
982.005859	36254.621094
980.854492	36477.832031
979.701172	36399.425781
978.548828	36489.703125
977.396484	36421.859375
976.243164	36575.320313
975.089844	36503.269531
973.936523	36247.957031
972.783203	36216.003906
971.628906	36114.570313
970.474609	35829.988281
969.320313	36364.414063
968.166016	36366.136719
967.010742	36161.625000
965.856445	36096.050781
964.701172	36379.699219
963.545898	36394.031250
962.390625	36341.062500
961.234375	36548.816406
960.078125	35833.691406
958.921875	36400.843750
957.765625	36230.234375
956.609375	36240.363281
955.452148	36090.851563
954.294922	36357.214844
953.137695	36289.621094
951.980469	36163.269531
950.822266	36160.800781
949.665039	35887.617188
948.506836	36191.531250
947.347656	36268.769531
946.189453	36308.222656
945.030273	36316.207031
943.872070	36632.394531
942.712891	36355.222656
941.552734	36679.660156
940.393555	36121.785156
939.233398	36718.507813
938.073242	36506.453125
936.913086	36763.601563
935.752930	36911.773438
934.591797	36840.062500
933.430664	36860.476563
932.269531	37060.855469
931.108398	36984.968750
929.947266	36917.476563
928.785156	37065.441406
927.623047	36949.855469
926.460938	36723.500000
925.298828	36978.027344
924.135742	37096.605469
922.972656	36995.718750
921.810547	37350.335938
920.646484	37660.957031
919.483398	37635.203125
918.319336	37916.417969
917.155273	37969.960938
915.991211	38067.316406
914.827148	37757.671875
913.662109	38284.867188
912.498047	37862.640625
911.333008	38147.660156
910.167969	38465.941406
909.001953	38339.988281
907.836914	38564.300781
906.670898	38590.523438
905.504883	38783.449219
904.337891	38742.945313
903.171875	38812.859375
902.004883	38149.621094
900.837891	38552.796875
899.670898	38083.472656
898.503906	38580.175781
897.335938	38287.917969
896.167969	38245.464844
895.000000	38513.011719
893.832031	37815.316406
892.663086	37991.332031
891.495117	38111.144531
890.326172	38555.214844
889.156250	37855.941406
887.987305	38299.890625
886.817383	38294.886719
885.648438	38593.175781
884.478516	38903.812500
883.307617	39006.671875
882.137695	39387.707031
880.966797	39631.593750
879.795898	39555.769531
878.625000	39336.796875
877.454102	39478.890625
876.282227	39533.816406
875.110352	39082.683594
873.938477	39494.300781
872.766602	39447.597656
871.593750	39270.332031
870.421875	39103.488281
869.249023	38998.867188
868.076172	38919.140625
866.902344	39007.207031
865.729492	39028.976563
864.555664	39655.308594
863.381836	39782.515625
862.207031	39949.003906
861.033203	40388.570313
859.858398	40014.890625
858.683594	40172.960938
857.508789	40475.742188
856.333984	39852.050781
855.158203	40030.730469
853.982422	39955.101563
852.806641	40082.027344
851.630859	39799.792969
850.454102	39265.625000
849.278320	39599.148438
848.101563	40351.761719
846.924805	39718.675781
845.747070	39696.863281
844.570313	39862.875000
843.392578	40612.808594
842.214844	40464.984375
841.036133	40892.726563
839.858398	40771.714844
838.679688	41217.796875
837.500977	41533.832031
836.322266	41989.910156
835.143555	41660.628906
833.963867	42089.726563
832.784180	41812.042969
831.604492	41913.453125
830.424805	41291.988281
829.244141	41420.222656
828.063477	40737.320313
826.882813	40563.046875
825.702148	39977.273438
824.521484	40011.000000
823.339844	39801.984375
822.158203	39613.609375
820.976563	39844.789063
819.794922	39755.156250
818.612305	39994.437500
817.430664	39450.621094
816.248047	39342.613281
815.064453	39152.464844
813.881836	39660.750000
812.698242	39115.335938
811.514648	39210.734375
810.331055	39184.976563
809.147461	39226.960938
807.962891	39511.070313
806.778320	39620.679688
805.593750	39674.859375
804.409180	39804.902344
803.224609	39649.867188
802.039063	39511.289063
800.853516	39653.582031
799.667969	39070.324219
798.482422	39085.601563
797.295898	38834.546875
796.109375	38976.855469
794.922852	38478.113281
793.736328	38516.007813
792.548828	38744.269531
791.362305	38507.828125
790.174805	38365.605469
788.986328	39021.378906
787.798828	38449.531250
786.610352	38859.609375
785.421875	38514.984375
784.233398	38374.929688
783.044922	38427.070313
781.856445	38389.265625
780.666992	38396.429688
779.477539	38526.164063
778.288086	37955.246094
777.097656	38236.136719
775.907227	38224.941406
774.717773	38213.753906
773.526367	38202.550781
772.335938	38350.531250
771.144531	37978.179688
769.954102	38211.824219
768.762695	38388.269531
767.570313	38491.238281
766.378906	38579.898438
765.186523	38629.789063
763.994141	38561.457031
762.801758	38798.796875
761.609375	39249.957031
760.416016	38977.851563
759.222656	39312.726563
758.029297	39549.742188
756.835938	38994.757813
755.641602	39638.816406
754.447266	39547.996094
753.252930	39483.660156
752.058594	39704.140625
750.864258	39525.898438
749.668945	39673.078125
748.473633	39271.265625
747.278320	39180.605469
746.083008	38711.964844
744.886719	38932.328125
743.690430	38677.222656
742.494141	38743.136719
741.297852	38573.449219
740.100586	38351.031250
738.904297	38780.347656
737.707031	38535.640625
736.509766	38353.937500
735.311523	38103.312500
734.113281	38112.437500
732.916016	38204.710938
731.716797	38234.085938
730.518555	38139.777344
729.320313	38189.421875
728.121094	38378.882813
726.921875	38321.066406
725.721680	38484.093750
724.522461	38073.835938
723.322266	37933.070313
722.122070	38227.683594
720.921875	38022.160156
719.721680	38170.914063
718.520508	38279.140625
717.319336	37723.691406
716.118164	38651.222656
714.916992	38265.800781
713.714844	38616.574219
712.513672	38209.058594
711.311523	38640.562500
710.108398	38784.921875
708.906250	38834.257813
707.703125	38614.882813
706.500000	38767.238281
705.296875	38654.988281
704.093750	39338.304688
702.889648	38888.851563
701.685547	38928.011719
700.481445	38779.480469
699.277344	38996.191406
698.072266	39184.578125
696.868164	39189.355469
695.663086	39430.058594
694.457031	39269.468750
693.251953	39663.257813
692.045898	39770.718750
690.839844	39317.980469
689.633789	39667.214844
688.427734	39899.492188
687.220703	39835.644531
686.013672	39427.519531
684.806641	39615.417969
683.599609	39644.238281
682.391602	39395.347656
681.184570	39080.152344
679.976563	38650.414063
678.767578	38717.601563
677.559570	39042.144531
676.350586	38735.285156
675.141602	38374.269531
673.932617	38873.535156
672.723633	38775.843750
671.513672	38869.035156
670.303711	38819.582031
669.093750	38810.312500
667.883789	38644.429688
666.672852	38432.441406
665.462891	38904.937500
664.251953	38570.566406
663.040039	38404.847656
661.829102	38853.007813
660.617188	38601.054688
659.405273	38736.199219
658.193359	38947.468750
656.981445	38673.585938
655.768555	38660.335938
654.555664	38873.500000
653.342773	38485.593750
652.129883	38939.058594
650.916016	39158.054688
649.702148	39407.000000
648.488281	39115.363281
647.274414	39244.132813
646.059570	39665.007813
644.845703	39877.652344
643.630859	40178.230469
642.416016	39742.714844
641.200195	40583.082031
639.984375	40297.589844
638.769531	40050.179688
637.552734	40534.289063
636.336914	40081.125000
635.120117	39861.855469
633.904297	39856.382813
632.687500	39912.812500
631.469727	39228.492188
630.252930	39552.507813
629.035156	39153.910156
627.817383	38937.046875
626.599609	39254.941406
625.380859	39335.347656
624.163086	39032.808594
622.944336	39061.378906
621.724609	39227.492188
620.505859	39092.570313
619.286133	39412.058594
618.066406	39795.183594
616.846680	39333.523438
615.626953	39330.128906
614.406250	39197.292969
613.186523	39313.378906
611.965820	39373.679688
610.744141	39483.710938
609.523438	39659.367188
608.301758	39749.406250
607.080078	39843.386719
605.858398	39585.328125
604.635742	39808.542969
603.414063	39880.589844
602.191406	39974.468750
600.968750	39917.281250
599.745117	39997.207031
598.522461	40055.246094
597.298828	40117.238281
596.075195	40149.417969
594.850586	40127.976563
593.626953	40148.230469
592.402344	40418.531250
591.177734	40482.371094
589.953125	40810.035156
588.727539	40717.078125
587.501953	40905.757813
586.276367	41005.136719
585.050781	41261.085938
583.825195	41455.496094
582.598633	41580.472656
581.372070	42095.707031
580.145508	42224.472656
578.917969	42505.691406
577.691406	42517.500000
576.463867	42507.527344
575.236328	43057.722656
574.007813	43051.605469
572.780273	42711.093750
571.551758	43108.609375
570.323242	42677.230469
569.094727	42758.191406
567.865234	42566.269531
566.635742	42170.812500
565.406250	42204.382813
564.176758	41781.472656
562.947266	41712.367188
561.716797	41366.742188
560.486328	41335.257813
559.255859	41329.453125
558.024414	40804.437500
556.793945	40553.980469
555.562500	40595.679688
554.331055	40515.035156
553.098633	40408.773438
551.867188	40448.500000
550.634766	39784.226563
549.402344	40484.531250
548.168945	39972.277344
546.936523	39856.355469
545.703125	40244.914063
544.469727	40073.816406
543.236328	40030.812500
542.001953	39812.550781
540.767578	40025.578125
539.533203	40342.859375
538.298828	39982.941406
537.064453	40036.414063
535.829102	40188.234375
534.593750	40250.078125
533.358398	40311.921875
532.122070	40373.816406
530.886719	40435.660156
529.650391	40497.554688
528.414063	40559.449219
527.176758	40683.453125
525.940430	40689.535156
524.703125	40670.078125
523.465820	40758.636719
522.227539	40397.535156
520.990234	40374.210938
519.751953	40566.792969
518.513672	40545.406250
517.275391	40961.539063
516.036133	40891.042969
514.796875	41408.929688
513.557617	41126.601563
512.318359	41065.910156
511.079102	41013.082031
509.838867	41009.261719
508.598633	40989.765625
507.358398	40811.601563
506.117188	40874.406250
504.876953	40657.160156
503.635742	40904.011719
502.394531	40712.285156
501.152344	40487.355469
499.911133	40634.296875
498.668945	40777.269531
497.425781	40706.976563
496.183594	40971.128906
494.941406	40640.765625
493.698242	40820.765625
492.455078	40772.011719
491.210938	41026.171875
489.967773	40707.765625
488.723633	41543.964844
487.479492	41143.546875
486.235352	41075.242188
484.990234	41366.187500
483.745117	41303.714844
482.500000	41372.023438
481.254883	41448.109375
480.008789	41448.078125
478.763672	41689.910156
477.517578	41832.191406
476.271484	41894.472656
475.024414	42071.746094
473.777344	42227.511719
472.530273	42163.015625
471.283203	41989.441406
470.036133	42145.125000
468.788086	42047.570313
467.540039	42288.855469
466.291992	41969.371094
465.043945	42292.328125
463.794922	42307.679688
462.545898	42735.515625
461.296875	42659.343750
460.047852	43083.058594
458.797852	43037.960938
457.547852	43023.984375
456.297852	43470.707031
455.047852	43513.011719
453.796875	43256.058594
452.545898	43655.851563
451.294922	43890.386719
450.043945	43656.804688
448.792969	44087.355469
447.541016	44496.386719
446.289063	44680.117188
445.036133	45653.578125
443.784180	45363.609375
442.531250	45444.250000
441.278320	45410.429688
440.025391	45202.105469
438.771484	44658.457031
437.518555	44483.300781
436.264648	44124.097656
435.010742	43629.394531
433.755859	43063.203125
432.500977	42603.750000
431.246094	42797.074219
429.991211	42802.519531
428.736328	42488.554688
427.480469	42331.472656
426.224609	42267.335938
424.968750	42261.257813
423.712891	42282.261719
422.456055	42144.671875
421.199219	42372.582031
419.942383	42051.367188
418.685547	42252.140625
417.427734	42128.183594
416.169922	42153.039063
414.912109	41845.625000
413.654297	42015.375000
412.395508	42403.265625
411.136719	42094.042969
409.877930	42284.875000
408.619141	42178.429688
407.359375	42315.144531
406.099609	42231.878906
404.839844	42212.292969
403.580078	42441.484375
402.319336	42317.742188
401.059570	42155.496094
