Data from AgNPs_APTES_FTO_UA_100uM_CRN_0uM_R6G_10uM_Scan_RamanShift__80__12-13-01-337.txt Node

Date: Wed Jun 29 12:13:01 BST 2022
User: TCL
Spectrometer: QEP01345
Trigger mode: 4
Integration Time (sec): 7.000000E0
Scans to average: 10
Electric dark correction enabled: true
Nonlinearity correction enabled: false
Boxcar width: 0
XAxis mode: Raman Shifts
Number of Pixels in Spectrum: 1044
>>>>>Begin Spectral Data<<<<<
46.04893	-0.0375
50.45542	0.0625
54.85868	0.3625
59.25871	0.8625
63.6555	34.1625
68.04907	35.2625
72.43941	36.5625
76.82654	37.1625
81.21044	43.6625
85.59113	44.1625
89.96862	46.9625
94.34289	48.9625
98.71396	48.2625
103.08183	52.2625
107.4465	54.4625
111.80798	52.9625
116.16626	49.5625
120.52136	52.4625
124.87327	50.0625
129.222	49.7625
133.56755	46.9625
137.90993	47.2625
142.24913	48.0625
146.58517	43.3625
150.91804	48.8625
155.24774	50.3625
159.57429	52.8625
163.89768	52.9625
168.21792	61.6625
172.53501	67.4625
176.84895	79.1625
181.15975	105.9625
185.46741	127.9625
189.77193	168.6625
194.07331	216.7625
198.37157	278.1625
202.6667	332.2625
206.9587	385.3625
211.24758	440.5625
215.53334	496.1625
219.81599	549.8625
224.09553	610.8625
228.37195	675.9625
232.64527	751.8625
236.91549	827.2625
241.18261	905.5625
245.44663	997.6625
249.70755	1071.6625
253.96539	1162.6625
258.22014	1216.5625
262.4718	1260.5625
266.72039	1292.2625
270.96589	1290.4625
275.20832	1288.9625
279.44768	1268.0625
283.68397	1246.3625
287.91719	1223.5625
292.14735	1200.1625
296.37445	1173.6625
300.59849	1160.5625
304.81948	1148.6625
309.03742	1143.4625
313.25231	1128.0625
317.46415	1124.8625
321.67296	1135.3625
325.87872	1130.2625
330.08145	1137.0625
334.28114	1154.6625
338.47781	1161.3625
342.67145	1171.5625
346.86207	1188.2625
351.04966	1204.6625
355.23424	1223.3625
359.4158	1227.4625
363.59435	1243.9625
367.76989	1260.0625
371.94243	1280.7625
376.11196	1279.9625
380.27849	1310.3625
384.44203	1323.0625
388.60257	1337.6625
392.76012	1340.8625
396.91468	1362.4625
401.06626	1375.4625
405.21485	1384.4625
409.36047	1406.3625
413.50311	1418.6625
417.64277	1421.5625
421.77947	1439.6625
425.9132	1448.3625
430.04396	1455.8625
434.17176	1477.5625
438.2966	1481.9625
442.41849	1494.7625
446.53742	1509.9625
450.6534	1522.9625
454.76644	1537.3625
458.87653	1548.2625
462.98368	1549.0625
467.08789	1550.9625
471.18916	1566.7625
475.2875	1562.2625
479.38291	1575.5625
483.4754	1583.0625
487.56496	1581.6625
491.6516	1600.8625
495.73531	1608.1625
499.81612	1607.5625
503.89401	1598.4625
507.96899	1604.3625
512.04106	1603.6625
516.11023	1610.8625
520.1765	1617.1625
524.23987	1631.9625
528.30034	1632.5625
532.35792	1643.7625
536.41261	1665.3625
540.46441	1668.2625
544.51333	1684.5625
548.55936	1690.1625
552.60252	1713.8625
556.64279	1717.8625
560.6802	1719.0625
564.71473	1729.7625
568.7464	1723.2625
572.7752	1729.3625
576.80114	1722.2625
580.82422	1731.9625
584.84444	1732.8625
588.86181	1723.8625
592.87633	1735.2625
596.888	1731.6625
600.89682	1743.8625
604.9028	1755.5625
608.90594	1763.0625
612.90624	1767.3625
616.90371	1770.7625
620.89834	1765.5625
624.89015	1763.5625
628.87913	1774.1625
632.86528	1773.5625
636.84862	1774.9625
640.82913	1787.7625
644.80683	1788.1625
648.78172	1801.3625
652.75379	1795.2625
656.72306	1808.5625
660.68952	1811.6625
664.65319	1827.6625
668.61405	1826.7625
672.57211	1833.2625
676.52738	1849.4625
680.47986	1855.4625
684.42955	1857.0625
688.37646	1874.1625
692.32058	1885.6625
696.26192	1892.4625
700.20048	1900.2625
704.13626	1895.9625
708.06928	1910.8625
711.99952	1916.6625
715.927	1918.5625
719.85171	1929.3625
723.77365	1933.3625
727.69284	1910.6625
731.60928	1924.6625
735.52295	1919.7625
739.43388	1930.7625
743.34206	1929.8625
747.24749	1929.7625
751.15017	1942.1625
755.05012	1924.6625
758.94733	1958.6625
762.8418	1962.6625
766.73354	1975.3625
770.62254	1986.8625
774.50882	1995.7625
778.39237	1993.9625
782.27321	2005.0625
786.15132	2007.4625
790.02671	2013.4625
793.89938	2023.7625
797.76935	2012.5625
801.6366	2020.2625
805.50115	2030.9625
809.36299	2023.9625
813.22213	2033.1625
817.07857	2044.6625
820.93231	2037.7625
824.78336	2055.3625
828.63172	2049.7625
832.47738	2054.2625
836.32036	2052.4625
840.16066	2062.8625
843.99827	2069.9625
847.8332	2074.2625
851.66546	2076.4625
855.49504	2096.1625
859.32195	2092.6625
863.1462	2091.6625
866.96777	2108.7625
870.78668	2114.4625
874.60293	2124.2625
878.41652	2136.7625
882.22745	2150.9625
886.03573	2154.0625
889.84136	2162.8625
893.64433	2170.4625
897.44466	2176.0625
901.24235	2192.7625
905.0374	2198.6625
908.8298	2219.7625
912.61957	2219.6625
916.40671	2223.3625
920.19121	2241.3625
923.97308	2224.6625
927.75233	2230.5625
931.52895	2246.4625
935.30295	2226.8625
939.07433	2247.1625
942.84309	2243.5625
946.60924	2244.0625
950.37278	2240.7625
954.13371	2247.4625
957.89203	2252.7625
961.64774	2250.7625
965.40086	2255.5625
969.15137	2254.8625
972.89929	2259.1625
976.64461	2258.0625
980.38733	2266.4625
984.12747	2274.6625
987.86502	2287.3625
991.59999	2281.3625
995.33237	2286.8625
999.06217	2300.6625
1002.78939	2309.3625
1006.51404	2313.6625
1010.23611	2319.6625
1013.95561	2326.5625
1017.67255	2344.8625
1021.38692	2357.1625
1025.09872	2358.4625
1028.80796	2362.3625
1032.51465	2383.6625
1036.21877	2397.1625
1039.92035	2403.7625
1043.61937	2405.4625
1047.31584	2433.6625
1051.00976	2414.6625
1054.70114	2438.8625
1058.38998	2449.5625
1062.07627	2453.0625
1065.76003	2458.8625
1069.44126	2479.4625
1073.11995	2473.6625
1076.79611	2493.2625
1080.46974	2490.2625
1084.14085	2503.4625
1087.80943	2493.0625
1091.47549	2508.5625
1095.13903	2518.6625
1098.80005	2511.7625
1102.45857	2525.0625
1106.11456	2516.5625
1109.76805	2520.9625
1113.41903	2528.0625
1117.06751	2534.1625
1120.71348	2523.9625
1124.35696	2545.1625
1127.99793	2545.2625
1131.63641	2553.2625
1135.2724	2552.3625
1138.90589	2550.3625
1142.5369	2561.6625
1146.16542	2559.7625
1149.79145	2558.2625
1153.415	2542.6625
1157.03607	2560.0625
1160.65467	2558.3625
1164.27079	2565.1625
1167.88443	2574.9625
1171.49561	2581.9625
1175.10432	2596.9625
1178.71056	2612.0625
1182.31434	2612.2625
1185.91565	2626.6625
1189.51451	2630.1625
1193.11091	2638.6625
1196.70485	2653.8625
1200.29634	2651.8625
1203.88538	2655.4625
1207.47197	2653.4625
1211.05612	2646.9625
1214.63782	2659.4625
1218.21708	2668.5625
1221.79391	2671.9625
1225.36829	2673.1625
1228.94024	2674.5625
1232.50976	2697.8625
1236.07685	2698.9625
1239.6415	2700.1625
1243.20374	2688.7625
1246.76355	2710.2625
1250.32093	2727.6625
1253.8759	2727.7625
1257.42845	2736.6625
1260.97859	2738.9625
1264.52631	2743.4625
1268.07163	2755.0625
1271.61453	2745.8625
1275.15503	2760.4625
1278.69312	2760.8625
1282.22882	2755.3625
1285.76211	2764.4625
1289.29301	2783.7625
1292.82151	2785.3625
1296.34761	2792.3625
1299.87133	2803.4625
1303.39266	2812.3625
1306.9116	2821.0625
1310.42815	2841.5625
1313.94233	2844.1625
1317.45412	2856.0625
1320.96354	2850.6625
1324.47058	2834.4625
1327.97525	2828.0625
1331.47754	2843.3625
1334.97747	2833.2625
1338.47502	2838.6625
1341.97022	2829.3625
1345.46305	2835.2625
1348.95352	2841.2625
1352.44163	2844.0625
1355.92738	2846.1625
1359.41078	2844.9625
1362.89183	2838.6625
1366.37053	2837.8625
1369.84688	2843.3625
1373.32088	2831.6625
1376.79254	2817.6625
1380.26186	2816.0625
1383.72883	2801.3625
1387.19347	2789.6625
1390.65578	2781.9625
1394.11575	2783.0625
1397.57339	2757.2625
1401.0287	2752.0625
1404.48168	2770.8625
1407.93234	2754.6625
1411.38068	2752.0625
1414.82669	2769.7625
1418.27039	2759.9625
1421.71177	2757.7625
1425.15083	2772.3625
1428.58758	2760.7625
1432.02203	2771.3625
1435.45416	2761.9625
1438.88399	2768.5625
1442.31151	2762.7625
1445.73673	2761.2625
1449.15965	2750.7625
1452.58027	2765.8625
1455.9986	2774.3625
1459.41463	2778.1625
1462.82837	2794.4625
1466.23982	2791.9625
1469.64898	2803.7625
1473.05586	2810.8625
1476.46045	2818.0625
1479.86276	2832.5625
1483.26279	2833.4625
1486.66054	2829.0625
1490.05602	2849.0625
1493.44922	2858.3625
1496.84016	2879.0625
1500.22882	2886.2625
1503.61521	2891.1625
1506.99934	2898.2625
1510.38121	2900.5625
1513.76081	2917.0625
1517.13816	2911.7625
1520.51324	2942.0625
1523.88607	2931.2625
1527.25665	2937.8625
1530.62498	2961.8625
1533.99105	2961.1625
1537.35488	2980.0625
1540.71647	2988.4625
1544.07581	3002.5625
1547.4329	3004.2625
1550.78776	3021.1625
1554.14038	3023.7625
1557.49077	3023.1625
1560.83892	3043.6625
1564.18484	3045.9625
1567.52853	3065.8625
1570.86999	3072.9625
1574.20922	3072.0625
1577.54624	3072.9625
1580.88103	3080.8625
1584.2136	3074.1625
1587.54395	3084.7625
1590.87208	3103.7625
1594.19801	3084.8625
1597.52172	3116.2625
1600.84321	3112.4625
1604.16251	3107.2625
1607.47959	3129.7625
1610.79447	3123.4625
1614.10715	3116.3625
1617.41763	3112.7625
1620.7259	3113.5625
1624.03199	3119.8625
1627.33587	3106.1625
1630.63757	3102.2625
1633.93707	3103.8625
1637.23439	3107.9625
1640.52951	3097.3625
1643.82246	3110.8625
1647.11321	3120.0625
1650.40179	3110.5625
1653.68819	3118.3625
1656.97241	3105.5625
1660.25446	3107.8625
1663.53433	3100.2625
1666.81203	3101.6625
1670.08756	3108.6625
1673.36092	3107.6625
1676.63211	3119.8625
1679.90115	3131.6625
1683.16801	3107.0625
1686.43272	3098.8625
1689.69527	3106.7625
1692.95567	3096.6625
1696.2139	3090.8625
1699.46999	3084.7625
1702.72392	3091.1625
1705.97571	3096.3625
1709.22535	3110.1625
1712.47284	3123.5625
1715.71819	3135.2625
1718.96139	3150.1625
1722.20246	3150.3625
1725.44139	3144.0625
1728.67818	3146.5625
1731.91284	3153.3625
1735.14537	3148.2625
1738.37576	3160.5625
1741.60403	3152.1625
1744.83017	3135.2625
1748.05418	3140.6625
1751.27607	3152.3625
1754.49584	3152.4625
1757.71349	3140.9625
1760.92903	3146.3625
1764.14244	3145.7625
1767.35375	3142.3625
1770.56294	3145.0625
1773.77002	3143.4625
1776.97499	3150.1625
1780.17785	3176.0625
1783.37861	3178.7625
1786.57727	3184.6625
1789.77382	3186.8625
1792.96828	3201.3625
1796.16064	3204.0625
1799.3509	3203.0625
1802.53907	3196.3625
1805.72514	3205.7625
1808.90913	3200.1625
1812.09102	3200.2625
1815.27083	3202.3625
1818.44856	3205.6625
1821.6242	3212.9625
1824.79776	3204.8625
1827.96924	3206.3625
1831.13864	3213.0625
1834.30597	3210.3625
1837.47122	3220.8625
1840.6344	3217.3625
1843.7955	3234.3625
1846.95454	3245.0625
1850.11151	3259.3625
1853.26642	3251.2625
1856.41926	3237.6625
1859.57004	3246.1625
1862.71876	3267.3625
1865.86542	3271.5625
1869.01003	3259.4625
1872.15258	3252.7625
1875.29308	3259.0625
1878.43152	3256.4625
1881.56792	3265.1625
1884.70227	3268.4625
1887.83457	3276.1625
1890.96482	3268.5625
1894.09304	3285.0625
1897.21921	3272.2625
1900.34335	3275.0625
1903.46544	3284.6625
1906.58551	3273.5625
1909.70353	3274.8625
1912.81953	3287.0625
1915.93349	3289.7625
1919.04543	3311.8625
1922.15534	3297.3625
1925.26322	3292.3625
1928.36908	3303.4625
1931.47292	3300.4625
1934.57473	3320.0625
1937.67453	3310.1625
1940.77232	3315.9625
1943.86808	3306.0625
1946.96184	3287.0625
1950.05358	3292.6625
1953.14331	3299.7625
1956.23103	3286.4625
1959.31675	3293.0625
1962.40046	3272.1625
1965.48217	3277.1625
1968.56188	3284.1625
1971.63959	3274.0625
1974.7153	3277.7625
1977.78901	3269.6625
1980.86073	3272.6625
1983.93046	3272.4625
1986.99819	3255.0625
1990.06394	3251.3625
1993.1277	3267.1625
1996.18947	3256.6625
1999.24925	3255.9625
2002.30706	3246.3625
2005.36288	3245.0625
2008.41672	3231.0625
2011.46859	3249.3625
2014.51848	3248.9625
2017.56639	3236.6625
2020.61233	3235.8625
2023.6563	3236.9625
2026.6983	3229.2625
2029.73833	3223.7625
2032.7764	3221.1625
2035.8125	3219.6625
2038.84664	3213.9625
2041.87881	3225.8625
2044.90903	3220.2625
2047.93729	3222.6625
2050.96359	3226.7625
2053.98794	3235.6625
2057.01034	3226.0625
2060.03078	3226.2625
2063.04927	3234.2625
2066.06582	3239.1625
2069.08042	3255.0625
2072.09307	3256.2625
2075.10378	3255.8625
2078.11255	3269.2625
2081.11938	3272.6625
2084.12426	3260.0625
2087.12722	3288.1625
2090.12824	3272.7625
2093.12732	3297.3625
2096.12447	3289.6625
2099.11969	3292.3625
2102.11299	3304.8625
2105.10435	3304.5625
2108.09379	3303.4625
2111.08131	3309.8625
2114.0669	3316.9625
2117.05057	3339.2625
2120.03233	3339.7625
2123.01216	3357.8625
2125.99008	3367.7625
2128.96609	3363.0625
2131.94018	3379.3625
2134.91236	3385.5625
2137.88263	3406.7625
2140.851	3394.8625
2143.81746	3408.7625
2146.78201	3416.3625
2149.74466	3426.9625
2152.7054	3434.3625
2155.66425	3443.2625
2158.6212	3447.2625
2161.57625	3466.1625
2164.52941	3457.6625
2167.48067	3450.9625
2170.43004	3467.0625
2173.37752	3477.1625
2176.32311	3479.9625
2179.26681	3502.2625
2182.20863	3504.4625
2185.14856	3501.4625
2188.08661	3492.2625
2191.02278	3512.4625
2193.95707	3520.2625
2196.88948	3499.8625
2199.82001	3509.0625
2202.74867	3511.5625
2205.67545	3516.7625
2208.60037	3518.6625
2211.52341	3508.6625
2214.44458	3506.0625
2217.36388	3493.0625
2220.28132	3505.9625
2223.1969	3501.8625
2226.11061	3509.1625
2229.02246	3499.9625
2231.93245	3488.2625
2234.84058	3502.7625
2237.74686	3512.5625
2240.65128	3513.7625
2243.55385	3515.8625
2246.45456	3523.8625
2249.35343	3537.8625
2252.25044	3541.4625
2255.14561	3539.1625
2258.03893	3525.0625
2260.93041	3510.4625
2263.82004	3505.8625
2266.70783	3505.8625
2269.59378	3525.7625
2272.4779	3509.5625
2275.36017	3509.8625
2278.24061	3516.1625
2281.11922	3505.2625
2283.996	3520.3625
2286.87094	3516.6625
2289.74405	3514.2625
2292.61534	3531.8625
2295.4848	3525.1625
2298.35243	3532.4625
2301.21824	3533.4625
2304.08223	3515.6625
2306.94439	3529.7625
2309.80474	3530.3625
2312.66327	3545.5625
2315.51999	3572.1625
2318.37489	3558.3625
2321.22797	3546.2625
2324.07925	3550.8625
2326.92871	3558.4625
2329.77637	3555.7625
2332.62222	3538.5625
2335.46626	3535.2625
2338.3085	3539.7625
2341.14893	3561.5625
2343.98756	3543.1625
2346.8244	3540.8625
2349.65943	3540.6625
2352.49267	3541.1625
2355.32411	3531.3625
2358.15376	3555.3625
2360.98161	3554.8625
2363.80768	3560.4625
2366.63195	3555.6625
2369.45444	3563.5625
2372.27514	3563.8625
2375.09405	3569.1625
2377.91118	3564.7625
2380.72652	3568.3625
2383.54009	3588.1625
2386.35187	3566.1625
2389.16188	3575.6625
2391.97011	3574.6625
2394.77657	3571.9625
2397.58125	3566.0625
2400.38416	3575.6625
2403.18529	3555.0625
2405.98466	3550.7625
2408.78226	3562.5625
2411.57809	3559.7625
2414.37216	3580.0625
2417.16446	3563.7625
2419.955	3571.9625
2422.74378	3562.5625
2425.5308	3580.4625
2428.31606	3587.3625
2431.09956	3580.5625
2433.88131	3598.7625
2436.6613	3583.6625
2439.43954	3592.6625
2442.21603	3592.4625
2444.99077	3595.9625
2447.76377	3616.2625
2450.53501	3612.0625
2453.30451	3594.2625
2456.07226	3609.3625
2458.83827	3598.5625
2461.60254	3589.4625
2464.36507	3597.7625
2467.12586	3600.2625
2469.88492	3604.3625
2472.64224	3603.9625
2475.39782	3599.4625
2478.15167	3613.2625
2480.90379	3637.4625
2483.65417	3632.4625
2486.40283	3619.8625
2489.14976	3626.9625
2491.89497	3634.9625
2494.63845	3640.1625
2497.3802	3625.5625
2500.12024	3619.3625
2502.85855	3630.9625
2505.59514	3645.1625
2508.33002	3636.5625
2511.06318	3637.9625
2513.79462	3639.1625
2516.52435	3635.9625
2519.25237	3634.2625
2521.97867	3620.7625
2524.70327	3622.1625
2527.42616	3631.0625
2530.14734	3627.8625
2532.86681	3641.7625
2535.58458	3642.6625
2538.30065	3639.9625
2541.01501	3634.6625
2543.72768	3639.9625
2546.43864	3634.8625
2549.14791	3649.6625
2551.85548	3637.0625
2554.56136	3628.9625
2557.26554	3634.3625
2559.96803	3645.6625
2562.66883	3631.8625
2565.36794	3630.9625
2568.06536	3630.8625
2570.7611	3623.9625
2573.45514	3610.9625
2576.14751	3618.3625
2578.83819	3611.6625
2581.52719	3610.1625
2584.21451	3633.8625
2586.90015	3621.4625
2589.58411	3615.3625
2592.2664	3641.0625
2594.94701	3625.4625
2597.62594	3616.9625
2600.30321	3612.0625
2602.9788	3613.1625
2605.65273	3609.1625
2608.32498	3624.1625
2610.99557	3608.8625
2613.66449	3601.5625
2616.33175	3605.9625
2618.99734	3625.0625
2621.66128	3595.1625
2624.32355	3604.5625
2626.98416	3596.6625
2629.64311	3584.6625
2632.30041	3589.6625
2634.95605	3579.8625
2637.61004	3584.2625
2640.26238	3594.0625
2642.91306	3585.1625
2645.56209	3579.3625
2648.20948	3590.5625
2650.85521	3588.8625
2653.4993	3598.2625
2656.14175	3608.3625
2658.78255	3603.6625
2661.42171	3616.7625
2664.05923	3612.4625
2666.6951	3632.1625
2669.32934	3635.7625
2671.96194	3624.1625
2674.59291	3648.7625
2677.22224	3636.4625
2679.84993	3629.0625
2682.476	3621.0625
2685.10043	3642.5625
2687.72324	3632.8625
2690.34441	3639.0625
2692.96396	3649.0625
2695.58188	3649.2625
2698.19818	3647.8625
2700.81285	3662.3625
2703.4259	3669.1625
2706.03733	3627.8625
2708.64714	3633.7625
2711.25533	3654.7625
2713.86191	3667.3625
2716.46687	3677.5625
2719.07021	3671.8625
2721.67194	3681.4625
2724.27206	3694.8625
2726.87057	3713.3625
2729.46747	3722.5625
2732.06276	3742.1625
2734.65644	3718.5625
2737.24852	3720.2625
2739.83899	3726.9625
2742.42786	3724.0625
2745.01513	3722.8625
2747.60079	3734.3625
2750.18486	3726.4625
2752.76733	3712.7625
2755.3482	3714.7625
2757.92747	3702.4625
2760.50515	3694.6625
2763.08123	3708.8625
2765.65573	3699.2625
2768.22863	3701.8625
2770.79994	3709.4625
2773.36967	3700.3625
2775.9378	3701.4625
2778.50435	3702.9625
2781.06932	3701.7625
2783.6327	3703.7625
2786.1945	3729.7625
2788.75471	3709.8625
2791.31335	3723.8625
2793.87041	3702.7625
2796.42589	3702.6625
2798.97979	3716.6625
2801.53212	3699.4625
2804.08288	3686.7625
2806.63206	3688.1625
2809.17967	3670.0625
2811.72571	3675.3625
2814.27018	3673.4625
2816.81308	3654.8625
2819.35442	3669.2625
2821.89419	3654.3625
2824.43239	3670.9625
2826.96904	3646.2625
2829.50412	3649.2625
2832.03763	3642.2625
2834.56959	3648.6625
2837.1	3658.0625
2839.62884	3655.7625
2842.15613	3645.4625
2844.68186	3643.9625
2847.20604	3658.5625
2849.72867	3666.9625
2852.24974	3671.9625
2854.76927	3667.2625
2857.28724	3644.4625
2859.80367	3640.6625
2862.31855	3652.4625
2864.83189	3660.4625
2867.34368	3658.3625
2869.85393	3660.9625
2872.36264	3638.8625
2874.8698	3653.6625
2877.37543	3654.8625
2879.87952	3659.9625
2882.38207	3643.9625
2884.88308	3646.6625
2887.38256	3654.8625
2889.88051	3667.3625
2892.37692	3664.4625
2894.8718	3659.3625
2897.36515	3673.7625
2899.85698	3685.1625
2902.34727	3694.7625
2904.83604	3693.5625
2907.32328	3693.2625
2909.809	3698.5625
2912.29319	3709.9625
2914.77587	3713.5625
2917.25702	3717.3625
2919.73665	3700.8625
2922.21476	3705.3625
2924.69136	3706.6625
2927.16644	3701.8625
2929.64	3712.9625
2932.11205	3718.4625
2934.58258	3710.6625
2937.05161	3706.5625
2939.51912	3716.2625
2941.98513	3721.4625
2944.44962	3706.4625
2946.91261	3736.6625
2949.37409	3741.3625
2951.83407	3731.9625
2954.29254	3745.9625
2956.74951	3754.7625
2959.20498	3743.3625
2961.65895	3746.9625
2964.11142	3751.3625
2966.56239	3757.7625
2969.01186	3769.0625
2971.45984	3785.0625
2973.90632	3787.5625
2976.35131	3789.3625
2978.7948	3787.3625
2981.23681	3778.2625
2983.67732	3790.6625
2986.11635	3769.5625
2988.55388	3778.6625
2990.98993	3760.4625
2993.4245	3748.6625
2995.85758	3760.0625
2998.28917	3760.8625
3000.71928	3765.6625
3003.14791	3738.1625
3005.57506	3745.8625
3008.00073	3750.3625
3010.42493	3759.3625
3012.84764	3755.9625
3015.26888	3776.7625
3017.68865	3750.0625
3020.10694	3759.5625
3022.52376	3758.0625
3024.9391	3756.7625
3027.35298	3752.0625
3029.76539	3765.0625
3032.17632	3763.4625
3034.5858	3768.8625
3036.9938	3769.5625
3039.40034	3783.4625
3041.80542	3780.2625
3044.20903	3778.3625
3046.61118	3786.3625
3049.01187	3797.9625
3051.4111	3790.4625
3053.80888	3806.8625
3056.20519	3799.5625
3058.60005	3806.4625
3060.99345	3817.6625
3063.3854	3801.3625
3065.7759	3801.5625
3068.16494	3773.9625
3070.55254	3778.6625
3072.93868	3783.3625
3075.32338	3781.6625
3077.70662	3773.1625
3080.08842	3777.5625
3082.46878	3774.1625
3084.84769	3767.3625
3087.22515	3800.8625
3089.60118	3781.0625
3091.97576	3813.2625
3094.3489	3807.4625
3096.72061	3817.2625
3099.09087	3822.5625
3101.4597	3843.3625
3103.82709	3867.2625
3106.19305	3857.8625
3108.55757	3864.0625
3110.92066	3871.9625
3113.28232	3868.4625
3115.64255	3870.7625
3118.00134	3863.3625
3120.35871	3862.9625
3122.71466	3860.8625
3125.06917	3872.6625
3127.42226	3860.9625
3129.77393	3889.5625
3132.12417	3880.5625
3134.47299	3895.8625
3136.82039	3889.2625
3139.16636	3869.4625
3141.51092	3894.9625
3143.85406	3905.9625
3146.19579	3900.7625
3148.53609	3908.5625
3150.87499	3959.7625
3153.21246	3954.1625
3155.54853	3974.7625
3157.88318	3965.3625
3160.21642	3981.8625
3162.54826	4011.3625
3164.87868	4025.3625
3167.2077	4034.2625
3169.5353	4040.2625
3171.86151	4053.1625
3174.18631	4053.5625
3176.5097	4071.9625
3178.83169	4068.8625
3181.15228	4069.1625
3183.47147	4077.3625
3185.78926	4068.8625
3188.10565	4071.2625
3190.42065	4075.0625
3192.73424	4089.9625
3195.04645	4078.3625
3197.35725	4061.8625
3199.66667	4075.6625
3201.97469	4081.1625
3204.28132	4091.2625
3206.58656	4101.5625
3208.8904	4116.2625
3211.19287	4116.3625
3213.49394	4133.4625
3215.79363	4144.5625
3218.09193	4145.6625
3220.38884	4150.4625
3222.68438	4162.3625
3224.97853	4176.8625
3227.2713	4189.6625
3229.56269	4186.4625
3231.8527	4166.7625
3234.14133	4160.9625
3236.42858	4159.7625
3238.71446	4159.2625
3240.99896	4150.9625
3243.28209	4159.1625
3245.56384	4133.3625
3247.84423	4143.3625
3250.12324	4147.2625
3252.40088	4158.1625
3254.67715	4149.7625
3256.95205	4142.7625
3259.22558	4155.2625
3261.49775	4154.1625
3263.76855	4155.9625
3266.03799	4160.0625
3268.30606	4166.6625
3270.57277	4167.4625
3272.83812	4145.2625
3275.10211	4142.4625
3277.36474	4151.8625
3279.62601	4149.8625
3281.88593	4117.4625
3284.14448	4120.5625
3286.40168	4131.2625
3288.65753	4131.6625
3290.91202	4105.7625
3293.16516	4099.3625
3295.41695	4114.6625
3297.66738	4101.4625
3299.91647	4059.7625
3302.16421	4040.7625
3304.4106	4023.1625
3306.65564	4005.7625
3308.89933	3973.3625
3311.14169	3945.5625
3313.38269	3901.9625
3315.62236	3876.2625
3317.86068	3832.4625
3320.09766	3824.8625
3322.3333	3806.8625
3324.5676	3770.4625
3326.80056	3704.8625
3329.03219	3663.5625
3331.26248	0.2625
3333.49143	0.5625
3335.71905	-1.3375
