EXPLAIN
TAG	CHRONOA
TITLE	LABEL	Chronoamperometry Scan	Test Identifier
DATE	LABEL	5/7/2022	Date
TIME	LABEL	11:14:39	Time
NOTES	NOTES	1	Notes...
	
PSTAT	PSTAT	IFC1010-21051	Potentiostat
VPRESTEP	POTEN	5.00000E-002	F	Pre-step Voltage (V)
TPRESTEP	QUANT	5.00000E-001	Pre-step Delay Time (s)
VSTEP1	POTEN	0.00000E+000	F	Step 1 Voltage (V)
TSTEP1	QUANT	3.00000E+002	Step 1 Time (s)
VSTEP2	POTEN	-5.00000E-002	F	Step 2 Voltage (V)
TSTEP2	QUANT	1.00000E+000	Step 2 Time (s)
SAMPLETIME	QUANT	1.00000E-001	Sample Period (s)
DECIMATE	TOGGLE	T	Decimate
ILIMIT	QUANT	1.00000E+000	Limit I (mA/cm^2)
IMODE	SELECTOR	1	I/E Range Mode
IRANGE	QUANT	3.00000E-001	Max Current (mA)
EQDELAY	QUANT	5.00000E+000	Equil. Time (s)
SAMPLINGMODE	SELECTOR	1	Sampling Mode
AREA	QUANT	1.00000E+000	Sample Area (cm^2)
IRCOMP	SELECTOR	0	IRComp
PFCOR	QUANT	5.00000E+001	PF Corr. (ohm)
SEQUENCER	TOGGLE	TRUE	Run as Sequence
PSTATMODEL	IQUANT	64	Pstat Model
PSTATSECTION	LABEL	IFC1010-21051	Pstat Section
PSTATSERIALNO	LABEL	21051	Pstat Serial Number
CTRLMODE	IQUANT	1	Control Mode
ELECTROMETER	IQUANT	0	RE=0 or CS=1
IESTAB	IQUANT	0	I/E Stability
CASPEED	IQUANT	4	Control Amp Speed
CONVENTION	IQUANT	1	Current Convention
ICHRANGE	IQUANT	2	Ich Range
ICHRANGEMODE	TOGGLE	T	Ich Auto Range
ICHOFFSETENABLE	TOGGLE	F	Ich Offset Enable
ICHOFFSET	QUANT	0	Ich Offset (V)
ICHFILTER	IQUANT	3	Ich Filter
VCHRANGE	IQUANT	3	Vch Range
VCHRANGEMODE	TOGGLE	T	Vch Auto Range
VCHOFFSETENABLE	TOGGLE	F	Vch Offset Enable
VCHOFFSET	QUANT	0	Vch Offset (V)
VCHFILTER	IQUANT	3	Vch Filter
IERANGELOWERLIMIT	IQUANT	4	I/E Range Lower Limit
IERANGEMODE	TOGGLE	F	I/E AutoRange
IERANGE	IQUANT	9	I/E Range
ACHSELECT	IQUANT	0	Ach Select
ACHRANGE	IQUANT	2	Ach Range
ACHOFFSETENABLE	TOGGLE	F	Ach Offset Enable
ACHOFFSET	QUANT	0	Ach Offset (V)
ACHFILTER	IQUANT	1	Ach Filter
SENSECABLEID	IQUANT	14	Sense Cable ID
PWRCABLEID	IQUANT	14	Power Cable ID
DCCALDATE	LABEL	5/16/2022	DC Calibration Date
ACCALDATE	LABEL	4/2/2018	AC Calibration Date
FRAMEWORKVERSION	QUANT	7.06	Framework Version
INSTRUMENTVERSION	LABEL	4.30	Instrument Version
CURVE	TABLE	98
	Pt	T	Vf	Im	Vu	Sig	Ach	IERange	Over	Temp
	#	s	V vs. Ref.	A	V	V	V	#	bits	deg C
	0	-0.4	5.02869E-002	-1.14239E-005	0.00000E+000	4.99998E-002	0.00000E+000	9	...........	1422.77
	1	-0.3	5.00840E-002	-1.13083E-005	0.00000E+000	4.99998E-002	0.00000E+000	9	...........	1422.77
	2	-0.2	5.00665E-002	-1.12026E-005	0.00000E+000	4.99998E-002	0.00000E+000	9	...........	1422.77
	3	-0.1	5.00657E-002	-1.11011E-005	0.00000E+000	4.99998E-002	0.00000E+000	9	...........	1422.77
	4	0	5.00672E-002	-1.09853E-005	0.00000E+000	4.99998E-002	0.00000E+000	9	...........	1422.77
	5	0.1	5.33706E-005	-1.69795E-004	0.00000E+000	0.00000E+000	0.00000E+000	9	...........	1422.77
	6	0.2	4.78652E-005	-1.24076E-004	0.00000E+000	0.00000E+000	0.00000E+000	9	...........	1422.77
	7	0.3	4.65205E-005	-9.59771E-005	0.00000E+000	0.00000E+000	0.00000E+000	9	...........	1422.77
	8	0.4	4.62772E-005	-7.77105E-005	0.00000E+000	0.00000E+000	0.00000E+000	9	...........	1422.77
	9	0.5	4.54532E-005	-6.53503E-005	0.00000E+000	0.00000E+000	0.00000E+000	9	...........	1422.77
	10	0.6	4.72534E-005	-5.66975E-005	0.00000E+000	0.00000E+000	0.00000E+000	9	...........	1422.77
	11	0.7	4.66717E-005	-5.04661E-005	0.00000E+000	0.00000E+000	0.00000E+000	9	...........	1422.77
	12	0.8	4.56825E-005	-4.58388E-005	0.00000E+000	0.00000E+000	0.00000E+000	9	...........	1422.77
	13	0.9	4.47453E-005	-4.23170E-005	0.00000E+000	0.00000E+000	0.00000E+000	9	...........	1422.77
	14	1	4.56705E-005	-3.95774E-005	0.00000E+000	0.00000E+000	0.00000E+000	9	...........	1422.77
	15	1.1	4.57916E-005	-3.73825E-005	0.00000E+000	0.00000E+000	0.00000E+000	9	...........	1422.77
	16	1.2	4.41766E-005	-3.55997E-005	0.00000E+000	0.00000E+000	0.00000E+000	9	...........	1422.77
	17	1.3	4.63863E-005	-3.41128E-005	0.00000E+000	0.00000E+000	0.00000E+000	9	...........	1422.77
	18	1.4	4.66256E-005	-3.28509E-005	0.00000E+000	0.00000E+000	0.00000E+000	9	...........	1422.77
	19	1.5	4.68689E-005	-3.17782E-005	0.00000E+000	0.00000E+000	0.00000E+000	9	...........	1422.77
	20	1.6	4.69130E-005	-3.08396E-005	0.00000E+000	0.00000E+000	0.00000E+000	9	...........	1422.77
	21	1.7	4.77991E-005	-3.00135E-005	0.00000E+000	0.00000E+000	0.00000E+000	9	...........	1422.77
	22	1.8	4.65666E-005	-2.92811E-005	0.00000E+000	0.00000E+000	0.00000E+000	9	...........	1422.77
	23	1.9	4.45841E-005	-2.86376E-005	0.00000E+000	0.00000E+000	0.00000E+000	9	...........	1423.13
	24	2	4.65615E-005	-2.80338E-005	0.00000E+000	0.00000E+000	0.00000E+000	9	...........	1423.13
	25	2.1	4.54612E-005	-2.74922E-005	0.00000E+000	0.00000E+000	0.00000E+000	9	...........	1423.13
	26	2.2	4.48464E-005	-2.70025E-005	0.00000E+000	0.00000E+000	0.00000E+000	9	...........	1423.13
	27	2.3	4.50487E-005	-2.65430E-005	0.00000E+000	0.00000E+000	0.00000E+000	9	...........	1423.13
	28	2.4	4.65345E-005	-2.61149E-005	0.00000E+000	0.00000E+000	0.00000E+000	9	...........	1423.13
	29	2.5	4.58417E-005	-2.57138E-005	0.00000E+000	0.00000E+000	0.00000E+000	9	...........	1423.13
	30	2.6	4.56544E-005	-2.53484E-005	0.00000E+000	0.00000E+000	0.00000E+000	9	...........	1423.13
	31	2.7	4.72254E-005	-2.49954E-005	0.00000E+000	0.00000E+000	0.00000E+000	9	...........	1423.13
	32	2.8	4.58337E-005	-2.46744E-005	0.00000E+000	0.00000E+000	0.00000E+000	9	...........	1423.13
	33	2.9	4.60639E-005	-2.43753E-005	0.00000E+000	0.00000E+000	0.00000E+000	9	...........	1423.04
	34	3	4.62922E-005	-2.40755E-005	0.00000E+000	0.00000E+000	0.00000E+000	9	...........	1423.04
	35	3.1	4.60659E-005	-2.38065E-005	0.00000E+000	0.00000E+000	0.00000E+000	9	...........	1423.04
	36	3.2	4.60109E-005	-2.35339E-005	0.00000E+000	0.00000E+000	0.00000E+000	9	...........	1423.04
	37	3.3	4.64574E-005	-2.32901E-005	0.00000E+000	0.00000E+000	0.00000E+000	9	...........	1423.04
	38	3.4	4.57916E-005	-2.30546E-005	0.00000E+000	0.00000E+000	0.00000E+000	9	...........	1423.04
	39	3.5	4.67868E-005	-2.28305E-005	0.00000E+000	0.00000E+000	0.00000E+000	9	...........	1423.04
	40	3.6	4.62332E-005	-2.26101E-005	0.00000E+000	0.00000E+000	0.00000E+000	9	...........	1423.04
	41	3.7	4.69620E-005	-2.24011E-005	0.00000E+000	0.00000E+000	0.00000E+000	9	...........	1423.04
	42	3.8	4.57245E-005	-2.22050E-005	0.00000E+000	0.00000E+000	0.00000E+000	9	...........	1423.04
	43	3.9	4.73886E-005	-2.20032E-005	0.00000E+000	0.00000E+000	0.00000E+000	9	...........	1422.60
	44	4	4.82556E-005	-2.18239E-005	0.00000E+000	0.00000E+000	0.00000E+000	9	...........	1422.60
	45	4.1	4.74667E-005	-2.16471E-005	0.00000E+000	0.00000E+000	0.00000E+000	9	...........	1422.60
	46	4.2	4.73906E-005	-2.14740E-005	0.00000E+000	0.00000E+000	0.00000E+000	9	...........	1422.60
	47	4.3	4.66326E-005	-2.13049E-005	0.00000E+000	0.00000E+000	0.00000E+000	9	...........	1422.60
	48	4.4	4.69701E-005	-2.11477E-005	0.00000E+000	0.00000E+000	0.00000E+000	9	...........	1422.60
	49	4.5	4.59488E-005	-2.09904E-005	0.00000E+000	0.00000E+000	0.00000E+000	9	...........	1422.60
	50	4.6	4.69500E-005	-2.08475E-005	0.00000E+000	0.00000E+000	0.00000E+000	9	...........	1422.60
	51	4.7	4.69170E-005	-2.07080E-005	0.00000E+000	0.00000E+000	0.00000E+000	9	...........	1422.60
	52	4.8	4.68559E-005	-2.05640E-005	0.00000E+000	0.00000E+000	0.00000E+000	9	...........	1422.60
	53	4.9	4.74136E-005	-2.04255E-005	0.00000E+000	0.00000E+000	0.00000E+000	9	...........	1423.04
	54	5	4.64494E-005	-2.02950E-005	0.00000E+000	0.00000E+000	0.00000E+000	9	...........	1423.04
	55	5.1	4.66677E-005	-2.01765E-005	0.00000E+000	0.00000E+000	0.00000E+000	9	...........	1423.04
	56	5.2	4.69260E-005	-2.00468E-005	0.00000E+000	0.00000E+000	0.00000E+000	9	...........	1423.04
	57	5.3	4.63122E-005	-1.99254E-005	0.00000E+000	0.00000E+000	0.00000E+000	9	...........	1423.04
	58	5.4	4.64454E-005	-1.98069E-005	0.00000E+000	0.00000E+000	0.00000E+000	9	...........	1423.04
	59	5.5	4.66777E-005	-1.96992E-005	0.00000E+000	0.00000E+000	0.00000E+000	9	...........	1423.04
	60	5.6	4.64624E-005	-1.95886E-005	0.00000E+000	0.00000E+000	0.00000E+000	9	...........	1423.04
	61	5.7	4.49766E-005	-1.94759E-005	0.00000E+000	0.00000E+000	0.00000E+000	9	...........	1423.04
	62	5.8	4.62562E-005	-1.93814E-005	0.00000E+000	0.00000E+000	0.00000E+000	9	...........	1423.04
	63	5.9	4.63132E-005	-1.92722E-005	0.00000E+000	0.00000E+000	0.00000E+000	9	...........	1422.68
	64	6	4.61801E-005	-1.91691E-005	0.00000E+000	0.00000E+000	0.00000E+000	9	...........	1422.68
	65	6.1	4.67908E-005	-1.90787E-005	0.00000E+000	0.00000E+000	0.00000E+000	9	...........	1422.68
	66	7.1	4.72043E-005	-1.82175E-005	0.00000E+000	0.00000E+000	0.00000E+000	9	...........	1422.95
	67	8.1	4.60189E-005	-1.75271E-005	0.00000E+000	0.00000E+000	0.00000E+000	9	...........	1423.13
	68	9.1	4.52439E-005	-1.69511E-005	0.00000E+000	0.00000E+000	0.00000E+000	9	...........	1423.13
	69	10.1	4.51558E-005	-1.64675E-005	0.00000E+000	0.00000E+000	0.00000E+000	9	...........	1423.13
	70	11.1	4.55553E-005	-1.60377E-005	0.00000E+000	0.00000E+000	0.00000E+000	9	...........	1423.13
	71	12.1	4.59238E-005	-1.56676E-005	0.00000E+000	0.00000E+000	0.00000E+000	9	...........	1423.13
	72	13.1	4.55643E-005	-1.53572E-005	0.00000E+000	0.00000E+000	0.00000E+000	9	...........	1423.13
	73	14.1	4.46081E-005	-1.50567E-005	0.00000E+000	0.00000E+000	0.00000E+000	9	...........	1423.13
	74	15.1	4.56755E-005	-1.47887E-005	0.00000E+000	0.00000E+000	0.00000E+000	9	...........	1423.13
	75	16.1	4.60309E-005	-1.45545E-005	0.00000E+000	0.00000E+000	0.00000E+000	9	...........	1423.13
	76	26.1	4.39914E-005	-1.30435E-005	0.00000E+000	0.00000E+000	0.00000E+000	9	...........	1423.21
	77	36.1	4.44299E-005	-1.22804E-005	0.00000E+000	0.00000E+000	0.00000E+000	9	...........	1423.13
	78	46.1	4.45381E-005	-1.18398E-005	0.00000E+000	0.00000E+000	0.00000E+000	9	...........	1423.21
	79	56.1	4.28480E-005	-1.16323E-005	0.00000E+000	0.00000E+000	0.00000E+000	9	...........	1423.21
	80	66.1	4.37851E-005	-1.14935E-005	0.00000E+000	0.00000E+000	0.00000E+000	9	...........	1423.21
	81	76.1	4.26107E-005	-1.14381E-005	0.00000E+000	0.00000E+000	0.00000E+000	9	...........	1423.21
	82	86.1	4.23454E-005	-1.14102E-005	0.00000E+000	0.00000E+000	0.00000E+000	9	...........	1423.21
	83	96.1	4.05532E-005	-1.13476E-005	0.00000E+000	0.00000E+000	0.00000E+000	9	...........	1423.21
	84	106.1	4.22212E-005	-1.12984E-005	0.00000E+000	0.00000E+000	0.00000E+000	9	...........	1423.30
	85	116.1	4.32905E-005	-1.12940E-005	0.00000E+000	0.00000E+000	0.00000E+000	9	...........	1423.30
	86	216.1	3.98102E-005	-1.09810E-005	0.00000E+000	0.00000E+000	0.00000E+000	9	...........	1423.48
	87	300	3.56802E-005	-1.06969E-005	0.00000E+000	0.00000E+000	0.00000E+000	9	...........	1423.57
	88	300.1	-3.28762E-002	-1.77601E-004	0.00000E+000	-4.99998E-002	0.00000E+000	9	.........v.	1423.57
	89	300.2	-4.99671E-002	-1.34628E-004	0.00000E+000	-4.99998E-002	0.00000E+000	9	...........	1423.57
	90	300.3	-4.99655E-002	-1.06828E-004	0.00000E+000	-4.99998E-002	0.00000E+000	9	...........	1423.57
	91	300.4	-4.99646E-002	-8.78731E-005	0.00000E+000	-4.99998E-002	0.00000E+000	9	...........	1423.57
	92	300.5	-4.99667E-002	-7.45074E-005	0.00000E+000	-4.99998E-002	0.00000E+000	9	...........	1423.57
	93	300.6	-4.99667E-002	-6.48294E-005	0.00000E+000	-4.99998E-002	0.00000E+000	9	...........	1423.57
	94	300.7	-4.99662E-002	-5.76459E-005	0.00000E+000	-4.99998E-002	0.00000E+000	9	...........	1423.57
	95	300.8	-4.99667E-002	-5.22199E-005	0.00000E+000	-4.99998E-002	0.00000E+000	9	...........	1423.57
	96	300.9	-4.99681E-002	-4.80437E-005	0.00000E+000	-4.99998E-002	0.00000E+000	9	...........	1423.57
	97	301	-4.99670E-002	-4.47624E-005	0.00000E+000	-4.99998E-002	0.00000E+000	9	...........	1423.57
