EXPLAIN
TAG	CHRONOA
TITLE	LABEL	Chronoamperometry Scan	Test Identifier
DATE	LABEL	17/2/2022	Date
TIME	LABEL	13:31:28	Time
NOTES	NOTES	1	Notes...
	
PSTAT	PSTAT	IFC1010-21051	Potentiostat
VPRESTEP	POTEN	1.00000E-002	F	Pre-step Voltage (V)
TPRESTEP	QUANT	5.00000E-001	Pre-step Delay Time (s)
VSTEP1	POTEN	0.00000E+000	F	Step 1 Voltage (V)
TSTEP1	QUANT	3.00000E+002	Step 1 Time (s)
VSTEP2	POTEN	-1.00000E-001	F	Step 2 Voltage (V)
TSTEP2	QUANT	1.00000E+000	Step 2 Time (s)
SAMPLETIME	QUANT	1.00000E-001	Sample Period (s)
DECIMATE	TOGGLE	T	Decimate
ILIMIT	QUANT	1.00000E+000	Limit I (mA/cm^2)
IMODE	SELECTOR	1	I/E Range Mode
IRANGE	QUANT	3.00000E-001	Max Current (mA)
EQDELAY	QUANT	5.00000E+000	Equil. Time (s)
SAMPLINGMODE	SELECTOR	1	Sampling Mode
AREA	QUANT	1.00000E+000	Sample Area (cm^2)
IRCOMP	SELECTOR	0	IRComp
PFCOR	QUANT	5.00000E+001	PF Corr. (ohm)
SEQUENCER	TOGGLE	TRUE	Run as Sequence
PSTATMODEL	IQUANT	64	Pstat Model
PSTATSECTION	LABEL	IFC1010-21051	Pstat Section
PSTATSERIALNO	LABEL	21051	Pstat Serial Number
CTRLMODE	IQUANT	1	Control Mode
ELECTROMETER	IQUANT	0	RE=0 or CS=1
IESTAB	IQUANT	0	I/E Stability
CASPEED	IQUANT	4	Control Amp Speed
CONVENTION	IQUANT	1	Current Convention
ICHRANGE	IQUANT	2	Ich Range
ICHRANGEMODE	TOGGLE	T	Ich Auto Range
ICHOFFSETENABLE	TOGGLE	F	Ich Offset Enable
ICHOFFSET	QUANT	0	Ich Offset (V)
ICHFILTER	IQUANT	3	Ich Filter
VCHRANGE	IQUANT	3	Vch Range
VCHRANGEMODE	TOGGLE	T	Vch Auto Range
VCHOFFSETENABLE	TOGGLE	F	Vch Offset Enable
VCHOFFSET	QUANT	0	Vch Offset (V)
VCHFILTER	IQUANT	3	Vch Filter
IERANGELOWERLIMIT	IQUANT	4	I/E Range Lower Limit
IERANGEMODE	TOGGLE	F	I/E AutoRange
IERANGE	IQUANT	9	I/E Range
ACHSELECT	IQUANT	0	Ach Select
ACHRANGE	IQUANT	2	Ach Range
ACHOFFSETENABLE	TOGGLE	F	Ach Offset Enable
ACHOFFSET	QUANT	0	Ach Offset (V)
ACHFILTER	IQUANT	1	Ach Filter
SENSECABLEID	IQUANT	14	Sense Cable ID
PWRCABLEID	IQUANT	14	Power Cable ID
DCCALDATE	LABEL	1/24/2022	DC Calibration Date
ACCALDATE	LABEL	4/2/2018	AC Calibration Date
FRAMEWORKVERSION	QUANT	7.06	Framework Version
INSTRUMENTVERSION	LABEL	4.30	Instrument Version
CURVE	TABLE	98
	Pt	T	Vf	Im	Vu	Sig	Ach	IERange	Over	Temp
	#	s	V vs. Ref.	A	V	V	V	#	bits	deg C
	0	-0.4	9.20709E-003	-1.28812E-005	0.00000E+000	1.00559E-002	0.00000E+000	9	...........	1425.95
	1	-0.3	9.88701E-003	-1.27777E-005	0.00000E+000	1.00559E-002	0.00000E+000	9	...........	1425.95
	2	-0.2	1.00419E-002	-1.26920E-005	0.00000E+000	1.00559E-002	0.00000E+000	9	...........	1425.95
	3	-0.1	1.00566E-002	-1.25999E-005	0.00000E+000	1.00559E-002	0.00000E+000	9	...........	1425.95
	4	0	1.00552E-002	-1.25164E-005	0.00000E+000	1.00559E-002	0.00000E+000	9	...........	1425.95
	5	0.1	4.81612E-005	-3.89443E-005	0.00000E+000	5.34840E-005	0.00000E+000	9	...........	1425.95
	6	0.2	4.86338E-005	-2.87072E-005	0.00000E+000	5.34840E-005	0.00000E+000	9	...........	1425.95
	7	0.3	4.89772E-005	-2.33924E-005	0.00000E+000	5.34840E-005	0.00000E+000	9	...........	1425.95
	8	0.4	4.92415E-005	-2.03828E-005	0.00000E+000	5.34840E-005	0.00000E+000	9	...........	1425.95
	9	0.5	4.89091E-005	-1.85811E-005	0.00000E+000	5.34840E-005	0.00000E+000	9	...........	1425.95
	10	0.6	4.94057E-005	-1.74224E-005	0.00000E+000	5.34840E-005	0.00000E+000	9	...........	1425.87
	11	0.7	4.81021E-005	-1.66485E-005	0.00000E+000	5.34840E-005	0.00000E+000	9	...........	1425.87
	12	0.8	4.83043E-005	-1.60791E-005	0.00000E+000	5.34840E-005	0.00000E+000	9	...........	1425.87
	13	0.9	4.84405E-005	-1.56599E-005	0.00000E+000	5.34840E-005	0.00000E+000	9	...........	1425.87
	14	1	4.88040E-005	-1.53366E-005	0.00000E+000	5.34840E-005	0.00000E+000	9	...........	1425.87
	15	1.1	4.80360E-005	-1.50679E-005	0.00000E+000	5.34840E-005	0.00000E+000	9	...........	1425.87
	16	1.2	4.84045E-005	-1.48458E-005	0.00000E+000	5.34840E-005	0.00000E+000	9	...........	1425.87
	17	1.3	4.96260E-005	-1.46430E-005	0.00000E+000	5.34840E-005	0.00000E+000	9	...........	1425.87
	18	1.4	4.77357E-005	-1.44824E-005	0.00000E+000	5.34840E-005	0.00000E+000	9	...........	1425.87
	19	1.5	4.95209E-005	-1.43223E-005	0.00000E+000	5.34840E-005	0.00000E+000	9	...........	1425.87
	20	1.6	4.98783E-005	-1.41845E-005	0.00000E+000	5.34840E-005	0.00000E+000	9	...........	1426.13
	21	1.7	4.91194E-005	-1.40624E-005	0.00000E+000	5.34840E-005	0.00000E+000	9	...........	1426.13
	22	1.8	4.85667E-005	-1.39584E-005	0.00000E+000	5.34840E-005	0.00000E+000	9	...........	1426.13
	23	1.9	4.82062E-005	-1.38506E-005	0.00000E+000	5.34840E-005	0.00000E+000	9	...........	1426.13
	24	2	4.88931E-005	-1.37448E-005	0.00000E+000	5.34840E-005	0.00000E+000	9	...........	1426.13
	25	2.1	4.95939E-005	-1.36608E-005	0.00000E+000	5.34840E-005	0.00000E+000	9	...........	1426.13
	26	2.2	4.81191E-005	-1.35755E-005	0.00000E+000	5.34840E-005	0.00000E+000	9	...........	1426.13
	27	2.3	4.67564E-005	-1.34938E-005	0.00000E+000	5.34840E-005	0.00000E+000	9	...........	1426.13
	28	2.4	4.83354E-005	-1.34174E-005	0.00000E+000	5.34840E-005	0.00000E+000	9	...........	1426.13
	29	2.5	4.81301E-005	-1.33492E-005	0.00000E+000	5.34840E-005	0.00000E+000	9	...........	1426.13
	30	2.6	4.80581E-005	-1.32768E-005	0.00000E+000	5.34840E-005	0.00000E+000	9	...........	1426.13
	31	2.7	4.80410E-005	-1.31967E-005	0.00000E+000	5.34840E-005	0.00000E+000	9	...........	1426.13
	32	2.8	4.75945E-005	-1.31364E-005	0.00000E+000	5.34840E-005	0.00000E+000	9	...........	1426.13
	33	2.9	4.78057E-005	-1.30804E-005	0.00000E+000	5.34840E-005	0.00000E+000	9	...........	1426.13
	34	3	4.76816E-005	-1.30146E-005	0.00000E+000	5.34840E-005	0.00000E+000	9	...........	1426.13
	35	3.1	4.87649E-005	-1.29523E-005	0.00000E+000	5.34840E-005	0.00000E+000	9	...........	1426.13
	36	3.2	4.96831E-005	-1.28947E-005	0.00000E+000	5.34840E-005	0.00000E+000	9	...........	1426.13
	37	3.3	4.83134E-005	-1.28436E-005	0.00000E+000	5.34840E-005	0.00000E+000	9	...........	1426.13
	38	3.4	4.85266E-005	-1.27870E-005	0.00000E+000	5.34840E-005	0.00000E+000	9	...........	1426.13
	39	3.5	4.82703E-005	-1.27335E-005	0.00000E+000	5.34840E-005	0.00000E+000	9	...........	1426.13
	40	3.6	4.75104E-005	-1.26860E-005	0.00000E+000	5.34840E-005	0.00000E+000	9	...........	1426.13
	41	3.7	4.85256E-005	-1.26244E-005	0.00000E+000	5.34840E-005	0.00000E+000	9	...........	1426.13
	42	3.8	4.72731E-005	-1.25730E-005	0.00000E+000	5.34840E-005	0.00000E+000	9	...........	1426.13
	43	3.9	4.78037E-005	-1.25204E-005	0.00000E+000	5.34840E-005	0.00000E+000	9	...........	1426.13
	44	4	4.71800E-005	-1.24745E-005	0.00000E+000	5.34840E-005	0.00000E+000	9	...........	1426.13
	45	4.1	4.74373E-005	-1.24244E-005	0.00000E+000	5.34840E-005	0.00000E+000	9	...........	1426.13
	46	4.2	4.71039E-005	-1.23773E-005	0.00000E+000	5.34840E-005	0.00000E+000	9	...........	1426.13
	47	4.3	4.76546E-005	-1.23269E-005	0.00000E+000	5.34840E-005	0.00000E+000	9	...........	1426.13
	48	4.4	4.83724E-005	-1.22872E-005	0.00000E+000	5.34840E-005	0.00000E+000	9	...........	1426.13
	49	4.5	4.81622E-005	-1.22450E-005	0.00000E+000	5.34840E-005	0.00000E+000	9	...........	1426.13
	50	4.6	4.89772E-005	-1.21973E-005	0.00000E+000	5.34840E-005	0.00000E+000	9	...........	1426.13
	51	4.7	4.84926E-005	-1.21529E-005	0.00000E+000	5.34840E-005	0.00000E+000	9	...........	1426.13
	52	4.8	4.86227E-005	-1.21164E-005	0.00000E+000	5.34840E-005	0.00000E+000	9	...........	1426.13
	53	4.9	4.87259E-005	-1.20699E-005	0.00000E+000	5.34840E-005	0.00000E+000	9	...........	1426.13
	54	5	4.93827E-005	-1.20242E-005	0.00000E+000	5.34840E-005	0.00000E+000	9	...........	1426.13
	55	5.1	4.87899E-005	-1.19829E-005	0.00000E+000	5.34840E-005	0.00000E+000	9	...........	1426.13
	56	5.2	4.85376E-005	-1.19410E-005	0.00000E+000	5.34840E-005	0.00000E+000	9	...........	1426.13
	57	5.3	4.91003E-005	-1.19029E-005	0.00000E+000	5.34840E-005	0.00000E+000	9	...........	1426.13
	58	5.4	4.84375E-005	-1.18745E-005	0.00000E+000	5.34840E-005	0.00000E+000	9	...........	1426.13
	59	5.5	4.90703E-005	-1.18279E-005	0.00000E+000	5.34840E-005	0.00000E+000	9	...........	1426.13
	60	5.6	4.87759E-005	-1.17969E-005	0.00000E+000	5.34840E-005	0.00000E+000	9	...........	1426.13
	61	5.7	4.86908E-005	-1.17610E-005	0.00000E+000	5.34840E-005	0.00000E+000	9	...........	1426.13
	62	5.8	4.91314E-005	-1.17217E-005	0.00000E+000	5.34840E-005	0.00000E+000	9	...........	1426.13
	63	5.9	4.94017E-005	-1.16892E-005	0.00000E+000	5.34840E-005	0.00000E+000	9	...........	1426.13
	64	6	4.80090E-005	-1.16606E-005	0.00000E+000	5.34840E-005	0.00000E+000	9	...........	1426.13
	65	6.1	4.85857E-005	-1.16252E-005	0.00000E+000	5.34840E-005	0.00000E+000	9	...........	1426.13
	66	7.1	4.84205E-005	-1.13317E-005	0.00000E+000	5.34840E-005	0.00000E+000	9	...........	1426.22
	67	8.1	4.88680E-005	-1.10740E-005	0.00000E+000	5.34840E-005	0.00000E+000	9	...........	1426.13
	68	9.1	4.83614E-005	-1.08548E-005	0.00000E+000	5.34840E-005	0.00000E+000	9	...........	1426.22
	69	10.1	5.00625E-005	-1.07135E-005	0.00000E+000	5.34840E-005	0.00000E+000	9	...........	1426.22
	70	11.1	4.96780E-005	-1.05930E-005	0.00000E+000	5.34840E-005	0.00000E+000	9	...........	1426.22
	71	12.1	4.98292E-005	-1.04937E-005	0.00000E+000	5.34840E-005	0.00000E+000	9	...........	1426.22
	72	13.1	4.82923E-005	-1.04134E-005	0.00000E+000	5.34840E-005	0.00000E+000	9	...........	1426.22
	73	14.1	4.79349E-005	-1.03456E-005	0.00000E+000	5.34840E-005	0.00000E+000	9	...........	1426.31
	74	15.1	4.92996E-005	-1.02197E-005	0.00000E+000	5.34840E-005	0.00000E+000	9	...........	1426.22
	75	16.1	4.85416E-005	-1.01263E-005	0.00000E+000	5.34840E-005	0.00000E+000	9	...........	1426.22
	76	26.1	4.81962E-005	-9.28083E-006	0.00000E+000	5.34840E-005	0.00000E+000	9	...........	1426.22
	77	36.1	4.79840E-005	-8.78031E-006	0.00000E+000	5.34840E-005	0.00000E+000	9	...........	1426.22
	78	46.1	4.86928E-005	-8.85485E-006	0.00000E+000	5.34840E-005	0.00000E+000	9	...........	1426.22
	79	56.1	4.85376E-005	-8.70473E-006	0.00000E+000	5.34840E-005	0.00000E+000	9	...........	1426.22
	80	66.1	4.82513E-005	-8.35637E-006	0.00000E+000	5.34840E-005	0.00000E+000	9	...........	1426.22
	81	76.1	4.72300E-005	-8.40352E-006	0.00000E+000	5.34840E-005	0.00000E+000	9	...........	1426.22
	82	86.1	4.72841E-005	-8.57410E-006	0.00000E+000	5.34840E-005	0.00000E+000	9	...........	1426.22
	83	96.1	5.03018E-005	-8.42835E-006	0.00000E+000	5.34840E-005	0.00000E+000	9	...........	1426.22
	84	106.1	4.84876E-005	-8.33822E-006	0.00000E+000	5.34840E-005	0.00000E+000	9	...........	1426.22
	85	116.1	4.77907E-005	-8.52018E-006	0.00000E+000	5.34840E-005	0.00000E+000	9	...........	1426.22
	86	216.1	4.89121E-005	-7.94582E-006	0.00000E+000	5.34840E-005	0.00000E+000	9	...........	1426.22
	87	300	4.71029E-005	-7.64454E-006	0.00000E+000	5.34840E-005	0.00000E+000	9	...........	1426.22
	88	300.1	-3.29270E-002	-2.66434E-004	0.00000E+000	-9.99460E-002	0.00000E+000	9	.........v.	1426.22
	89	300.2	-9.99785E-002	-1.67960E-004	0.00000E+000	-9.99460E-002	0.00000E+000	9	...........	1426.22
	90	300.3	-9.99793E-002	-1.19254E-004	0.00000E+000	-9.99460E-002	0.00000E+000	9	...........	1426.22
	91	300.4	-9.99783E-002	-9.25073E-005	0.00000E+000	-9.99460E-002	0.00000E+000	9	...........	1426.22
	92	300.5	-9.99779E-002	-7.65732E-005	0.00000E+000	-9.99460E-002	0.00000E+000	9	...........	1426.22
	93	300.6	-9.99807E-002	-6.64199E-005	0.00000E+000	-9.99460E-002	0.00000E+000	9	...........	1426.31
	94	300.7	-9.99770E-002	-5.95273E-005	0.00000E+000	-9.99460E-002	0.00000E+000	9	...........	1426.31
	95	300.8	-9.99768E-002	-5.46167E-005	0.00000E+000	-9.99460E-002	0.00000E+000	9	...........	1426.31
	96	300.9	-9.99796E-002	-5.09621E-005	0.00000E+000	-9.99460E-002	0.00000E+000	9	...........	1426.31
	97	301	-9.99781E-002	-4.81194E-005	0.00000E+000	-9.99460E-002	0.00000E+000	9	...........	1426.31
