EXPLAIN
TAG	CHRONOA
TITLE	LABEL	Chronoamperometry Scan	Test Identifier
DATE	LABEL	17/2/2022	Date
TIME	LABEL	14:10:49	Time
NOTES	NOTES	1	Notes...
	
PSTAT	PSTAT	IFC1010-21051	Potentiostat
VPRESTEP	POTEN	1.00000E-002	F	Pre-step Voltage (V)
TPRESTEP	QUANT	5.00000E-001	Pre-step Delay Time (s)
VSTEP1	POTEN	0.00000E+000	F	Step 1 Voltage (V)
TSTEP1	QUANT	3.00000E+002	Step 1 Time (s)
VSTEP2	POTEN	-1.00000E-001	F	Step 2 Voltage (V)
TSTEP2	QUANT	1.00000E+000	Step 2 Time (s)
SAMPLETIME	QUANT	1.00000E-001	Sample Period (s)
DECIMATE	TOGGLE	T	Decimate
ILIMIT	QUANT	1.00000E+000	Limit I (mA/cm^2)
IMODE	SELECTOR	1	I/E Range Mode
IRANGE	QUANT	3.00000E-001	Max Current (mA)
EQDELAY	QUANT	5.00000E+000	Equil. Time (s)
SAMPLINGMODE	SELECTOR	1	Sampling Mode
AREA	QUANT	1.00000E+000	Sample Area (cm^2)
IRCOMP	SELECTOR	0	IRComp
PFCOR	QUANT	5.00000E+001	PF Corr. (ohm)
SEQUENCER	TOGGLE	TRUE	Run as Sequence
PSTATMODEL	IQUANT	64	Pstat Model
PSTATSECTION	LABEL	IFC1010-21051	Pstat Section
PSTATSERIALNO	LABEL	21051	Pstat Serial Number
CTRLMODE	IQUANT	1	Control Mode
ELECTROMETER	IQUANT	0	RE=0 or CS=1
IESTAB	IQUANT	0	I/E Stability
CASPEED	IQUANT	4	Control Amp Speed
CONVENTION	IQUANT	1	Current Convention
ICHRANGE	IQUANT	2	Ich Range
ICHRANGEMODE	TOGGLE	T	Ich Auto Range
ICHOFFSETENABLE	TOGGLE	F	Ich Offset Enable
ICHOFFSET	QUANT	0	Ich Offset (V)
ICHFILTER	IQUANT	3	Ich Filter
VCHRANGE	IQUANT	3	Vch Range
VCHRANGEMODE	TOGGLE	T	Vch Auto Range
VCHOFFSETENABLE	TOGGLE	F	Vch Offset Enable
VCHOFFSET	QUANT	0	Vch Offset (V)
VCHFILTER	IQUANT	3	Vch Filter
IERANGELOWERLIMIT	IQUANT	4	I/E Range Lower Limit
IERANGEMODE	TOGGLE	F	I/E AutoRange
IERANGE	IQUANT	9	I/E Range
ACHSELECT	IQUANT	0	Ach Select
ACHRANGE	IQUANT	2	Ach Range
ACHOFFSETENABLE	TOGGLE	F	Ach Offset Enable
ACHOFFSET	QUANT	0	Ach Offset (V)
ACHFILTER	IQUANT	1	Ach Filter
SENSECABLEID	IQUANT	14	Sense Cable ID
PWRCABLEID	IQUANT	14	Power Cable ID
DCCALDATE	LABEL	1/24/2022	DC Calibration Date
ACCALDATE	LABEL	4/2/2018	AC Calibration Date
FRAMEWORKVERSION	QUANT	7.06	Framework Version
INSTRUMENTVERSION	LABEL	4.30	Instrument Version
CURVE	TABLE	98
	Pt	T	Vf	Im	Vu	Sig	Ach	IERange	Over	Temp
	#	s	V vs. Ref.	A	V	V	V	#	bits	deg C
	0	-0.4	9.22190E-003	-2.24073E-005	0.00000E+000	1.00559E-002	0.00000E+000	9	...........	1426.04
	1	-0.3	9.87590E-003	-2.22358E-005	0.00000E+000	1.00559E-002	0.00000E+000	9	...........	1426.04
	2	-0.2	1.00416E-002	-2.20704E-005	0.00000E+000	1.00559E-002	0.00000E+000	9	...........	1426.04
	3	-0.1	1.00575E-002	-2.18937E-005	0.00000E+000	1.00559E-002	0.00000E+000	9	...........	1426.04
	4	0	1.00566E-002	-2.17386E-005	0.00000E+000	1.00559E-002	0.00000E+000	9	...........	1426.04
	5	0.1	4.92786E-005	-5.11989E-005	0.00000E+000	5.34840E-005	0.00000E+000	9	...........	1426.04
	6	0.2	5.00295E-005	-4.21768E-005	0.00000E+000	5.34840E-005	0.00000E+000	9	...........	1426.04
	7	0.3	4.89001E-005	-3.68220E-005	0.00000E+000	5.34840E-005	0.00000E+000	9	...........	1426.04
	8	0.4	4.96170E-005	-3.33658E-005	0.00000E+000	5.34840E-005	0.00000E+000	9	...........	1426.04
	9	0.5	4.89001E-005	-3.09960E-005	0.00000E+000	5.34840E-005	0.00000E+000	9	...........	1426.04
	10	0.6	4.89732E-005	-2.92982E-005	0.00000E+000	5.34840E-005	0.00000E+000	9	...........	1426.04
	11	0.7	4.89792E-005	-2.80326E-005	0.00000E+000	5.34840E-005	0.00000E+000	9	...........	1426.04
	12	0.8	4.75905E-005	-2.70672E-005	0.00000E+000	5.34840E-005	0.00000E+000	9	...........	1426.04
	13	0.9	4.78918E-005	-2.62978E-005	0.00000E+000	5.34840E-005	0.00000E+000	9	...........	1426.04
	14	1	4.87229E-005	-2.56693E-005	0.00000E+000	5.34840E-005	0.00000E+000	9	...........	1426.04
	15	1.1	4.77357E-005	-2.51476E-005	0.00000E+000	5.34840E-005	0.00000E+000	9	...........	1426.40
	16	1.2	4.89061E-005	-2.47017E-005	0.00000E+000	5.34840E-005	0.00000E+000	9	...........	1426.40
	17	1.3	4.78818E-005	-2.43231E-005	0.00000E+000	5.34840E-005	0.00000E+000	9	...........	1426.40
	18	1.4	4.79119E-005	-2.39826E-005	0.00000E+000	5.34840E-005	0.00000E+000	9	...........	1426.40
	19	1.5	4.76275E-005	-2.36815E-005	0.00000E+000	5.34840E-005	0.00000E+000	9	...........	1426.40
	20	1.6	4.78888E-005	-2.33975E-005	0.00000E+000	5.34840E-005	0.00000E+000	9	...........	1426.40
	21	1.7	4.85036E-005	-2.31359E-005	0.00000E+000	5.34840E-005	0.00000E+000	9	...........	1426.40
	22	1.8	4.73672E-005	-2.28879E-005	0.00000E+000	5.34840E-005	0.00000E+000	9	...........	1426.40
	23	1.9	4.79469E-005	-2.26692E-005	0.00000E+000	5.34840E-005	0.00000E+000	9	...........	1426.40
	24	2	4.67064E-005	-2.24591E-005	0.00000E+000	5.34840E-005	0.00000E+000	9	...........	1426.40
	25	2.1	4.68646E-005	-2.22557E-005	0.00000E+000	5.34840E-005	0.00000E+000	9	...........	1426.40
	26	2.2	4.74203E-005	-2.20757E-005	0.00000E+000	5.34840E-005	0.00000E+000	9	...........	1426.40
	27	2.3	4.73011E-005	-2.18915E-005	0.00000E+000	5.34840E-005	0.00000E+000	9	...........	1426.40
	28	2.4	4.74613E-005	-2.17280E-005	0.00000E+000	5.34840E-005	0.00000E+000	9	...........	1426.40
	29	2.5	4.70839E-005	-2.15717E-005	0.00000E+000	5.34840E-005	0.00000E+000	9	...........	1426.40
	30	2.6	4.72911E-005	-2.14225E-005	0.00000E+000	5.34840E-005	0.00000E+000	9	...........	1426.40
	31	2.7	4.82012E-005	-2.12725E-005	0.00000E+000	5.34840E-005	0.00000E+000	9	...........	1426.40
	32	2.8	4.84095E-005	-2.11253E-005	0.00000E+000	5.34840E-005	0.00000E+000	9	...........	1426.40
	33	2.9	4.71519E-005	-2.09933E-005	0.00000E+000	5.34840E-005	0.00000E+000	9	...........	1426.40
	34	3	4.66673E-005	-2.08543E-005	0.00000E+000	5.34840E-005	0.00000E+000	9	...........	1426.40
	35	3.1	4.74203E-005	-2.07286E-005	0.00000E+000	5.34840E-005	0.00000E+000	9	...........	1426.40
	36	3.2	4.83114E-005	-2.06056E-005	0.00000E+000	5.34840E-005	0.00000E+000	9	...........	1426.40
	37	3.3	4.74133E-005	-2.04865E-005	0.00000E+000	5.34840E-005	0.00000E+000	9	...........	1426.40
	38	3.4	4.73312E-005	-2.03722E-005	0.00000E+000	5.34840E-005	0.00000E+000	9	...........	1426.40
	39	3.5	4.69537E-005	-2.02696E-005	0.00000E+000	5.34840E-005	0.00000E+000	9	...........	1426.40
	40	3.6	4.74022E-005	-2.01493E-005	0.00000E+000	5.34840E-005	0.00000E+000	9	...........	1426.40
	41	3.7	4.75344E-005	-2.00419E-005	0.00000E+000	5.34840E-005	0.00000E+000	9	...........	1426.40
	42	3.8	4.71740E-005	-1.99352E-005	0.00000E+000	5.34840E-005	0.00000E+000	9	...........	1426.40
	43	3.9	4.74052E-005	-1.98244E-005	0.00000E+000	5.34840E-005	0.00000E+000	9	...........	1426.40
	44	4	4.82112E-005	-1.97183E-005	0.00000E+000	5.34840E-005	0.00000E+000	9	...........	1426.40
	45	4.1	4.88630E-005	-1.96104E-005	0.00000E+000	5.34840E-005	0.00000E+000	9	...........	1426.31
	46	4.2	4.83124E-005	-1.95150E-005	0.00000E+000	5.34840E-005	0.00000E+000	9	...........	1426.31
	47	4.3	4.79710E-005	-1.94125E-005	0.00000E+000	5.34840E-005	0.00000E+000	9	...........	1426.31
	48	4.4	4.72040E-005	-1.93160E-005	0.00000E+000	5.34840E-005	0.00000E+000	9	...........	1426.31
	49	4.5	4.77657E-005	-1.92218E-005	0.00000E+000	5.34840E-005	0.00000E+000	9	...........	1426.31
	50	4.6	4.61307E-005	-1.91307E-005	0.00000E+000	5.34840E-005	0.00000E+000	9	...........	1426.31
	51	4.7	4.87059E-005	-1.90456E-005	0.00000E+000	5.34840E-005	0.00000E+000	9	...........	1426.31
	52	4.8	4.72671E-005	-1.89734E-005	0.00000E+000	5.34840E-005	0.00000E+000	9	...........	1426.31
	53	4.9	4.75004E-005	-1.88921E-005	0.00000E+000	5.34840E-005	0.00000E+000	9	...........	1426.31
	54	5	4.74613E-005	-1.88112E-005	0.00000E+000	5.34840E-005	0.00000E+000	9	...........	1426.31
	55	5.1	4.79459E-005	-1.87403E-005	0.00000E+000	5.34840E-005	0.00000E+000	9	...........	1426.04
	56	5.2	4.62949E-005	-1.86764E-005	0.00000E+000	5.34840E-005	0.00000E+000	9	...........	1426.04
	57	5.3	4.77777E-005	-1.86038E-005	0.00000E+000	5.34840E-005	0.00000E+000	9	...........	1426.04
	58	5.4	4.68316E-005	-1.85408E-005	0.00000E+000	5.34840E-005	0.00000E+000	9	...........	1426.04
	59	5.5	4.66743E-005	-1.84671E-005	0.00000E+000	5.34840E-005	0.00000E+000	9	...........	1426.04
	60	5.6	4.76466E-005	-1.83954E-005	0.00000E+000	5.34840E-005	0.00000E+000	9	...........	1426.04
	61	5.7	4.62548E-005	-1.83423E-005	0.00000E+000	5.34840E-005	0.00000E+000	9	...........	1426.04
	62	5.8	4.68195E-005	-1.82780E-005	0.00000E+000	5.34840E-005	0.00000E+000	9	...........	1426.04
	63	5.9	4.69557E-005	-1.82096E-005	0.00000E+000	5.34840E-005	0.00000E+000	9	...........	1426.04
	64	6	4.75054E-005	-1.81387E-005	0.00000E+000	5.34840E-005	0.00000E+000	9	...........	1426.04
	65	6.1	4.76976E-005	-1.80746E-005	0.00000E+000	5.34840E-005	0.00000E+000	9	...........	1426.31
	66	7.1	4.73281E-005	-1.75124E-005	0.00000E+000	5.34840E-005	0.00000E+000	9	...........	1426.40
	67	8.1	4.59534E-005	-1.69652E-005	0.00000E+000	5.34840E-005	0.00000E+000	9	...........	1426.40
	68	9.1	4.63830E-005	-1.64521E-005	0.00000E+000	5.34840E-005	0.00000E+000	9	...........	1426.40
	69	10.1	4.68005E-005	-1.60219E-005	0.00000E+000	5.34840E-005	0.00000E+000	9	...........	1426.40
	70	11.1	4.68345E-005	-1.55825E-005	0.00000E+000	5.34840E-005	0.00000E+000	9	...........	1426.40
	71	12.1	4.75064E-005	-1.53053E-005	0.00000E+000	5.34840E-005	0.00000E+000	9	...........	1426.40
	72	13.1	4.72481E-005	-1.50310E-005	0.00000E+000	5.34840E-005	0.00000E+000	9	...........	1426.40
	73	14.1	4.71780E-005	-1.48169E-005	0.00000E+000	5.34840E-005	0.00000E+000	9	...........	1426.40
	74	15.1	4.78528E-005	-1.46502E-005	0.00000E+000	5.34840E-005	0.00000E+000	9	...........	1426.40
	75	16.1	4.69447E-005	-1.44281E-005	0.00000E+000	5.34840E-005	0.00000E+000	9	...........	1426.40
	76	26.1	4.78057E-005	-1.34294E-005	0.00000E+000	5.34840E-005	0.00000E+000	9	...........	1426.40
	77	36.1	4.60957E-005	-1.26211E-005	0.00000E+000	5.34840E-005	0.00000E+000	9	...........	1426.40
	78	46.1	4.46559E-005	-1.26377E-005	0.00000E+000	5.34840E-005	0.00000E+000	9	...........	1426.31
	79	56.1	4.52246E-005	-1.20963E-005	0.00000E+000	5.34840E-005	0.00000E+000	9	...........	1426.31
	80	66.1	4.59514E-005	-1.22075E-005	0.00000E+000	5.34840E-005	0.00000E+000	9	...........	1426.40
	81	76.1	4.48241E-005	-1.18281E-005	0.00000E+000	5.34840E-005	0.00000E+000	9	...........	1426.40
	82	86.1	4.55470E-005	-1.17749E-005	0.00000E+000	5.34840E-005	0.00000E+000	9	...........	1426.40
	83	96.1	4.37177E-005	-1.15580E-005	0.00000E+000	5.34840E-005	0.00000E+000	9	...........	1426.40
	84	106.1	4.59404E-005	-1.15866E-005	0.00000E+000	5.34840E-005	0.00000E+000	9	...........	1426.40
	85	116.1	4.52816E-005	-1.11393E-005	0.00000E+000	5.34840E-005	0.00000E+000	9	...........	1426.40
	86	216.1	4.42734E-005	-1.03198E-005	0.00000E+000	5.34840E-005	0.00000E+000	9	...........	1426.40
	87	300	4.55139E-005	-9.52318E-006	0.00000E+000	5.34840E-005	0.00000E+000	9	...........	1426.31
	88	300.1	-3.29270E-002	-2.75360E-004	0.00000E+000	-9.99460E-002	0.00000E+000	9	.........v.	1426.40
	89	300.2	-9.99810E-002	-1.82538E-004	0.00000E+000	-9.99460E-002	0.00000E+000	9	...........	1426.40
	90	300.3	-9.99804E-002	-1.33762E-004	0.00000E+000	-9.99460E-002	0.00000E+000	9	...........	1426.40
	91	300.4	-9.99804E-002	-1.05123E-004	0.00000E+000	-9.99460E-002	0.00000E+000	9	...........	1426.40
	92	300.5	-9.99812E-002	-8.69992E-005	0.00000E+000	-9.99460E-002	0.00000E+000	9	...........	1426.40
	93	300.6	-9.99821E-002	-7.48429E-005	0.00000E+000	-9.99460E-002	0.00000E+000	9	...........	1426.40
	94	300.7	-9.99824E-002	-6.62824E-005	0.00000E+000	-9.99460E-002	0.00000E+000	9	...........	1426.40
	95	300.8	-9.99811E-002	-6.00086E-005	0.00000E+000	-9.99460E-002	0.00000E+000	9	...........	1426.40
	96	300.9	-9.99802E-002	-5.52337E-005	0.00000E+000	-9.99460E-002	0.00000E+000	9	...........	1426.40
	97	301	-9.99802E-002	-5.15115E-005	0.00000E+000	-9.99460E-002	0.00000E+000	9	...........	1426.40
