EXPLAIN
TAG	CHRONOA
TITLE	LABEL	Chronoamperometry Scan	Test Identifier
DATE	LABEL	17/2/2022	Date
TIME	LABEL	18:02:42	Time
NOTES	NOTES	1	Notes...
	
PSTAT	PSTAT	IFC1010-21051	Potentiostat
VPRESTEP	POTEN	3.00000E-001	F	Pre-step Voltage (V)
TPRESTEP	QUANT	5.00000E-001	Pre-step Delay Time (s)
VSTEP1	POTEN	4.00000E-001	F	Step 1 Voltage (V)
TSTEP1	QUANT	3.00000E+002	Step 1 Time (s)
VSTEP2	POTEN	3.00000E-001	F	Step 2 Voltage (V)
TSTEP2	QUANT	1.00000E+000	Step 2 Time (s)
SAMPLETIME	QUANT	1.00000E-001	Sample Period (s)
DECIMATE	TOGGLE	T	Decimate
ILIMIT	QUANT	1.00000E+000	Limit I (mA/cm^2)
IMODE	SELECTOR	1	I/E Range Mode
IRANGE	QUANT	3.00000E-001	Max Current (mA)
EQDELAY	QUANT	5.00000E+000	Equil. Time (s)
SAMPLINGMODE	SELECTOR	1	Sampling Mode
AREA	QUANT	1.00000E+000	Sample Area (cm^2)
IRCOMP	SELECTOR	0	IRComp
PFCOR	QUANT	5.00000E+001	PF Corr. (ohm)
SEQUENCER	TOGGLE	TRUE	Run as Sequence
PSTATMODEL	IQUANT	64	Pstat Model
PSTATSECTION	LABEL	IFC1010-21051	Pstat Section
PSTATSERIALNO	LABEL	21051	Pstat Serial Number
CTRLMODE	IQUANT	1	Control Mode
ELECTROMETER	IQUANT	0	RE=0 or CS=1
IESTAB	IQUANT	0	I/E Stability
CASPEED	IQUANT	4	Control Amp Speed
CONVENTION	IQUANT	1	Current Convention
ICHRANGE	IQUANT	2	Ich Range
ICHRANGEMODE	TOGGLE	T	Ich Auto Range
ICHOFFSETENABLE	TOGGLE	F	Ich Offset Enable
ICHOFFSET	QUANT	0	Ich Offset (V)
ICHFILTER	IQUANT	3	Ich Filter
VCHRANGE	IQUANT	3	Vch Range
VCHRANGEMODE	TOGGLE	T	Vch Auto Range
VCHOFFSETENABLE	TOGGLE	F	Vch Offset Enable
VCHOFFSET	QUANT	0	Vch Offset (V)
VCHFILTER	IQUANT	3	Vch Filter
IERANGELOWERLIMIT	IQUANT	4	I/E Range Lower Limit
IERANGEMODE	TOGGLE	F	I/E AutoRange
IERANGE	IQUANT	9	I/E Range
ACHSELECT	IQUANT	0	Ach Select
ACHRANGE	IQUANT	2	Ach Range
ACHOFFSETENABLE	TOGGLE	F	Ach Offset Enable
ACHOFFSET	QUANT	0	Ach Offset (V)
ACHFILTER	IQUANT	1	Ach Filter
SENSECABLEID	IQUANT	14	Sense Cable ID
PWRCABLEID	IQUANT	14	Power Cable ID
DCCALDATE	LABEL	1/24/2022	DC Calibration Date
ACCALDATE	LABEL	4/2/2018	AC Calibration Date
FRAMEWORKVERSION	QUANT	7.06	Framework Version
INSTRUMENTVERSION	LABEL	4.30	Instrument Version
CURVE	TABLE	98
	Pt	T	Vf	Im	Vu	Sig	Ach	IERange	Over	Temp
	#	s	V vs. Ref.	A	V	V	V	#	bits	deg C
	0	-0.4	2.99563E-001	1.16950E-005	0.00000E+000	3.00072E-001	0.00000E+000	9	...........	1426.22
	1	-0.3	3.00311E-001	1.15426E-005	0.00000E+000	3.00072E-001	0.00000E+000	9	...........	1426.22
	2	-0.2	3.00303E-001	1.14115E-005	0.00000E+000	3.00072E-001	0.00000E+000	9	...........	1426.22
	3	-0.1	3.00307E-001	1.13032E-005	0.00000E+000	3.00072E-001	0.00000E+000	9	...........	1426.22
	4	0	3.00297E-001	1.11596E-005	0.00000E+000	3.00072E-001	0.00000E+000	9	...........	1426.22
	5	0.1	4.00350E-001	4.20939E-004	0.00000E+000	4.00072E-001	0.00000E+000	9	...........	1426.22
	6	0.2	4.00357E-001	3.76989E-004	0.00000E+000	4.00072E-001	0.00000E+000	9	...........	1426.22
	7	0.3	4.00360E-001	3.43647E-004	0.00000E+000	4.00072E-001	0.00000E+000	9	...........	1426.22
	8	0.4	4.00350E-001	3.17936E-004	0.00000E+000	4.00072E-001	0.00000E+000	9	...........	1426.22
	9	0.5	4.00352E-001	2.97513E-004	0.00000E+000	4.00072E-001	0.00000E+000	9	...........	1426.22
	10	0.6	4.00352E-001	2.80779E-004	0.00000E+000	4.00072E-001	0.00000E+000	9	...........	1426.04
	11	0.7	4.00356E-001	2.66598E-004	0.00000E+000	4.00072E-001	0.00000E+000	9	...........	1426.04
	12	0.8	4.00368E-001	2.54325E-004	0.00000E+000	4.00072E-001	0.00000E+000	9	...........	1426.04
	13	0.9	4.00362E-001	2.43595E-004	0.00000E+000	4.00072E-001	0.00000E+000	9	...........	1426.04
	14	1	4.00358E-001	2.34017E-004	0.00000E+000	4.00072E-001	0.00000E+000	9	...........	1426.04
	15	1.1	4.00362E-001	2.25485E-004	0.00000E+000	4.00072E-001	0.00000E+000	9	...........	1426.04
	16	1.2	4.00362E-001	2.17758E-004	0.00000E+000	4.00072E-001	0.00000E+000	9	...........	1426.04
	17	1.3	4.00362E-001	2.10757E-004	0.00000E+000	4.00072E-001	0.00000E+000	9	...........	1426.04
	18	1.4	4.00364E-001	2.04337E-004	0.00000E+000	4.00072E-001	0.00000E+000	9	...........	1426.04
	19	1.5	4.00356E-001	1.98406E-004	0.00000E+000	4.00072E-001	0.00000E+000	9	...........	1426.04
	20	1.6	4.00366E-001	1.92904E-004	0.00000E+000	4.00072E-001	0.00000E+000	9	...........	1426.13
	21	1.7	4.00354E-001	1.87811E-004	0.00000E+000	4.00072E-001	0.00000E+000	9	...........	1426.13
	22	1.8	4.00374E-001	1.83036E-004	0.00000E+000	4.00072E-001	0.00000E+000	9	...........	1426.13
	23	1.9	4.00360E-001	1.78534E-004	0.00000E+000	4.00072E-001	0.00000E+000	9	...........	1426.13
	24	2	4.00361E-001	1.74346E-004	0.00000E+000	4.00072E-001	0.00000E+000	9	...........	1426.13
	25	2.1	4.00365E-001	1.70363E-004	0.00000E+000	4.00072E-001	0.00000E+000	9	...........	1426.13
	26	2.2	4.00361E-001	1.66581E-004	0.00000E+000	4.00072E-001	0.00000E+000	9	...........	1426.13
	27	2.3	4.00356E-001	1.63070E-004	0.00000E+000	4.00072E-001	0.00000E+000	9	...........	1426.13
	28	2.4	4.00352E-001	1.59695E-004	0.00000E+000	4.00072E-001	0.00000E+000	9	...........	1426.13
	29	2.5	4.00362E-001	1.56539E-004	0.00000E+000	4.00072E-001	0.00000E+000	9	...........	1426.13
	30	2.6	4.00355E-001	1.53475E-004	0.00000E+000	4.00072E-001	0.00000E+000	9	...........	1426.22
	31	2.7	4.00370E-001	1.50563E-004	0.00000E+000	4.00072E-001	0.00000E+000	9	...........	1426.22
	32	2.8	4.00359E-001	1.47787E-004	0.00000E+000	4.00072E-001	0.00000E+000	9	...........	1426.22
	33	2.9	4.00357E-001	1.45072E-004	0.00000E+000	4.00072E-001	0.00000E+000	9	...........	1426.22
	34	3	4.00352E-001	1.42578E-004	0.00000E+000	4.00072E-001	0.00000E+000	9	...........	1426.22
	35	3.1	4.00343E-001	1.40086E-004	0.00000E+000	4.00072E-001	0.00000E+000	9	...........	1426.22
	36	3.2	4.00351E-001	1.37737E-004	0.00000E+000	4.00072E-001	0.00000E+000	9	...........	1426.22
	37	3.3	4.00345E-001	1.35399E-004	0.00000E+000	4.00072E-001	0.00000E+000	9	...........	1426.22
	38	3.4	4.00350E-001	1.33212E-004	0.00000E+000	4.00072E-001	0.00000E+000	9	...........	1426.22
	39	3.5	4.00346E-001	1.31045E-004	0.00000E+000	4.00072E-001	0.00000E+000	9	...........	1426.22
	40	3.6	4.00360E-001	1.28925E-004	0.00000E+000	4.00072E-001	0.00000E+000	9	...........	1426.13
	41	3.7	4.00351E-001	1.26931E-004	0.00000E+000	4.00072E-001	0.00000E+000	9	...........	1426.13
	42	3.8	4.00353E-001	1.24988E-004	0.00000E+000	4.00072E-001	0.00000E+000	9	...........	1426.13
	43	3.9	4.00357E-001	1.23068E-004	0.00000E+000	4.00072E-001	0.00000E+000	9	...........	1426.13
	44	4	4.00355E-001	1.21187E-004	0.00000E+000	4.00072E-001	0.00000E+000	9	...........	1426.13
	45	4.1	4.00367E-001	1.19370E-004	0.00000E+000	4.00072E-001	0.00000E+000	9	...........	1426.13
	46	4.2	4.00367E-001	1.17599E-004	0.00000E+000	4.00072E-001	0.00000E+000	9	...........	1426.13
	47	4.3	4.00375E-001	1.15912E-004	0.00000E+000	4.00072E-001	0.00000E+000	9	...........	1426.13
	48	4.4	4.00355E-001	1.14292E-004	0.00000E+000	4.00072E-001	0.00000E+000	9	...........	1426.13
	49	4.5	4.00359E-001	1.12723E-004	0.00000E+000	4.00072E-001	0.00000E+000	9	...........	1426.13
	50	4.6	4.00357E-001	1.11154E-004	0.00000E+000	4.00072E-001	0.00000E+000	9	...........	1426.13
	51	4.7	4.00361E-001	1.09673E-004	0.00000E+000	4.00072E-001	0.00000E+000	9	...........	1426.13
	52	4.8	4.00358E-001	1.08181E-004	0.00000E+000	4.00072E-001	0.00000E+000	9	...........	1426.13
	53	4.9	4.00362E-001	1.06754E-004	0.00000E+000	4.00072E-001	0.00000E+000	9	...........	1426.13
	54	5	4.00364E-001	1.05354E-004	0.00000E+000	4.00072E-001	0.00000E+000	9	...........	1426.13
	55	5.1	4.00364E-001	1.03967E-004	0.00000E+000	4.00072E-001	0.00000E+000	9	...........	1426.13
	56	5.2	4.00369E-001	1.02554E-004	0.00000E+000	4.00072E-001	0.00000E+000	9	...........	1426.13
	57	5.3	4.00366E-001	1.01234E-004	0.00000E+000	4.00072E-001	0.00000E+000	9	...........	1426.13
	58	5.4	4.00371E-001	9.99439E-005	0.00000E+000	4.00072E-001	0.00000E+000	9	...........	1426.13
	59	5.5	4.00360E-001	9.86731E-005	0.00000E+000	4.00072E-001	0.00000E+000	9	...........	1426.13
	60	5.6	4.00363E-001	9.74292E-005	0.00000E+000	4.00072E-001	0.00000E+000	9	...........	1426.13
	61	5.7	4.00362E-001	9.62367E-005	0.00000E+000	4.00072E-001	0.00000E+000	9	...........	1426.13
	62	5.8	4.00350E-001	9.50372E-005	0.00000E+000	4.00072E-001	0.00000E+000	9	...........	1426.13
	63	5.9	4.00352E-001	9.38682E-005	0.00000E+000	4.00072E-001	0.00000E+000	9	...........	1426.13
	64	6	4.00361E-001	9.27302E-005	0.00000E+000	4.00072E-001	0.00000E+000	9	...........	1426.13
	65	6.1	4.00351E-001	9.16770E-005	0.00000E+000	4.00072E-001	0.00000E+000	9	...........	1426.13
	66	7.1	4.00354E-001	8.21585E-005	0.00000E+000	4.00072E-001	0.00000E+000	9	...........	1426.22
	67	8.1	4.00357E-001	7.43399E-005	0.00000E+000	4.00072E-001	0.00000E+000	9	...........	1426.13
	68	9.1	4.00360E-001	6.77587E-005	0.00000E+000	4.00072E-001	0.00000E+000	9	...........	1426.22
	69	10.1	4.00352E-001	6.19163E-005	0.00000E+000	4.00072E-001	0.00000E+000	9	...........	1426.22
	70	11.1	4.00348E-001	5.67310E-005	0.00000E+000	4.00072E-001	0.00000E+000	9	...........	1426.22
	71	12.1	4.00364E-001	5.24716E-005	0.00000E+000	4.00072E-001	0.00000E+000	9	...........	1426.13
	72	13.1	4.00365E-001	4.88977E-005	0.00000E+000	4.00072E-001	0.00000E+000	9	...........	1426.13
	73	14.1	4.00360E-001	4.60755E-005	0.00000E+000	4.00072E-001	0.00000E+000	9	...........	1426.22
	74	15.1	4.00363E-001	4.34602E-005	0.00000E+000	4.00072E-001	0.00000E+000	9	...........	1426.22
	75	16.1	4.00352E-001	4.10424E-005	0.00000E+000	4.00072E-001	0.00000E+000	9	...........	1426.22
	76	26.1	4.00360E-001	2.92481E-005	0.00000E+000	4.00072E-001	0.00000E+000	9	...........	1426.13
	77	36.1	4.00357E-001	2.43475E-005	0.00000E+000	4.00072E-001	0.00000E+000	9	...........	1426.22
	78	46.1	4.00355E-001	2.19386E-005	0.00000E+000	4.00072E-001	0.00000E+000	9	...........	1426.22
	79	56.1	4.00363E-001	2.03145E-005	0.00000E+000	4.00072E-001	0.00000E+000	9	...........	1426.22
	80	66.1	4.00355E-001	1.89181E-005	0.00000E+000	4.00072E-001	0.00000E+000	9	...........	1426.22
	81	76.1	4.00362E-001	1.81159E-005	0.00000E+000	4.00072E-001	0.00000E+000	9	...........	1426.22
	82	86.1	4.00351E-001	1.75662E-005	0.00000E+000	4.00072E-001	0.00000E+000	9	...........	1426.22
	83	96.1	4.00352E-001	1.74414E-005	0.00000E+000	4.00072E-001	0.00000E+000	9	...........	1426.13
	84	106.1	4.00362E-001	1.68636E-005	0.00000E+000	4.00072E-001	0.00000E+000	9	...........	1426.13
	85	116.1	4.00353E-001	1.68098E-005	0.00000E+000	4.00072E-001	0.00000E+000	9	...........	1426.13
	86	216.1	4.00356E-001	1.54813E-005	0.00000E+000	4.00072E-001	0.00000E+000	9	...........	1426.13
	87	300	4.00361E-001	1.50022E-005	0.00000E+000	4.00072E-001	0.00000E+000	9	...........	1426.22
	88	300.1	3.00312E-001	-2.75486E-004	0.00000E+000	3.00072E-001	0.00000E+000	9	...........	1426.22
	89	300.2	3.00310E-001	-2.03576E-004	0.00000E+000	3.00072E-001	0.00000E+000	9	...........	1426.22
	90	300.3	3.00324E-001	-1.61518E-004	0.00000E+000	3.00072E-001	0.00000E+000	9	...........	1426.22
	91	300.4	3.00312E-001	-1.34110E-004	0.00000E+000	3.00072E-001	0.00000E+000	9	...........	1426.22
	92	300.5	3.00307E-001	-1.15098E-004	0.00000E+000	3.00072E-001	0.00000E+000	9	...........	1426.22
	93	300.6	3.00324E-001	-1.01239E-004	0.00000E+000	3.00072E-001	0.00000E+000	9	...........	1426.22
	94	300.7	3.00309E-001	-9.06877E-005	0.00000E+000	3.00072E-001	0.00000E+000	9	...........	1426.22
	95	300.8	3.00310E-001	-8.24004E-005	0.00000E+000	3.00072E-001	0.00000E+000	9	...........	1426.22
	96	300.9	3.00305E-001	-7.57112E-005	0.00000E+000	3.00072E-001	0.00000E+000	9	...........	1426.22
	97	301	3.00311E-001	-7.01778E-005	0.00000E+000	3.00072E-001	0.00000E+000	9	...........	1426.22
