EXPLAIN
TAG	CHRONOA
TITLE	LABEL	Chronoamperometry Scan	Test Identifier
DATE	LABEL	17/2/2022	Date
TIME	LABEL	18:32:07	Time
NOTES	NOTES	1	Notes...
	
PSTAT	PSTAT	IFC1010-21051	Potentiostat
VPRESTEP	POTEN	1.00000E-002	F	Pre-step Voltage (V)
TPRESTEP	QUANT	5.00000E-001	Pre-step Delay Time (s)
VSTEP1	POTEN	0.00000E+000	F	Step 1 Voltage (V)
TSTEP1	QUANT	3.00000E+002	Step 1 Time (s)
VSTEP2	POTEN	-1.00000E-001	F	Step 2 Voltage (V)
TSTEP2	QUANT	1.00000E+000	Step 2 Time (s)
SAMPLETIME	QUANT	1.00000E-001	Sample Period (s)
DECIMATE	TOGGLE	T	Decimate
ILIMIT	QUANT	1.00000E+000	Limit I (mA/cm^2)
IMODE	SELECTOR	1	I/E Range Mode
IRANGE	QUANT	3.00000E-001	Max Current (mA)
EQDELAY	QUANT	5.00000E+000	Equil. Time (s)
SAMPLINGMODE	SELECTOR	1	Sampling Mode
AREA	QUANT	1.00000E+000	Sample Area (cm^2)
IRCOMP	SELECTOR	0	IRComp
PFCOR	QUANT	5.00000E+001	PF Corr. (ohm)
SEQUENCER	TOGGLE	TRUE	Run as Sequence
PSTATMODEL	IQUANT	64	Pstat Model
PSTATSECTION	LABEL	IFC1010-21051	Pstat Section
PSTATSERIALNO	LABEL	21051	Pstat Serial Number
CTRLMODE	IQUANT	1	Control Mode
ELECTROMETER	IQUANT	0	RE=0 or CS=1
IESTAB	IQUANT	0	I/E Stability
CASPEED	IQUANT	4	Control Amp Speed
CONVENTION	IQUANT	1	Current Convention
ICHRANGE	IQUANT	2	Ich Range
ICHRANGEMODE	TOGGLE	T	Ich Auto Range
ICHOFFSETENABLE	TOGGLE	F	Ich Offset Enable
ICHOFFSET	QUANT	0	Ich Offset (V)
ICHFILTER	IQUANT	3	Ich Filter
VCHRANGE	IQUANT	3	Vch Range
VCHRANGEMODE	TOGGLE	T	Vch Auto Range
VCHOFFSETENABLE	TOGGLE	F	Vch Offset Enable
VCHOFFSET	QUANT	0	Vch Offset (V)
VCHFILTER	IQUANT	3	Vch Filter
IERANGELOWERLIMIT	IQUANT	4	I/E Range Lower Limit
IERANGEMODE	TOGGLE	F	I/E AutoRange
IERANGE	IQUANT	9	I/E Range
ACHSELECT	IQUANT	0	Ach Select
ACHRANGE	IQUANT	2	Ach Range
ACHOFFSETENABLE	TOGGLE	F	Ach Offset Enable
ACHOFFSET	QUANT	0	Ach Offset (V)
ACHFILTER	IQUANT	1	Ach Filter
SENSECABLEID	IQUANT	14	Sense Cable ID
PWRCABLEID	IQUANT	14	Power Cable ID
DCCALDATE	LABEL	1/24/2022	DC Calibration Date
ACCALDATE	LABEL	4/2/2018	AC Calibration Date
FRAMEWORKVERSION	QUANT	7.06	Framework Version
INSTRUMENTVERSION	LABEL	4.30	Instrument Version
CURVE	TABLE	98
	Pt	T	Vf	Im	Vu	Sig	Ach	IERange	Over	Temp
	#	s	V vs. Ref.	A	V	V	V	#	bits	deg C
	0	-0.4	9.24393E-003	-5.32952E-006	0.00000E+000	1.00559E-002	0.00000E+000	9	...........	1426.22
	1	-0.3	9.88061E-003	-5.28757E-006	0.00000E+000	1.00559E-002	0.00000E+000	9	...........	1426.22
	2	-0.2	1.00383E-002	-5.24383E-006	0.00000E+000	1.00559E-002	0.00000E+000	9	...........	1426.22
	3	-0.1	1.00551E-002	-5.19825E-006	0.00000E+000	1.00559E-002	0.00000E+000	9	...........	1426.22
	4	0	1.00538E-002	-5.17406E-006	0.00000E+000	1.00559E-002	0.00000E+000	9	...........	1426.22
	5	0.1	4.58653E-005	-1.65985E-005	0.00000E+000	5.34840E-005	0.00000E+000	9	...........	1426.22
	6	0.2	4.51355E-005	-9.77290E-006	0.00000E+000	5.34840E-005	0.00000E+000	9	...........	1426.22
	7	0.3	4.40291E-005	-8.19851E-006	0.00000E+000	5.34840E-005	0.00000E+000	9	...........	1426.22
	8	0.4	4.60216E-005	-7.60660E-006	0.00000E+000	5.34840E-005	0.00000E+000	9	...........	1426.22
	9	0.5	4.64190E-005	-7.29314E-006	0.00000E+000	5.34840E-005	0.00000E+000	9	...........	1426.22
	10	0.6	4.57592E-005	-7.09611E-006	0.00000E+000	5.34840E-005	0.00000E+000	9	...........	1426.22
	11	0.7	4.56441E-005	-6.97508E-006	0.00000E+000	5.34840E-005	0.00000E+000	9	...........	1426.22
	12	0.8	4.46779E-005	-6.88532E-006	0.00000E+000	5.34840E-005	0.00000E+000	9	...........	1426.22
	13	0.9	4.51785E-005	-6.82506E-006	0.00000E+000	5.34840E-005	0.00000E+000	9	...........	1426.22
	14	1	4.51314E-005	-6.78816E-006	0.00000E+000	5.34840E-005	0.00000E+000	9	...........	1426.22
	15	1.1	4.44126E-005	-6.74575E-006	0.00000E+000	5.34840E-005	0.00000E+000	9	...........	1426.22
	16	1.2	4.44997E-005	-6.71254E-006	0.00000E+000	5.34840E-005	0.00000E+000	9	...........	1426.22
	17	1.3	4.37077E-005	-6.67611E-006	0.00000E+000	5.34840E-005	0.00000E+000	9	...........	1426.13
	18	1.4	4.45738E-005	-6.63233E-006	0.00000E+000	5.34840E-005	0.00000E+000	9	...........	1426.13
	19	1.5	4.43034E-005	-6.61524E-006	0.00000E+000	5.34840E-005	0.00000E+000	9	...........	1426.13
	20	1.6	4.43054E-005	-6.60890E-006	0.00000E+000	5.34840E-005	0.00000E+000	9	...........	1426.13
	21	1.7	4.39109E-005	-6.60804E-006	0.00000E+000	5.34840E-005	0.00000E+000	9	...........	1426.13
	22	1.8	4.48861E-005	-6.60473E-006	0.00000E+000	5.34840E-005	0.00000E+000	9	...........	1426.13
	23	1.9	4.53167E-005	-6.57116E-006	0.00000E+000	5.34840E-005	0.00000E+000	9	...........	1426.13
	24	2	4.62418E-005	-6.53252E-006	0.00000E+000	5.34840E-005	0.00000E+000	9	...........	1426.13
	25	2.1	4.47640E-005	-6.49081E-006	0.00000E+000	5.34840E-005	0.00000E+000	9	...........	1426.13
	26	2.2	4.46208E-005	-6.46682E-006	0.00000E+000	5.34840E-005	0.00000E+000	9	...........	1426.13
	27	2.3	4.44786E-005	-6.43025E-006	0.00000E+000	5.34840E-005	0.00000E+000	9	...........	1426.49
	28	2.4	4.58093E-005	-6.39295E-006	0.00000E+000	5.34840E-005	0.00000E+000	9	...........	1426.49
	29	2.5	4.50233E-005	-6.36288E-006	0.00000E+000	5.34840E-005	0.00000E+000	9	...........	1426.49
	30	2.6	4.49562E-005	-6.33869E-006	0.00000E+000	5.34840E-005	0.00000E+000	9	...........	1426.49
	31	2.7	4.48351E-005	-6.30609E-006	0.00000E+000	5.34840E-005	0.00000E+000	9	...........	1426.49
	32	2.8	4.58343E-005	-6.24192E-006	0.00000E+000	5.34840E-005	0.00000E+000	9	...........	1426.49
	33	2.9	4.56571E-005	-6.18336E-006	0.00000E+000	5.34840E-005	0.00000E+000	9	...........	1426.49
	34	3	4.63279E-005	-6.14032E-006	0.00000E+000	5.34840E-005	0.00000E+000	9	...........	1426.49
	35	3.1	4.57552E-005	-6.11199E-006	0.00000E+000	5.34840E-005	0.00000E+000	9	...........	1426.49
	36	3.2	4.56541E-005	-6.09190E-006	0.00000E+000	5.34840E-005	0.00000E+000	9	...........	1426.49
	37	3.3	4.64781E-005	-6.06511E-006	0.00000E+000	5.34840E-005	0.00000E+000	9	...........	1426.13
	38	3.4	4.51455E-005	-6.06494E-006	0.00000E+000	5.34840E-005	0.00000E+000	9	...........	1426.13
	39	3.5	4.61036E-005	-6.04719E-006	0.00000E+000	5.34840E-005	0.00000E+000	9	...........	1426.13
	40	3.6	4.68966E-005	-6.01723E-006	0.00000E+000	5.34840E-005	0.00000E+000	9	...........	1426.13
	41	3.7	4.53657E-005	-6.00171E-006	0.00000E+000	5.34840E-005	0.00000E+000	9	...........	1426.13
	42	3.8	4.51044E-005	-5.97862E-006	0.00000E+000	5.34840E-005	0.00000E+000	9	...........	1426.13
	43	3.9	4.43825E-005	-5.97221E-006	0.00000E+000	5.34840E-005	0.00000E+000	9	...........	1426.13
	44	4	4.51775E-005	-5.95166E-006	0.00000E+000	5.34840E-005	0.00000E+000	9	...........	1426.13
	45	4.1	4.52005E-005	-5.92620E-006	0.00000E+000	5.34840E-005	0.00000E+000	9	...........	1426.13
	46	4.2	4.55820E-005	-5.90741E-006	0.00000E+000	5.34840E-005	0.00000E+000	9	...........	1426.13
	47	4.3	4.38669E-005	-5.87718E-006	0.00000E+000	5.34840E-005	0.00000E+000	9	...........	1426.49
	48	4.4	4.53467E-005	-5.81812E-006	0.00000E+000	5.34840E-005	0.00000E+000	9	...........	1426.49
	49	4.5	4.51415E-005	-5.76957E-006	0.00000E+000	5.34840E-005	0.00000E+000	9	...........	1426.49
	50	4.6	4.54679E-005	-5.71832E-006	0.00000E+000	5.34840E-005	0.00000E+000	9	...........	1426.49
	51	4.7	4.53607E-005	-5.66710E-006	0.00000E+000	5.34840E-005	0.00000E+000	9	...........	1426.49
	52	4.8	4.37197E-005	-5.60894E-006	0.00000E+000	5.34840E-005	0.00000E+000	9	...........	1426.49
	53	4.9	4.42424E-005	-5.56339E-006	0.00000E+000	5.34840E-005	0.00000E+000	9	...........	1426.49
	54	5	4.51445E-005	-5.53950E-006	0.00000E+000	5.34840E-005	0.00000E+000	9	...........	1426.49
	55	5.1	4.56040E-005	-5.49806E-006	0.00000E+000	5.34840E-005	0.00000E+000	9	...........	1426.49
	56	5.2	4.52606E-005	-5.44417E-006	0.00000E+000	5.34840E-005	0.00000E+000	9	...........	1426.49
	57	5.3	4.52456E-005	-5.37740E-006	0.00000E+000	5.34840E-005	0.00000E+000	9	...........	1426.31
	58	5.4	4.63359E-005	-5.31300E-006	0.00000E+000	5.34840E-005	0.00000E+000	9	...........	1426.31
	59	5.5	4.54859E-005	-5.28297E-006	0.00000E+000	5.34840E-005	0.00000E+000	9	...........	1426.31
	60	5.6	4.47610E-005	-5.26498E-006	0.00000E+000	5.34840E-005	0.00000E+000	9	...........	1426.31
	61	5.7	4.35185E-005	-5.25307E-006	0.00000E+000	5.34840E-005	0.00000E+000	9	...........	1426.31
	62	5.8	4.44096E-005	-5.23312E-006	0.00000E+000	5.34840E-005	0.00000E+000	9	...........	1426.31
	63	5.9	4.48411E-005	-5.20929E-006	0.00000E+000	5.34840E-005	0.00000E+000	9	...........	1426.31
	64	6	4.42734E-005	-5.20352E-006	0.00000E+000	5.34840E-005	0.00000E+000	9	...........	1426.31
	65	6.1	4.45047E-005	-5.18070E-006	0.00000E+000	5.34840E-005	0.00000E+000	9	...........	1426.31
	66	7.1	4.45698E-005	-5.09364E-006	0.00000E+000	5.34840E-005	0.00000E+000	9	...........	1426.04
	67	8.1	4.58784E-005	-5.01439E-006	0.00000E+000	5.34840E-005	0.00000E+000	9	...........	1426.49
	68	9.1	4.55450E-005	-5.22791E-006	0.00000E+000	5.34840E-005	0.00000E+000	9	...........	1426.57
	69	10.1	4.50844E-005	-5.13268E-006	0.00000E+000	5.34840E-005	0.00000E+000	9	...........	1426.57
	70	11.1	4.55740E-005	-5.01583E-006	0.00000E+000	5.34840E-005	0.00000E+000	9	...........	1426.49
	71	12.1	4.53748E-005	-4.80221E-006	0.00000E+000	5.34840E-005	0.00000E+000	9	...........	1426.57
	72	13.1	4.48892E-005	-4.47183E-006	0.00000E+000	5.34840E-005	0.00000E+000	9	...........	1426.57
	73	14.1	4.64511E-005	-4.46659E-006	0.00000E+000	5.34840E-005	0.00000E+000	9	...........	1426.49
	74	15.1	4.51395E-005	-4.37840E-006	0.00000E+000	5.34840E-005	0.00000E+000	9	...........	1426.49
	75	16.1	4.59534E-005	-4.52185E-006	0.00000E+000	5.34840E-005	0.00000E+000	9	...........	1426.49
	76	26.1	4.60866E-005	-4.29435E-006	0.00000E+000	5.34840E-005	0.00000E+000	9	...........	1426.49
	77	36.1	4.43134E-005	-4.04039E-006	0.00000E+000	5.34840E-005	0.00000E+000	9	...........	1426.49
	78	46.1	4.40061E-005	-3.49579E-006	0.00000E+000	5.34840E-005	0.00000E+000	9	...........	1426.49
	79	56.1	4.35495E-005	-3.68979E-006	0.00000E+000	5.34840E-005	0.00000E+000	9	...........	1426.49
	80	66.1	4.35976E-005	-3.39819E-006	0.00000E+000	5.34840E-005	0.00000E+000	9	...........	1426.49
	81	76.1	4.22339E-005	-3.66994E-006	0.00000E+000	5.34840E-005	0.00000E+000	9	...........	1426.49
	82	86.1	4.38729E-005	-3.52886E-006	0.00000E+000	5.34840E-005	0.00000E+000	9	...........	1426.49
	83	96.1	4.53717E-005	-3.25998E-006	0.00000E+000	5.34840E-005	0.00000E+000	9	...........	1426.49
	84	106.1	4.38238E-005	-3.29011E-006	0.00000E+000	5.34840E-005	0.00000E+000	9	...........	1426.57
	85	116.1	4.51705E-005	-3.18107E-006	0.00000E+000	5.34840E-005	0.00000E+000	9	...........	1426.57
	86	216.1	4.64270E-005	-3.12174E-006	0.00000E+000	5.34840E-005	0.00000E+000	9	...........	1426.57
	87	300	4.51765E-005	-3.00148E-006	0.00000E+000	5.34840E-005	0.00000E+000	9	...........	1426.57
	88	300.1	-3.29270E-002	-1.22236E-004	0.00000E+000	-9.99460E-002	0.00000E+000	9	.........v.	1426.57
	89	300.2	-9.99814E-002	-6.06767E-005	0.00000E+000	-9.99460E-002	0.00000E+000	9	...........	1426.57
	90	300.3	-9.99817E-002	-4.90434E-005	0.00000E+000	-9.99460E-002	0.00000E+000	9	...........	1426.57
	91	300.4	-9.99804E-002	-4.53767E-005	0.00000E+000	-9.99460E-002	0.00000E+000	9	...........	1426.57
	92	300.5	-9.99802E-002	-4.35359E-005	0.00000E+000	-9.99460E-002	0.00000E+000	9	...........	1426.57
	93	300.6	-9.99803E-002	-4.22914E-005	0.00000E+000	-9.99460E-002	0.00000E+000	9	...........	1426.57
	94	300.7	-9.99801E-002	-4.13072E-005	0.00000E+000	-9.99460E-002	0.00000E+000	9	...........	1426.57
	95	300.8	-9.99803E-002	-4.04800E-005	0.00000E+000	-9.99460E-002	0.00000E+000	9	...........	1426.57
	96	300.9	-9.99813E-002	-3.97760E-005	0.00000E+000	-9.99460E-002	0.00000E+000	9	...........	1426.57
	97	301	-9.99803E-002	-3.91262E-005	0.00000E+000	-9.99460E-002	0.00000E+000	9	...........	1426.57
