EXPLAIN
TAG	CHRONOA
TITLE	LABEL	Chronoamperometry Scan	Test Identifier
DATE	LABEL	17/2/2022	Date
TIME	LABEL	17:23:29	Time
NOTES	NOTES	1	Notes...
	
PSTAT	PSTAT	IFC1010-21051	Potentiostat
VPRESTEP	POTEN	3.00000E-001	F	Pre-step Voltage (V)
TPRESTEP	QUANT	5.00000E-001	Pre-step Delay Time (s)
VSTEP1	POTEN	4.00000E-001	F	Step 1 Voltage (V)
TSTEP1	QUANT	3.00000E+002	Step 1 Time (s)
VSTEP2	POTEN	3.00000E-001	F	Step 2 Voltage (V)
TSTEP2	QUANT	1.00000E+000	Step 2 Time (s)
SAMPLETIME	QUANT	1.00000E-001	Sample Period (s)
DECIMATE	TOGGLE	T	Decimate
ILIMIT	QUANT	1.00000E+000	Limit I (mA/cm^2)
IMODE	SELECTOR	1	I/E Range Mode
IRANGE	QUANT	3.00000E-001	Max Current (mA)
EQDELAY	QUANT	5.00000E+000	Equil. Time (s)
SAMPLINGMODE	SELECTOR	1	Sampling Mode
AREA	QUANT	1.00000E+000	Sample Area (cm^2)
IRCOMP	SELECTOR	0	IRComp
PFCOR	QUANT	5.00000E+001	PF Corr. (ohm)
SEQUENCER	TOGGLE	TRUE	Run as Sequence
PSTATMODEL	IQUANT	64	Pstat Model
PSTATSECTION	LABEL	IFC1010-21051	Pstat Section
PSTATSERIALNO	LABEL	21051	Pstat Serial Number
CTRLMODE	IQUANT	1	Control Mode
ELECTROMETER	IQUANT	0	RE=0 or CS=1
IESTAB	IQUANT	0	I/E Stability
CASPEED	IQUANT	4	Control Amp Speed
CONVENTION	IQUANT	1	Current Convention
ICHRANGE	IQUANT	2	Ich Range
ICHRANGEMODE	TOGGLE	T	Ich Auto Range
ICHOFFSETENABLE	TOGGLE	F	Ich Offset Enable
ICHOFFSET	QUANT	0	Ich Offset (V)
ICHFILTER	IQUANT	3	Ich Filter
VCHRANGE	IQUANT	3	Vch Range
VCHRANGEMODE	TOGGLE	T	Vch Auto Range
VCHOFFSETENABLE	TOGGLE	F	Vch Offset Enable
VCHOFFSET	QUANT	0	Vch Offset (V)
VCHFILTER	IQUANT	3	Vch Filter
IERANGELOWERLIMIT	IQUANT	4	I/E Range Lower Limit
IERANGEMODE	TOGGLE	F	I/E AutoRange
IERANGE	IQUANT	9	I/E Range
ACHSELECT	IQUANT	0	Ach Select
ACHRANGE	IQUANT	2	Ach Range
ACHOFFSETENABLE	TOGGLE	F	Ach Offset Enable
ACHOFFSET	QUANT	0	Ach Offset (V)
ACHFILTER	IQUANT	1	Ach Filter
SENSECABLEID	IQUANT	14	Sense Cable ID
PWRCABLEID	IQUANT	14	Power Cable ID
DCCALDATE	LABEL	1/24/2022	DC Calibration Date
ACCALDATE	LABEL	4/2/2018	AC Calibration Date
FRAMEWORKVERSION	QUANT	7.06	Framework Version
INSTRUMENTVERSION	LABEL	4.30	Instrument Version
CURVE	TABLE	98
	Pt	T	Vf	Im	Vu	Sig	Ach	IERange	Over	Temp
	#	s	V vs. Ref.	A	V	V	V	#	bits	deg C
	0	-0.4	2.99536E-001	9.94291E-006	0.00000E+000	3.00072E-001	0.00000E+000	9	...........	1426.31
	1	-0.3	3.00297E-001	9.81945E-006	0.00000E+000	3.00072E-001	0.00000E+000	9	...........	1426.31
	2	-0.2	3.00318E-001	9.72749E-006	0.00000E+000	3.00072E-001	0.00000E+000	9	...........	1426.31
	3	-0.1	3.00307E-001	9.67316E-006	0.00000E+000	3.00072E-001	0.00000E+000	9	...........	1426.31
	4	0	3.00312E-001	9.57546E-006	0.00000E+000	3.00072E-001	0.00000E+000	9	...........	1426.31
	5	0.1	4.00355E-001	4.03799E-004	0.00000E+000	4.00072E-001	0.00000E+000	9	...........	1426.31
	6	0.2	4.00356E-001	3.64435E-004	0.00000E+000	4.00072E-001	0.00000E+000	9	...........	1426.31
	7	0.3	4.00359E-001	3.34012E-004	0.00000E+000	4.00072E-001	0.00000E+000	9	...........	1426.31
	8	0.4	4.00352E-001	3.10531E-004	0.00000E+000	4.00072E-001	0.00000E+000	9	...........	1426.31
	9	0.5	4.00343E-001	2.91627E-004	0.00000E+000	4.00072E-001	0.00000E+000	9	...........	1426.31
	10	0.6	4.00360E-001	2.75917E-004	0.00000E+000	4.00072E-001	0.00000E+000	9	...........	1426.31
	11	0.7	4.00352E-001	2.62504E-004	0.00000E+000	4.00072E-001	0.00000E+000	9	...........	1426.31
	12	0.8	4.00360E-001	2.50761E-004	0.00000E+000	4.00072E-001	0.00000E+000	9	...........	1426.31
	13	0.9	4.00353E-001	2.40413E-004	0.00000E+000	4.00072E-001	0.00000E+000	9	...........	1426.19
	14	1	4.00345E-001	2.31092E-004	0.00000E+000	4.00072E-001	0.00000E+000	9	...........	1426.13
	15	1.1	4.00356E-001	2.22628E-004	0.00000E+000	4.00072E-001	0.00000E+000	9	...........	1426.13
	16	1.2	4.00344E-001	2.15040E-004	0.00000E+000	4.00072E-001	0.00000E+000	9	...........	1426.13
	17	1.3	4.00345E-001	2.08075E-004	0.00000E+000	4.00072E-001	0.00000E+000	9	...........	1426.13
	18	1.4	4.00362E-001	2.01645E-004	0.00000E+000	4.00072E-001	0.00000E+000	9	...........	1426.13
	19	1.5	4.00351E-001	1.95727E-004	0.00000E+000	4.00072E-001	0.00000E+000	9	...........	1426.13
	20	1.6	4.00351E-001	1.90277E-004	0.00000E+000	4.00072E-001	0.00000E+000	9	...........	1426.13
	21	1.7	4.00353E-001	1.85175E-004	0.00000E+000	4.00072E-001	0.00000E+000	9	...........	1426.13
	22	1.8	4.00349E-001	1.80437E-004	0.00000E+000	4.00072E-001	0.00000E+000	9	...........	1426.13
	23	1.9	4.00358E-001	1.75942E-004	0.00000E+000	4.00072E-001	0.00000E+000	9	...........	1426.13
	24	2	4.00362E-001	1.71804E-004	0.00000E+000	4.00072E-001	0.00000E+000	9	...........	1426.13
	25	2.1	4.00361E-001	1.67822E-004	0.00000E+000	4.00072E-001	0.00000E+000	9	...........	1426.13
	26	2.2	4.00371E-001	1.64094E-004	0.00000E+000	4.00072E-001	0.00000E+000	9	...........	1426.13
	27	2.3	4.00353E-001	1.60569E-004	0.00000E+000	4.00072E-001	0.00000E+000	9	...........	1426.13
	28	2.4	4.00349E-001	1.57203E-004	0.00000E+000	4.00072E-001	0.00000E+000	9	...........	1426.13
	29	2.5	4.00347E-001	1.53995E-004	0.00000E+000	4.00072E-001	0.00000E+000	9	...........	1426.13
	30	2.6	4.00348E-001	1.50894E-004	0.00000E+000	4.00072E-001	0.00000E+000	9	...........	1426.13
	31	2.7	4.00348E-001	1.48002E-004	0.00000E+000	4.00072E-001	0.00000E+000	9	...........	1426.13
	32	2.8	4.00349E-001	1.45211E-004	0.00000E+000	4.00072E-001	0.00000E+000	9	...........	1426.13
	33	2.9	4.00345E-001	1.42516E-004	0.00000E+000	4.00072E-001	0.00000E+000	9	...........	1426.07
	34	3	4.00374E-001	1.39895E-004	0.00000E+000	4.00072E-001	0.00000E+000	9	...........	1426.04
	35	3.1	4.00355E-001	1.37442E-004	0.00000E+000	4.00072E-001	0.00000E+000	9	...........	1426.04
	36	3.2	4.00356E-001	1.35054E-004	0.00000E+000	4.00072E-001	0.00000E+000	9	...........	1426.04
	37	3.3	4.00360E-001	1.32738E-004	0.00000E+000	4.00072E-001	0.00000E+000	9	...........	1426.04
	38	3.4	4.00357E-001	1.30518E-004	0.00000E+000	4.00072E-001	0.00000E+000	9	...........	1426.04
	39	3.5	4.00356E-001	1.28371E-004	0.00000E+000	4.00072E-001	0.00000E+000	9	...........	1426.04
	40	3.6	4.00354E-001	1.26291E-004	0.00000E+000	4.00072E-001	0.00000E+000	9	...........	1426.04
	41	3.7	4.00347E-001	1.24277E-004	0.00000E+000	4.00072E-001	0.00000E+000	9	...........	1426.04
	42	3.8	4.00352E-001	1.22305E-004	0.00000E+000	4.00072E-001	0.00000E+000	9	...........	1426.04
	43	3.9	4.00350E-001	1.20472E-004	0.00000E+000	4.00072E-001	0.00000E+000	9	...........	1426.10
	44	4	4.00345E-001	1.18655E-004	0.00000E+000	4.00072E-001	0.00000E+000	9	...........	1426.13
	45	4.1	4.00360E-001	1.16871E-004	0.00000E+000	4.00072E-001	0.00000E+000	9	...........	1426.13
	46	4.2	4.00357E-001	1.15158E-004	0.00000E+000	4.00072E-001	0.00000E+000	9	...........	1426.13
	47	4.3	4.00356E-001	1.13535E-004	0.00000E+000	4.00072E-001	0.00000E+000	9	...........	1426.13
	48	4.4	4.00358E-001	1.11922E-004	0.00000E+000	4.00072E-001	0.00000E+000	9	...........	1426.13
	49	4.5	4.00371E-001	1.10324E-004	0.00000E+000	4.00072E-001	0.00000E+000	9	...........	1426.13
	50	4.6	4.00350E-001	1.08803E-004	0.00000E+000	4.00072E-001	0.00000E+000	9	...........	1426.13
	51	4.7	4.00350E-001	1.07352E-004	0.00000E+000	4.00072E-001	0.00000E+000	9	...........	1426.13
	52	4.8	4.00350E-001	1.05875E-004	0.00000E+000	4.00072E-001	0.00000E+000	9	...........	1426.13
	53	4.9	4.00347E-001	1.04506E-004	0.00000E+000	4.00072E-001	0.00000E+000	9	...........	1426.13
	54	5	4.00356E-001	1.03099E-004	0.00000E+000	4.00072E-001	0.00000E+000	9	...........	1426.13
	55	5.1	4.00361E-001	1.01772E-004	0.00000E+000	4.00072E-001	0.00000E+000	9	...........	1426.13
	56	5.2	4.00358E-001	1.00487E-004	0.00000E+000	4.00072E-001	0.00000E+000	9	...........	1426.13
	57	5.3	4.00358E-001	9.92035E-005	0.00000E+000	4.00072E-001	0.00000E+000	9	...........	1426.13
	58	5.4	4.00357E-001	9.79780E-005	0.00000E+000	4.00072E-001	0.00000E+000	9	...........	1426.13
	59	5.5	4.00346E-001	9.67775E-005	0.00000E+000	4.00072E-001	0.00000E+000	9	...........	1426.13
	60	5.6	4.00350E-001	9.55579E-005	0.00000E+000	4.00072E-001	0.00000E+000	9	...........	1426.13
	61	5.7	4.00359E-001	9.44148E-005	0.00000E+000	4.00072E-001	0.00000E+000	9	...........	1426.13
	62	5.8	4.00352E-001	9.32519E-005	0.00000E+000	4.00072E-001	0.00000E+000	9	...........	1426.13
	63	5.9	4.00359E-001	9.21487E-005	0.00000E+000	4.00072E-001	0.00000E+000	9	...........	1426.07
	64	6	4.00347E-001	9.10881E-005	0.00000E+000	4.00072E-001	0.00000E+000	9	...........	1426.04
	65	6.1	4.00360E-001	9.00314E-005	0.00000E+000	4.00072E-001	0.00000E+000	9	...........	1426.04
	66	7.1	4.00355E-001	8.06141E-005	0.00000E+000	4.00072E-001	0.00000E+000	9	...........	1426.04
	67	8.1	4.00363E-001	7.28701E-005	0.00000E+000	4.00072E-001	0.00000E+000	9	...........	1426.22
	68	9.1	4.00360E-001	6.63899E-005	0.00000E+000	4.00072E-001	0.00000E+000	9	...........	1426.22
	69	10.1	4.00350E-001	6.08762E-005	0.00000E+000	4.00072E-001	0.00000E+000	9	...........	1426.22
	70	11.1	4.00350E-001	5.61163E-005	0.00000E+000	4.00072E-001	0.00000E+000	9	...........	1426.22
	71	12.1	4.00346E-001	5.19820E-005	0.00000E+000	4.00072E-001	0.00000E+000	9	...........	1426.31
	72	13.1	4.00348E-001	4.84402E-005	0.00000E+000	4.00072E-001	0.00000E+000	9	...........	1426.22
	73	14.1	4.00347E-001	4.54268E-005	0.00000E+000	4.00072E-001	0.00000E+000	9	...........	1426.22
	74	15.1	4.00366E-001	4.28164E-005	0.00000E+000	4.00072E-001	0.00000E+000	9	...........	1426.22
	75	16.1	4.00354E-001	4.06141E-005	0.00000E+000	4.00072E-001	0.00000E+000	9	...........	1426.22
	76	26.1	4.00354E-001	2.88301E-005	0.00000E+000	4.00072E-001	0.00000E+000	9	...........	1426.22
	77	36.1	4.00348E-001	2.39639E-005	0.00000E+000	4.00072E-001	0.00000E+000	9	...........	1426.22
	78	46.1	4.00360E-001	2.11797E-005	0.00000E+000	4.00072E-001	0.00000E+000	9	...........	1426.22
	79	56.1	4.00353E-001	1.91288E-005	0.00000E+000	4.00072E-001	0.00000E+000	9	...........	1426.22
	80	66.1	4.00354E-001	1.79772E-005	0.00000E+000	4.00072E-001	0.00000E+000	9	...........	1426.22
	81	76.1	4.00362E-001	1.74288E-005	0.00000E+000	4.00072E-001	0.00000E+000	9	...........	1426.31
	82	86.1	4.00364E-001	1.67684E-005	0.00000E+000	4.00072E-001	0.00000E+000	9	...........	1426.22
	83	96.1	4.00357E-001	1.60334E-005	0.00000E+000	4.00072E-001	0.00000E+000	9	...........	1426.22
	84	106.1	4.00362E-001	1.59586E-005	0.00000E+000	4.00072E-001	0.00000E+000	9	...........	1426.22
	85	116.1	4.00356E-001	1.53800E-005	0.00000E+000	4.00072E-001	0.00000E+000	9	...........	1426.22
	86	216.1	4.00357E-001	1.41904E-005	0.00000E+000	4.00072E-001	0.00000E+000	9	...........	1426.22
	87	300	4.00359E-001	1.35843E-005	0.00000E+000	4.00072E-001	0.00000E+000	9	...........	1426.22
	88	300.1	3.00293E-001	-2.75529E-004	0.00000E+000	3.00072E-001	0.00000E+000	9	...........	1426.22
	89	300.2	3.00298E-001	-1.99696E-004	0.00000E+000	3.00072E-001	0.00000E+000	9	...........	1426.22
	90	300.3	3.00308E-001	-1.54986E-004	0.00000E+000	3.00072E-001	0.00000E+000	9	...........	1426.22
	91	300.4	3.00314E-001	-1.26245E-004	0.00000E+000	3.00072E-001	0.00000E+000	9	...........	1426.22
	92	300.5	3.00328E-001	-1.06649E-004	0.00000E+000	3.00072E-001	0.00000E+000	9	...........	1426.22
	93	300.6	3.00307E-001	-9.26163E-005	0.00000E+000	3.00072E-001	0.00000E+000	9	...........	1426.22
	94	300.7	3.00310E-001	-8.21694E-005	0.00000E+000	3.00072E-001	0.00000E+000	9	...........	1426.22
	95	300.8	3.00309E-001	-7.40643E-005	0.00000E+000	3.00072E-001	0.00000E+000	9	...........	1426.22
	96	300.9	3.00314E-001	-6.76072E-005	0.00000E+000	3.00072E-001	0.00000E+000	9	...........	1426.22
	97	301	3.00303E-001	-6.23259E-005	0.00000E+000	3.00072E-001	0.00000E+000	9	...........	1426.22
