EXPLAIN
TAG	CHRONOA
TITLE	LABEL	Chronoamperometry Scan	Test Identifier
DATE	LABEL	17/2/2022	Date
TIME	LABEL	14:42:35	Time
NOTES	NOTES	1	Notes...
	
PSTAT	PSTAT	IFC1010-21051	Potentiostat
VPRESTEP	POTEN	-7.00000E-001	F	Pre-step Voltage (V)
TPRESTEP	QUANT	5.00000E-001	Pre-step Delay Time (s)
VSTEP1	POTEN	-8.00000E-001	F	Step 1 Voltage (V)
TSTEP1	QUANT	3.00000E+002	Step 1 Time (s)
VSTEP2	POTEN	-7.00000E-001	F	Step 2 Voltage (V)
TSTEP2	QUANT	1.00000E+000	Step 2 Time (s)
SAMPLETIME	QUANT	1.00000E-001	Sample Period (s)
DECIMATE	TOGGLE	T	Decimate
ILIMIT	QUANT	1.00000E+000	Limit I (mA/cm^2)
IMODE	SELECTOR	1	I/E Range Mode
IRANGE	QUANT	3.00000E-001	Max Current (mA)
EQDELAY	QUANT	5.00000E+000	Equil. Time (s)
SAMPLINGMODE	SELECTOR	1	Sampling Mode
AREA	QUANT	1.00000E+000	Sample Area (cm^2)
IRCOMP	SELECTOR	0	IRComp
PFCOR	QUANT	5.00000E+001	PF Corr. (ohm)
SEQUENCER	TOGGLE	TRUE	Run as Sequence
PSTATMODEL	IQUANT	64	Pstat Model
PSTATSECTION	LABEL	IFC1010-21051	Pstat Section
PSTATSERIALNO	LABEL	21051	Pstat Serial Number
CTRLMODE	IQUANT	1	Control Mode
ELECTROMETER	IQUANT	0	RE=0 or CS=1
IESTAB	IQUANT	0	I/E Stability
CASPEED	IQUANT	4	Control Amp Speed
CONVENTION	IQUANT	1	Current Convention
ICHRANGE	IQUANT	2	Ich Range
ICHRANGEMODE	TOGGLE	T	Ich Auto Range
ICHOFFSETENABLE	TOGGLE	F	Ich Offset Enable
ICHOFFSET	QUANT	0	Ich Offset (V)
ICHFILTER	IQUANT	3	Ich Filter
VCHRANGE	IQUANT	3	Vch Range
VCHRANGEMODE	TOGGLE	T	Vch Auto Range
VCHOFFSETENABLE	TOGGLE	F	Vch Offset Enable
VCHOFFSET	QUANT	0	Vch Offset (V)
VCHFILTER	IQUANT	3	Vch Filter
IERANGELOWERLIMIT	IQUANT	4	I/E Range Lower Limit
IERANGEMODE	TOGGLE	F	I/E AutoRange
IERANGE	IQUANT	9	I/E Range
ACHSELECT	IQUANT	0	Ach Select
ACHRANGE	IQUANT	2	Ach Range
ACHOFFSETENABLE	TOGGLE	F	Ach Offset Enable
ACHOFFSET	QUANT	0	Ach Offset (V)
ACHFILTER	IQUANT	1	Ach Filter
SENSECABLEID	IQUANT	14	Sense Cable ID
PWRCABLEID	IQUANT	14	Power Cable ID
DCCALDATE	LABEL	1/24/2022	DC Calibration Date
ACCALDATE	LABEL	4/2/2018	AC Calibration Date
FRAMEWORKVERSION	QUANT	7.06	Framework Version
INSTRUMENTVERSION	LABEL	4.30	Instrument Version
CURVE	TABLE	98
	Pt	T	Vf	Im	Vu	Sig	Ach	IERange	Over	Temp
	#	s	V vs. Ref.	A	V	V	V	#	bits	deg C
	0	-0.4	-7.01778E-001	-1.40654E-004	0.00000E+000	-7.00083E-001	0.00000E+000	9	...........	1426.22
	1	-0.3	-7.01237E-001	-1.40471E-004	0.00000E+000	-7.00083E-001	0.00000E+000	9	...........	1426.22
	2	-0.2	-7.01249E-001	-1.40387E-004	0.00000E+000	-7.00083E-001	0.00000E+000	9	...........	1426.22
	3	-0.1	-7.01248E-001	-1.40262E-004	0.00000E+000	-7.00083E-001	0.00000E+000	9	...........	1426.22
	4	0	-7.01243E-001	-1.40100E-004	0.00000E+000	-7.00083E-001	0.00000E+000	9	...........	1426.22
	5	0.1	-8.01267E-001	-5.48786E-004	0.00000E+000	-8.00083E-001	0.00000E+000	9	...........	1426.22
	6	0.2	-8.01271E-001	-4.49044E-004	0.00000E+000	-8.00083E-001	0.00000E+000	9	...........	1426.22
	7	0.3	-8.01266E-001	-3.91568E-004	0.00000E+000	-8.00083E-001	0.00000E+000	9	...........	1426.22
	8	0.4	-8.01259E-001	-3.52535E-004	0.00000E+000	-8.00083E-001	0.00000E+000	9	...........	1426.22
	9	0.5	-8.01258E-001	-3.24085E-004	0.00000E+000	-8.00083E-001	0.00000E+000	9	...........	1426.22
	10	0.6	-8.01270E-001	-3.02537E-004	0.00000E+000	-8.00083E-001	0.00000E+000	9	...........	1425.78
	11	0.7	-8.01266E-001	-2.85449E-004	0.00000E+000	-8.00083E-001	0.00000E+000	9	...........	1425.78
	12	0.8	-8.01268E-001	-2.71899E-004	0.00000E+000	-8.00083E-001	0.00000E+000	9	...........	1425.78
	13	0.9	-8.01275E-001	-2.60744E-004	0.00000E+000	-8.00083E-001	0.00000E+000	9	...........	1425.78
	14	1	-8.01276E-001	-2.51598E-004	0.00000E+000	-8.00083E-001	0.00000E+000	9	...........	1425.78
	15	1.1	-8.01273E-001	-2.43854E-004	0.00000E+000	-8.00083E-001	0.00000E+000	9	...........	1425.78
	16	1.2	-8.01257E-001	-2.37168E-004	0.00000E+000	-8.00083E-001	0.00000E+000	9	...........	1425.78
	17	1.3	-8.01268E-001	-2.31629E-004	0.00000E+000	-8.00083E-001	0.00000E+000	9	...........	1425.78
	18	1.4	-8.01274E-001	-2.26760E-004	0.00000E+000	-8.00083E-001	0.00000E+000	9	...........	1425.78
	19	1.5	-8.01265E-001	-2.22461E-004	0.00000E+000	-8.00083E-001	0.00000E+000	9	...........	1425.78
	20	1.6	-8.01266E-001	-2.18739E-004	0.00000E+000	-8.00083E-001	0.00000E+000	9	...........	1425.78
	21	1.7	-8.01272E-001	-2.15441E-004	0.00000E+000	-8.00083E-001	0.00000E+000	9	...........	1425.78
	22	1.8	-8.01260E-001	-2.12440E-004	0.00000E+000	-8.00083E-001	0.00000E+000	9	...........	1425.78
	23	1.9	-8.01270E-001	-2.09835E-004	0.00000E+000	-8.00083E-001	0.00000E+000	9	...........	1425.78
	24	2	-8.01264E-001	-2.07406E-004	0.00000E+000	-8.00083E-001	0.00000E+000	9	...........	1425.78
	25	2.1	-8.01273E-001	-2.05326E-004	0.00000E+000	-8.00083E-001	0.00000E+000	9	...........	1425.78
	26	2.2	-8.01274E-001	-2.03342E-004	0.00000E+000	-8.00083E-001	0.00000E+000	9	...........	1425.78
	27	2.3	-8.01270E-001	-2.01566E-004	0.00000E+000	-8.00083E-001	0.00000E+000	9	...........	1425.78
	28	2.4	-8.01272E-001	-1.99994E-004	0.00000E+000	-8.00083E-001	0.00000E+000	9	...........	1425.78
	29	2.5	-8.01263E-001	-1.98433E-004	0.00000E+000	-8.00083E-001	0.00000E+000	9	...........	1425.78
	30	2.6	-8.01273E-001	-1.97215E-004	0.00000E+000	-8.00083E-001	0.00000E+000	9	...........	1425.78
	31	2.7	-8.01274E-001	-1.95935E-004	0.00000E+000	-8.00083E-001	0.00000E+000	9	...........	1425.78
	32	2.8	-8.01268E-001	-1.94778E-004	0.00000E+000	-8.00083E-001	0.00000E+000	9	...........	1425.78
	33	2.9	-8.01274E-001	-1.93727E-004	0.00000E+000	-8.00083E-001	0.00000E+000	9	...........	1425.78
	34	3	-8.01271E-001	-1.92685E-004	0.00000E+000	-8.00083E-001	0.00000E+000	9	...........	1425.78
	35	3.1	-8.01271E-001	-1.91770E-004	0.00000E+000	-8.00083E-001	0.00000E+000	9	...........	1425.78
	36	3.2	-8.01286E-001	-1.90871E-004	0.00000E+000	-8.00083E-001	0.00000E+000	9	...........	1425.78
	37	3.3	-8.01282E-001	-1.90112E-004	0.00000E+000	-8.00083E-001	0.00000E+000	9	...........	1425.78
	38	3.4	-8.01277E-001	-1.89288E-004	0.00000E+000	-8.00083E-001	0.00000E+000	9	...........	1425.78
	39	3.5	-8.01264E-001	-1.88533E-004	0.00000E+000	-8.00083E-001	0.00000E+000	9	...........	1425.78
	40	3.6	-8.01271E-001	-1.87893E-004	0.00000E+000	-8.00083E-001	0.00000E+000	9	...........	1425.69
	41	3.7	-8.01280E-001	-1.87270E-004	0.00000E+000	-8.00083E-001	0.00000E+000	9	...........	1425.69
	42	3.8	-8.01283E-001	-1.86625E-004	0.00000E+000	-8.00083E-001	0.00000E+000	9	...........	1425.69
	43	3.9	-8.01269E-001	-1.86049E-004	0.00000E+000	-8.00083E-001	0.00000E+000	9	...........	1425.69
	44	4	-8.01271E-001	-1.85489E-004	0.00000E+000	-8.00083E-001	0.00000E+000	9	...........	1425.69
	45	4.1	-8.01272E-001	-1.84974E-004	0.00000E+000	-8.00083E-001	0.00000E+000	9	...........	1425.69
	46	4.2	-8.01271E-001	-1.84464E-004	0.00000E+000	-8.00083E-001	0.00000E+000	9	...........	1425.69
	47	4.3	-8.01267E-001	-1.83940E-004	0.00000E+000	-8.00083E-001	0.00000E+000	9	...........	1425.69
	48	4.4	-8.01271E-001	-1.83511E-004	0.00000E+000	-8.00083E-001	0.00000E+000	9	...........	1425.69
	49	4.5	-8.01274E-001	-1.82984E-004	0.00000E+000	-8.00083E-001	0.00000E+000	9	...........	1425.69
	50	4.6	-8.01270E-001	-1.82671E-004	0.00000E+000	-8.00083E-001	0.00000E+000	9	...........	1425.87
	51	4.7	-8.01273E-001	-1.82245E-004	0.00000E+000	-8.00083E-001	0.00000E+000	9	...........	1425.87
	52	4.8	-8.01266E-001	-1.81819E-004	0.00000E+000	-8.00083E-001	0.00000E+000	9	...........	1425.87
	53	4.9	-8.01267E-001	-1.81468E-004	0.00000E+000	-8.00083E-001	0.00000E+000	9	...........	1425.87
	54	5	-8.01271E-001	-1.81098E-004	0.00000E+000	-8.00083E-001	0.00000E+000	9	...........	1425.87
	55	5.1	-8.01274E-001	-1.80752E-004	0.00000E+000	-8.00083E-001	0.00000E+000	9	...........	1425.87
	56	5.2	-8.01277E-001	-1.80383E-004	0.00000E+000	-8.00083E-001	0.00000E+000	9	...........	1425.87
	57	5.3	-8.01272E-001	-1.80091E-004	0.00000E+000	-8.00083E-001	0.00000E+000	9	...........	1425.87
	58	5.4	-8.01286E-001	-1.79813E-004	0.00000E+000	-8.00083E-001	0.00000E+000	9	...........	1425.87
	59	5.5	-8.01284E-001	-1.79504E-004	0.00000E+000	-8.00083E-001	0.00000E+000	9	...........	1425.87
	60	5.6	-8.01279E-001	-1.79211E-004	0.00000E+000	-8.00083E-001	0.00000E+000	9	...........	1426.13
	61	5.7	-8.01283E-001	-1.78976E-004	0.00000E+000	-8.00083E-001	0.00000E+000	9	...........	1426.13
	62	5.8	-8.01272E-001	-1.78684E-004	0.00000E+000	-8.00083E-001	0.00000E+000	9	...........	1426.13
	63	5.9	-8.01276E-001	-1.78398E-004	0.00000E+000	-8.00083E-001	0.00000E+000	9	...........	1426.13
	64	6	-8.01282E-001	-1.78160E-004	0.00000E+000	-8.00083E-001	0.00000E+000	9	...........	1426.13
	65	6.1	-8.01276E-001	-1.77929E-004	0.00000E+000	-8.00083E-001	0.00000E+000	9	...........	1426.13
	66	7.1	-8.01249E-001	-1.75995E-004	0.00000E+000	-8.00083E-001	0.00000E+000	9	...........	1426.13
	67	8.1	-8.01264E-001	-1.74742E-004	0.00000E+000	-8.00083E-001	0.00000E+000	9	...........	1426.13
	68	9.1	-8.01264E-001	-1.73726E-004	0.00000E+000	-8.00083E-001	0.00000E+000	9	...........	1426.22
	69	10.1	-8.01277E-001	-1.73047E-004	0.00000E+000	-8.00083E-001	0.00000E+000	9	...........	1426.22
	70	11.1	-8.01263E-001	-1.72599E-004	0.00000E+000	-8.00083E-001	0.00000E+000	9	...........	1426.13
	71	12.1	-8.01275E-001	-1.71982E-004	0.00000E+000	-8.00083E-001	0.00000E+000	9	...........	1426.22
	72	13.1	-8.01274E-001	-1.71473E-004	0.00000E+000	-8.00083E-001	0.00000E+000	9	...........	1426.22
	73	14.1	-8.01266E-001	-1.70913E-004	0.00000E+000	-8.00083E-001	0.00000E+000	9	...........	1426.22
	74	15.1	-8.01259E-001	-1.70212E-004	0.00000E+000	-8.00083E-001	0.00000E+000	9	...........	1426.22
	75	16.1	-8.01257E-001	-1.69861E-004	0.00000E+000	-8.00083E-001	0.00000E+000	9	...........	1426.22
	76	26.1	-8.01273E-001	-1.68266E-004	0.00000E+000	-8.00083E-001	0.00000E+000	9	...........	1426.22
	77	36.1	-8.01259E-001	-1.67576E-004	0.00000E+000	-8.00083E-001	0.00000E+000	9	...........	1426.22
	78	46.1	-8.01265E-001	-1.66841E-004	0.00000E+000	-8.00083E-001	0.00000E+000	9	...........	1426.22
	79	56.1	-8.01275E-001	-1.66940E-004	0.00000E+000	-8.00083E-001	0.00000E+000	9	...........	1426.22
	80	66.1	-8.01275E-001	-1.66597E-004	0.00000E+000	-8.00083E-001	0.00000E+000	9	...........	1426.22
	81	76.1	-8.01271E-001	-1.66562E-004	0.00000E+000	-8.00083E-001	0.00000E+000	9	...........	1426.22
	82	86.1	-8.01266E-001	-1.66188E-004	0.00000E+000	-8.00083E-001	0.00000E+000	9	...........	1426.22
	83	96.1	-8.01281E-001	-1.66047E-004	0.00000E+000	-8.00083E-001	0.00000E+000	9	...........	1426.22
	84	106.1	-8.01271E-001	-1.65940E-004	0.00000E+000	-8.00083E-001	0.00000E+000	9	...........	1426.22
	85	116.1	-8.01273E-001	-1.66296E-004	0.00000E+000	-8.00083E-001	0.00000E+000	9	...........	1426.22
	86	216.1	-8.01261E-001	-1.66955E-004	0.00000E+000	-8.00083E-001	0.00000E+000	9	...........	1426.22
	87	300	-8.01280E-001	-1.68522E-004	0.00000E+000	-8.00083E-001	0.00000E+000	9	...........	1426.13
	88	300.1	-7.01257E-001	1.48327E-004	0.00000E+000	-7.00083E-001	0.00000E+000	9	...........	1426.13
	89	300.2	-7.01244E-001	3.09716E-005	0.00000E+000	-7.00083E-001	0.00000E+000	9	...........	1426.13
	90	300.3	-7.01245E-001	-2.53034E-005	0.00000E+000	-7.00083E-001	0.00000E+000	9	...........	1426.13
	91	300.4	-7.01261E-001	-5.69439E-005	0.00000E+000	-7.00083E-001	0.00000E+000	9	...........	1426.13
	92	300.5	-7.01261E-001	-7.62469E-005	0.00000E+000	-7.00083E-001	0.00000E+000	9	...........	1426.13
	93	300.6	-7.01251E-001	-8.86390E-005	0.00000E+000	-7.00083E-001	0.00000E+000	9	...........	1426.22
	94	300.7	-7.01232E-001	-9.69736E-005	0.00000E+000	-7.00083E-001	0.00000E+000	9	...........	1426.22
	95	300.8	-7.01251E-001	-1.02979E-004	0.00000E+000	-7.00083E-001	0.00000E+000	9	...........	1426.22
	96	300.9	-7.01251E-001	-1.07240E-004	0.00000E+000	-7.00083E-001	0.00000E+000	9	...........	1426.22
	97	301	-7.01257E-001	-1.10538E-004	0.00000E+000	-7.00083E-001	0.00000E+000	9	...........	1426.22
