EXPLAIN
TAG	CHRONOA
TITLE	LABEL	Chronoamperometry Scan	Test Identifier
DATE	LABEL	17/2/2022	Date
TIME	LABEL	17:34:49	Time
NOTES	NOTES	1	Notes...
	
PSTAT	PSTAT	IFC1010-21051	Potentiostat
VPRESTEP	POTEN	-3.00000E-001	F	Pre-step Voltage (V)
TPRESTEP	QUANT	5.00000E-001	Pre-step Delay Time (s)
VSTEP1	POTEN	-4.00000E-001	F	Step 1 Voltage (V)
TSTEP1	QUANT	3.00000E+002	Step 1 Time (s)
VSTEP2	POTEN	-5.00000E-001	F	Step 2 Voltage (V)
TSTEP2	QUANT	1.00000E+000	Step 2 Time (s)
SAMPLETIME	QUANT	1.00000E-001	Sample Period (s)
DECIMATE	TOGGLE	T	Decimate
ILIMIT	QUANT	1.00000E+000	Limit I (mA/cm^2)
IMODE	SELECTOR	1	I/E Range Mode
IRANGE	QUANT	3.00000E-001	Max Current (mA)
EQDELAY	QUANT	5.00000E+000	Equil. Time (s)
SAMPLINGMODE	SELECTOR	1	Sampling Mode
AREA	QUANT	1.00000E+000	Sample Area (cm^2)
IRCOMP	SELECTOR	0	IRComp
PFCOR	QUANT	5.00000E+001	PF Corr. (ohm)
SEQUENCER	TOGGLE	TRUE	Run as Sequence
PSTATMODEL	IQUANT	64	Pstat Model
PSTATSECTION	LABEL	IFC1010-21051	Pstat Section
PSTATSERIALNO	LABEL	21051	Pstat Serial Number
CTRLMODE	IQUANT	1	Control Mode
ELECTROMETER	IQUANT	0	RE=0 or CS=1
IESTAB	IQUANT	0	I/E Stability
CASPEED	IQUANT	4	Control Amp Speed
CONVENTION	IQUANT	1	Current Convention
ICHRANGE	IQUANT	2	Ich Range
ICHRANGEMODE	TOGGLE	T	Ich Auto Range
ICHOFFSETENABLE	TOGGLE	F	Ich Offset Enable
ICHOFFSET	QUANT	0	Ich Offset (V)
ICHFILTER	IQUANT	3	Ich Filter
VCHRANGE	IQUANT	3	Vch Range
VCHRANGEMODE	TOGGLE	T	Vch Auto Range
VCHOFFSETENABLE	TOGGLE	F	Vch Offset Enable
VCHOFFSET	QUANT	0	Vch Offset (V)
VCHFILTER	IQUANT	3	Vch Filter
IERANGELOWERLIMIT	IQUANT	4	I/E Range Lower Limit
IERANGEMODE	TOGGLE	F	I/E AutoRange
IERANGE	IQUANT	9	I/E Range
ACHSELECT	IQUANT	0	Ach Select
ACHRANGE	IQUANT	2	Ach Range
ACHOFFSETENABLE	TOGGLE	F	Ach Offset Enable
ACHOFFSET	QUANT	0	Ach Offset (V)
ACHFILTER	IQUANT	1	Ach Filter
SENSECABLEID	IQUANT	14	Sense Cable ID
PWRCABLEID	IQUANT	14	Power Cable ID
DCCALDATE	LABEL	1/24/2022	DC Calibration Date
ACCALDATE	LABEL	4/2/2018	AC Calibration Date
FRAMEWORKVERSION	QUANT	7.06	Framework Version
INSTRUMENTVERSION	LABEL	4.30	Instrument Version
CURVE	TABLE	98
	Pt	T	Vf	Im	Vu	Sig	Ach	IERange	Over	Temp
	#	s	V vs. Ref.	A	V	V	V	#	bits	deg C
	0	-0.4	-3.01305E-001	-6.93331E-005	0.00000E+000	-3.00011E-001	0.00000E+000	9	...........	1426.31
	1	-0.3	-3.00691E-001	-6.92142E-005	0.00000E+000	-3.00011E-001	0.00000E+000	9	...........	1426.31
	2	-0.2	-3.00700E-001	-6.91381E-005	0.00000E+000	-3.00011E-001	0.00000E+000	9	...........	1426.31
	3	-0.1	-3.00690E-001	-6.90535E-005	0.00000E+000	-3.00011E-001	0.00000E+000	9	...........	1426.31
	4	0	-3.00683E-001	-6.89583E-005	0.00000E+000	-3.00011E-001	0.00000E+000	9	...........	1426.22
	5	0.1	-4.00728E-001	-3.08502E-004	0.00000E+000	-4.00011E-001	0.00000E+000	9	...........	1426.22
	6	0.2	-4.00733E-001	-2.58938E-004	0.00000E+000	-4.00011E-001	0.00000E+000	9	...........	1426.22
	7	0.3	-4.00727E-001	-2.45210E-004	0.00000E+000	-4.00011E-001	0.00000E+000	9	...........	1426.22
	8	0.4	-4.00738E-001	-2.38701E-004	0.00000E+000	-4.00011E-001	0.00000E+000	9	...........	1426.22
	9	0.5	-4.00722E-001	-2.34326E-004	0.00000E+000	-4.00011E-001	0.00000E+000	9	...........	1426.22
	10	0.6	-4.00728E-001	-2.30902E-004	0.00000E+000	-4.00011E-001	0.00000E+000	9	...........	1426.22
	11	0.7	-4.00710E-001	-2.27892E-004	0.00000E+000	-4.00011E-001	0.00000E+000	9	...........	1426.22
	12	0.8	-4.00729E-001	-2.25231E-004	0.00000E+000	-4.00011E-001	0.00000E+000	9	...........	1426.22
	13	0.9	-4.00725E-001	-2.22748E-004	0.00000E+000	-4.00011E-001	0.00000E+000	9	...........	1426.22
	14	1	-4.00743E-001	-2.20490E-004	0.00000E+000	-4.00011E-001	0.00000E+000	9	...........	1426.22
	15	1.1	-4.00737E-001	-2.18339E-004	0.00000E+000	-4.00011E-001	0.00000E+000	9	...........	1426.22
	16	1.2	-4.00743E-001	-2.16356E-004	0.00000E+000	-4.00011E-001	0.00000E+000	9	...........	1426.22
	17	1.3	-4.00736E-001	-2.14432E-004	0.00000E+000	-4.00011E-001	0.00000E+000	9	...........	1426.22
	18	1.4	-4.00727E-001	-2.12606E-004	0.00000E+000	-4.00011E-001	0.00000E+000	9	...........	1426.22
	19	1.5	-4.00741E-001	-2.10851E-004	0.00000E+000	-4.00011E-001	0.00000E+000	9	...........	1426.22
	20	1.6	-4.00744E-001	-2.09165E-004	0.00000E+000	-4.00011E-001	0.00000E+000	9	...........	1426.22
	21	1.7	-4.00735E-001	-2.07514E-004	0.00000E+000	-4.00011E-001	0.00000E+000	9	...........	1426.22
	22	1.8	-4.00721E-001	-2.05937E-004	0.00000E+000	-4.00011E-001	0.00000E+000	9	...........	1426.22
	23	1.9	-4.00715E-001	-2.04456E-004	0.00000E+000	-4.00011E-001	0.00000E+000	9	...........	1426.22
	24	2	-4.00736E-001	-2.03022E-004	0.00000E+000	-4.00011E-001	0.00000E+000	9	...........	1426.22
	25	2.1	-4.00727E-001	-2.01628E-004	0.00000E+000	-4.00011E-001	0.00000E+000	9	...........	1426.22
	26	2.2	-4.00726E-001	-2.00225E-004	0.00000E+000	-4.00011E-001	0.00000E+000	9	...........	1426.22
	27	2.3	-4.00721E-001	-1.98940E-004	0.00000E+000	-4.00011E-001	0.00000E+000	9	...........	1426.22
	28	2.4	-4.00719E-001	-1.97627E-004	0.00000E+000	-4.00011E-001	0.00000E+000	9	...........	1426.22
	29	2.5	-4.00745E-001	-1.96426E-004	0.00000E+000	-4.00011E-001	0.00000E+000	9	...........	1426.22
	30	2.6	-4.00726E-001	-1.95244E-004	0.00000E+000	-4.00011E-001	0.00000E+000	9	...........	1426.22
	31	2.7	-4.00743E-001	-1.94080E-004	0.00000E+000	-4.00011E-001	0.00000E+000	9	...........	1426.22
	32	2.8	-4.00736E-001	-1.92869E-004	0.00000E+000	-4.00011E-001	0.00000E+000	9	...........	1426.22
	33	2.9	-4.00746E-001	-1.91808E-004	0.00000E+000	-4.00011E-001	0.00000E+000	9	...........	1426.22
	34	3	-4.00726E-001	-1.90700E-004	0.00000E+000	-4.00011E-001	0.00000E+000	9	...........	1426.22
	35	3.1	-4.00729E-001	-1.89630E-004	0.00000E+000	-4.00011E-001	0.00000E+000	9	...........	1426.22
	36	3.2	-4.00728E-001	-1.88597E-004	0.00000E+000	-4.00011E-001	0.00000E+000	9	...........	1426.22
	37	3.3	-4.00722E-001	-1.87569E-004	0.00000E+000	-4.00011E-001	0.00000E+000	9	...........	1426.22
	38	3.4	-4.00744E-001	-1.86636E-004	0.00000E+000	-4.00011E-001	0.00000E+000	9	...........	1426.22
	39	3.5	-4.00731E-001	-1.85678E-004	0.00000E+000	-4.00011E-001	0.00000E+000	9	...........	1426.22
	40	3.6	-4.00723E-001	-1.84728E-004	0.00000E+000	-4.00011E-001	0.00000E+000	9	...........	1426.22
	41	3.7	-4.00725E-001	-1.83845E-004	0.00000E+000	-4.00011E-001	0.00000E+000	9	...........	1426.22
	42	3.8	-4.00727E-001	-1.82990E-004	0.00000E+000	-4.00011E-001	0.00000E+000	9	...........	1426.22
	43	3.9	-4.00729E-001	-1.82134E-004	0.00000E+000	-4.00011E-001	0.00000E+000	9	...........	1426.22
	44	4	-4.00732E-001	-1.81251E-004	0.00000E+000	-4.00011E-001	0.00000E+000	9	...........	1426.22
	45	4.1	-4.00734E-001	-1.80455E-004	0.00000E+000	-4.00011E-001	0.00000E+000	9	...........	1426.22
	46	4.2	-4.00745E-001	-1.79610E-004	0.00000E+000	-4.00011E-001	0.00000E+000	9	...........	1426.22
	47	4.3	-4.00741E-001	-1.78856E-004	0.00000E+000	-4.00011E-001	0.00000E+000	9	...........	1426.22
	48	4.4	-4.00737E-001	-1.78071E-004	0.00000E+000	-4.00011E-001	0.00000E+000	9	...........	1426.22
	49	4.5	-4.00736E-001	-1.77305E-004	0.00000E+000	-4.00011E-001	0.00000E+000	9	...........	1426.22
	50	4.6	-4.00732E-001	-1.76560E-004	0.00000E+000	-4.00011E-001	0.00000E+000	9	...........	1426.22
	51	4.7	-4.00737E-001	-1.75816E-004	0.00000E+000	-4.00011E-001	0.00000E+000	9	...........	1426.22
	52	4.8	-4.00745E-001	-1.75102E-004	0.00000E+000	-4.00011E-001	0.00000E+000	9	...........	1426.22
	53	4.9	-4.00734E-001	-1.74328E-004	0.00000E+000	-4.00011E-001	0.00000E+000	9	...........	1426.22
	54	5	-4.00737E-001	-1.73662E-004	0.00000E+000	-4.00011E-001	0.00000E+000	9	...........	1425.78
	55	5.1	-4.00735E-001	-1.72908E-004	0.00000E+000	-4.00011E-001	0.00000E+000	9	...........	1425.78
	56	5.2	-4.00739E-001	-1.72245E-004	0.00000E+000	-4.00011E-001	0.00000E+000	9	...........	1425.78
	57	5.3	-4.00728E-001	-1.71562E-004	0.00000E+000	-4.00011E-001	0.00000E+000	9	...........	1425.78
	58	5.4	-4.00723E-001	-1.70869E-004	0.00000E+000	-4.00011E-001	0.00000E+000	9	...........	1425.78
	59	5.5	-4.00728E-001	-1.70234E-004	0.00000E+000	-4.00011E-001	0.00000E+000	9	...........	1425.78
	60	5.6	-4.00731E-001	-1.69542E-004	0.00000E+000	-4.00011E-001	0.00000E+000	9	...........	1425.78
	61	5.7	-4.00725E-001	-1.68901E-004	0.00000E+000	-4.00011E-001	0.00000E+000	9	...........	1425.78
	62	5.8	-4.00721E-001	-1.68297E-004	0.00000E+000	-4.00011E-001	0.00000E+000	9	...........	1425.78
	63	5.9	-4.00722E-001	-1.67673E-004	0.00000E+000	-4.00011E-001	0.00000E+000	9	...........	1425.78
	64	6	-4.00727E-001	-1.67068E-004	0.00000E+000	-4.00011E-001	0.00000E+000	9	...........	1426.22
	65	6.1	-4.00732E-001	-1.66461E-004	0.00000E+000	-4.00011E-001	0.00000E+000	9	...........	1426.22
	66	7.1	-4.00736E-001	-1.60986E-004	0.00000E+000	-4.00011E-001	0.00000E+000	9	...........	1425.78
	67	8.1	-4.00727E-001	-1.56421E-004	0.00000E+000	-4.00011E-001	0.00000E+000	9	...........	1426.22
	68	9.1	-4.00736E-001	-1.52261E-004	0.00000E+000	-4.00011E-001	0.00000E+000	9	...........	1426.31
	69	10.1	-4.00739E-001	-1.48718E-004	0.00000E+000	-4.00011E-001	0.00000E+000	9	...........	1426.31
	70	11.1	-4.00731E-001	-1.45629E-004	0.00000E+000	-4.00011E-001	0.00000E+000	9	...........	1426.31
	71	12.1	-4.00728E-001	-1.42647E-004	0.00000E+000	-4.00011E-001	0.00000E+000	9	...........	1426.22
	72	13.1	-4.00724E-001	-1.39822E-004	0.00000E+000	-4.00011E-001	0.00000E+000	9	...........	1426.22
	73	14.1	-4.00734E-001	-1.37321E-004	0.00000E+000	-4.00011E-001	0.00000E+000	9	...........	1426.22
	74	15.1	-4.00731E-001	-1.34784E-004	0.00000E+000	-4.00011E-001	0.00000E+000	9	...........	1426.31
	75	16.1	-4.00728E-001	-1.32365E-004	0.00000E+000	-4.00011E-001	0.00000E+000	9	...........	1426.31
	76	26.1	-4.00721E-001	-1.16706E-004	0.00000E+000	-4.00011E-001	0.00000E+000	9	...........	1426.31
	77	36.1	-4.00710E-001	-1.06976E-004	0.00000E+000	-4.00011E-001	0.00000E+000	9	...........	1426.31
	78	46.1	-4.00737E-001	-1.00143E-004	0.00000E+000	-4.00011E-001	0.00000E+000	9	...........	1426.31
	79	56.1	-4.00754E-001	-9.50306E-005	0.00000E+000	-4.00011E-001	0.00000E+000	9	...........	1426.31
	80	66.1	-4.00736E-001	-9.11637E-005	0.00000E+000	-4.00011E-001	0.00000E+000	9	...........	1426.31
	81	76.1	-4.00717E-001	-8.77721E-005	0.00000E+000	-4.00011E-001	0.00000E+000	9	...........	1426.31
	82	86.1	-4.00722E-001	-8.46832E-005	0.00000E+000	-4.00011E-001	0.00000E+000	9	...........	1426.31
	83	96.1	-4.00733E-001	-8.25463E-005	0.00000E+000	-4.00011E-001	0.00000E+000	9	...........	1426.40
	84	106.1	-4.00733E-001	-8.05962E-005	0.00000E+000	-4.00011E-001	0.00000E+000	9	...........	1426.31
	85	116.1	-4.00719E-001	-7.87563E-005	0.00000E+000	-4.00011E-001	0.00000E+000	9	...........	1426.40
	86	216.1	-4.00718E-001	-6.80026E-005	0.00000E+000	-4.00011E-001	0.00000E+000	9	...........	1426.40
	87	300	-4.00731E-001	-6.33502E-005	0.00000E+000	-4.00011E-001	0.00000E+000	9	...........	1426.31
	88	300.1	-5.00739E-001	-3.04268E-004	0.00000E+000	-5.00010E-001	0.00000E+000	9	...........	1426.31
	89	300.2	-5.00741E-001	-2.42764E-004	0.00000E+000	-5.00010E-001	0.00000E+000	9	...........	1426.31
	90	300.3	-5.00737E-001	-2.23510E-004	0.00000E+000	-5.00010E-001	0.00000E+000	9	...........	1426.31
	91	300.4	-5.00739E-001	-2.13976E-004	0.00000E+000	-5.00010E-001	0.00000E+000	9	...........	1426.31
	92	300.5	-5.00745E-001	-2.07630E-004	0.00000E+000	-5.00010E-001	0.00000E+000	9	...........	1426.31
	93	300.6	-5.00740E-001	-2.02834E-004	0.00000E+000	-5.00010E-001	0.00000E+000	9	...........	1426.31
	94	300.7	-5.00734E-001	-1.98880E-004	0.00000E+000	-5.00010E-001	0.00000E+000	9	...........	1426.31
	95	300.8	-5.00722E-001	-1.95487E-004	0.00000E+000	-5.00010E-001	0.00000E+000	9	...........	1426.31
	96	300.9	-5.00731E-001	-1.92563E-004	0.00000E+000	-5.00010E-001	0.00000E+000	9	...........	1426.31
	97	301	-5.00748E-001	-1.89935E-004	0.00000E+000	-5.00010E-001	0.00000E+000	9	...........	1426.22
