EXPLAIN
TAG	CHRONOA
TITLE	LABEL	Chronoamperometry Scan	Test Identifier
DATE	LABEL	17/2/2022	Date
TIME	LABEL	11:44:36	Time
NOTES	NOTES	1	Notes...
	
PSTAT	PSTAT	IFC1010-21051	Potentiostat
VPRESTEP	POTEN	-3.00000E-001	F	Pre-step Voltage (V)
TPRESTEP	QUANT	5.00000E-001	Pre-step Delay Time (s)
VSTEP1	POTEN	-4.00000E-001	F	Step 1 Voltage (V)
TSTEP1	QUANT	3.00000E+002	Step 1 Time (s)
VSTEP2	POTEN	-5.00000E-001	F	Step 2 Voltage (V)
TSTEP2	QUANT	1.00000E+000	Step 2 Time (s)
SAMPLETIME	QUANT	1.00000E-001	Sample Period (s)
DECIMATE	TOGGLE	T	Decimate
ILIMIT	QUANT	1.00000E+000	Limit I (mA/cm^2)
IMODE	SELECTOR	1	I/E Range Mode
IRANGE	QUANT	3.00000E-001	Max Current (mA)
EQDELAY	QUANT	5.00000E+000	Equil. Time (s)
SAMPLINGMODE	SELECTOR	1	Sampling Mode
AREA	QUANT	1.00000E+000	Sample Area (cm^2)
IRCOMP	SELECTOR	0	IRComp
PFCOR	QUANT	5.00000E+001	PF Corr. (ohm)
SEQUENCER	TOGGLE	TRUE	Run as Sequence
PSTATMODEL	IQUANT	64	Pstat Model
PSTATSECTION	LABEL	IFC1010-21051	Pstat Section
PSTATSERIALNO	LABEL	21051	Pstat Serial Number
CTRLMODE	IQUANT	1	Control Mode
ELECTROMETER	IQUANT	0	RE=0 or CS=1
IESTAB	IQUANT	0	I/E Stability
CASPEED	IQUANT	4	Control Amp Speed
CONVENTION	IQUANT	1	Current Convention
ICHRANGE	IQUANT	2	Ich Range
ICHRANGEMODE	TOGGLE	T	Ich Auto Range
ICHOFFSETENABLE	TOGGLE	F	Ich Offset Enable
ICHOFFSET	QUANT	0	Ich Offset (V)
ICHFILTER	IQUANT	3	Ich Filter
VCHRANGE	IQUANT	3	Vch Range
VCHRANGEMODE	TOGGLE	T	Vch Auto Range
VCHOFFSETENABLE	TOGGLE	F	Vch Offset Enable
VCHOFFSET	QUANT	0	Vch Offset (V)
VCHFILTER	IQUANT	3	Vch Filter
IERANGELOWERLIMIT	IQUANT	4	I/E Range Lower Limit
IERANGEMODE	TOGGLE	F	I/E AutoRange
IERANGE	IQUANT	9	I/E Range
ACHSELECT	IQUANT	0	Ach Select
ACHRANGE	IQUANT	2	Ach Range
ACHOFFSETENABLE	TOGGLE	F	Ach Offset Enable
ACHOFFSET	QUANT	0	Ach Offset (V)
ACHFILTER	IQUANT	1	Ach Filter
SENSECABLEID	IQUANT	14	Sense Cable ID
PWRCABLEID	IQUANT	14	Power Cable ID
DCCALDATE	LABEL	1/24/2022	DC Calibration Date
ACCALDATE	LABEL	4/2/2018	AC Calibration Date
FRAMEWORKVERSION	QUANT	7.06	Framework Version
INSTRUMENTVERSION	LABEL	4.30	Instrument Version
CURVE	TABLE	98
	Pt	T	Vf	Im	Vu	Sig	Ach	IERange	Over	Temp
	#	s	V vs. Ref.	A	V	V	V	#	bits	deg C
	0	-0.4	-3.01220E-001	-6.17241E-005	0.00000E+000	-3.00011E-001	0.00000E+000	9	...........	1425.51
	1	-0.3	-3.00657E-001	-6.16058E-005	0.00000E+000	-3.00011E-001	0.00000E+000	9	...........	1425.51
	2	-0.2	-3.00646E-001	-6.14666E-005	0.00000E+000	-3.00011E-001	0.00000E+000	9	...........	1425.51
	3	-0.1	-3.00647E-001	-6.13603E-005	0.00000E+000	-3.00011E-001	0.00000E+000	9	...........	1425.51
	4	0	-3.00647E-001	-6.12591E-005	0.00000E+000	-3.00011E-001	0.00000E+000	9	...........	1425.51
	5	0.1	-4.00694E-001	-4.08345E-004	0.00000E+000	-4.00011E-001	0.00000E+000	9	...........	1425.51
	6	0.2	-4.00689E-001	-3.32650E-004	0.00000E+000	-4.00011E-001	0.00000E+000	9	...........	1425.51
	7	0.3	-4.00689E-001	-2.86606E-004	0.00000E+000	-4.00011E-001	0.00000E+000	9	...........	1425.51
	8	0.4	-4.00682E-001	-2.56938E-004	0.00000E+000	-4.00011E-001	0.00000E+000	9	...........	1425.51
	9	0.5	-4.00694E-001	-2.36809E-004	0.00000E+000	-4.00011E-001	0.00000E+000	9	...........	1425.51
	10	0.6	-4.00681E-001	-2.22505E-004	0.00000E+000	-4.00011E-001	0.00000E+000	9	...........	1425.51
	11	0.7	-4.00703E-001	-2.11999E-004	0.00000E+000	-4.00011E-001	0.00000E+000	9	...........	1425.51
	12	0.8	-4.00692E-001	-2.03932E-004	0.00000E+000	-4.00011E-001	0.00000E+000	9	...........	1425.51
	13	0.9	-4.00696E-001	-1.97609E-004	0.00000E+000	-4.00011E-001	0.00000E+000	9	...........	1425.51
	14	1	-4.00690E-001	-1.92417E-004	0.00000E+000	-4.00011E-001	0.00000E+000	9	...........	1425.51
	15	1.1	-4.00680E-001	-1.88101E-004	0.00000E+000	-4.00011E-001	0.00000E+000	9	...........	1425.51
	16	1.2	-4.00700E-001	-1.84474E-004	0.00000E+000	-4.00011E-001	0.00000E+000	9	...........	1425.51
	17	1.3	-4.00703E-001	-1.81337E-004	0.00000E+000	-4.00011E-001	0.00000E+000	9	...........	1425.51
	18	1.4	-4.00702E-001	-1.78531E-004	0.00000E+000	-4.00011E-001	0.00000E+000	9	...........	1425.51
	19	1.5	-4.00693E-001	-1.76076E-004	0.00000E+000	-4.00011E-001	0.00000E+000	9	...........	1425.51
	20	1.6	-4.00688E-001	-1.73829E-004	0.00000E+000	-4.00011E-001	0.00000E+000	9	...........	1425.51
	21	1.7	-4.00702E-001	-1.71722E-004	0.00000E+000	-4.00011E-001	0.00000E+000	9	...........	1425.51
	22	1.8	-4.00698E-001	-1.69881E-004	0.00000E+000	-4.00011E-001	0.00000E+000	9	...........	1425.51
	23	1.9	-4.00704E-001	-1.68156E-004	0.00000E+000	-4.00011E-001	0.00000E+000	9	...........	1425.51
	24	2	-4.00686E-001	-1.66508E-004	0.00000E+000	-4.00011E-001	0.00000E+000	9	...........	1425.51
	25	2.1	-4.00696E-001	-1.65027E-004	0.00000E+000	-4.00011E-001	0.00000E+000	9	...........	1425.51
	26	2.2	-4.00690E-001	-1.63583E-004	0.00000E+000	-4.00011E-001	0.00000E+000	9	...........	1425.51
	27	2.3	-4.00682E-001	-1.62213E-004	0.00000E+000	-4.00011E-001	0.00000E+000	9	...........	1425.51
	28	2.4	-4.00685E-001	-1.60937E-004	0.00000E+000	-4.00011E-001	0.00000E+000	9	...........	1425.51
	29	2.5	-4.00686E-001	-1.59718E-004	0.00000E+000	-4.00011E-001	0.00000E+000	9	...........	1425.51
	30	2.6	-4.00689E-001	-1.58562E-004	0.00000E+000	-4.00011E-001	0.00000E+000	9	...........	1425.51
	31	2.7	-4.00692E-001	-1.57447E-004	0.00000E+000	-4.00011E-001	0.00000E+000	9	...........	1425.51
	32	2.8	-4.00693E-001	-1.56369E-004	0.00000E+000	-4.00011E-001	0.00000E+000	9	...........	1425.51
	33	2.9	-4.00698E-001	-1.55362E-004	0.00000E+000	-4.00011E-001	0.00000E+000	9	...........	1425.51
	34	3	-4.00687E-001	-1.54345E-004	0.00000E+000	-4.00011E-001	0.00000E+000	9	...........	1425.51
	35	3.1	-4.00683E-001	-1.53411E-004	0.00000E+000	-4.00011E-001	0.00000E+000	9	...........	1425.51
	36	3.2	-4.00692E-001	-1.52485E-004	0.00000E+000	-4.00011E-001	0.00000E+000	9	...........	1425.51
	37	3.3	-4.00691E-001	-1.51622E-004	0.00000E+000	-4.00011E-001	0.00000E+000	9	...........	1425.51
	38	3.4	-4.00691E-001	-1.50784E-004	0.00000E+000	-4.00011E-001	0.00000E+000	9	...........	1425.51
	39	3.5	-4.00689E-001	-1.49937E-004	0.00000E+000	-4.00011E-001	0.00000E+000	9	...........	1425.51
	40	3.6	-4.00699E-001	-1.49131E-004	0.00000E+000	-4.00011E-001	0.00000E+000	9	...........	1425.51
	41	3.7	-4.00707E-001	-1.48349E-004	0.00000E+000	-4.00011E-001	0.00000E+000	9	...........	1425.51
	42	3.8	-4.00689E-001	-1.47599E-004	0.00000E+000	-4.00011E-001	0.00000E+000	9	...........	1425.51
	43	3.9	-4.00709E-001	-1.46854E-004	0.00000E+000	-4.00011E-001	0.00000E+000	9	...........	1425.51
	44	4	-4.00697E-001	-1.46150E-004	0.00000E+000	-4.00011E-001	0.00000E+000	9	...........	1425.51
	45	4.1	-4.00687E-001	-1.45449E-004	0.00000E+000	-4.00011E-001	0.00000E+000	9	...........	1425.51
	46	4.2	-4.00689E-001	-1.44751E-004	0.00000E+000	-4.00011E-001	0.00000E+000	9	...........	1425.51
	47	4.3	-4.00702E-001	-1.44082E-004	0.00000E+000	-4.00011E-001	0.00000E+000	9	...........	1425.51
	48	4.4	-4.00703E-001	-1.43452E-004	0.00000E+000	-4.00011E-001	0.00000E+000	9	...........	1425.51
	49	4.5	-4.00703E-001	-1.42815E-004	0.00000E+000	-4.00011E-001	0.00000E+000	9	...........	1425.51
	50	4.6	-4.00699E-001	-1.42219E-004	0.00000E+000	-4.00011E-001	0.00000E+000	9	...........	1425.51
	51	4.7	-4.00695E-001	-1.41588E-004	0.00000E+000	-4.00011E-001	0.00000E+000	9	...........	1425.51
	52	4.8	-4.00690E-001	-1.40959E-004	0.00000E+000	-4.00011E-001	0.00000E+000	9	...........	1425.51
	53	4.9	-4.00700E-001	-1.40418E-004	0.00000E+000	-4.00011E-001	0.00000E+000	9	...........	1425.51
	54	5	-4.00693E-001	-1.39836E-004	0.00000E+000	-4.00011E-001	0.00000E+000	9	...........	1425.51
	55	5.1	-4.00683E-001	-1.39253E-004	0.00000E+000	-4.00011E-001	0.00000E+000	9	...........	1425.51
	56	5.2	-4.00686E-001	-1.38768E-004	0.00000E+000	-4.00011E-001	0.00000E+000	9	...........	1425.51
	57	5.3	-4.00697E-001	-1.38235E-004	0.00000E+000	-4.00011E-001	0.00000E+000	9	...........	1425.51
	58	5.4	-4.00694E-001	-1.37685E-004	0.00000E+000	-4.00011E-001	0.00000E+000	9	...........	1425.51
	59	5.5	-4.00700E-001	-1.37198E-004	0.00000E+000	-4.00011E-001	0.00000E+000	9	...........	1425.51
	60	5.6	-4.00695E-001	-1.36706E-004	0.00000E+000	-4.00011E-001	0.00000E+000	9	...........	1425.51
	61	5.7	-4.00704E-001	-1.36196E-004	0.00000E+000	-4.00011E-001	0.00000E+000	9	...........	1425.51
	62	5.8	-4.00696E-001	-1.35738E-004	0.00000E+000	-4.00011E-001	0.00000E+000	9	...........	1425.51
	63	5.9	-4.00682E-001	-1.35215E-004	0.00000E+000	-4.00011E-001	0.00000E+000	9	...........	1425.51
	64	6	-4.00693E-001	-1.34769E-004	0.00000E+000	-4.00011E-001	0.00000E+000	9	...........	1425.25
	65	6.1	-4.00691E-001	-1.34294E-004	0.00000E+000	-4.00011E-001	0.00000E+000	9	...........	1425.25
	66	7.1	-4.00684E-001	-1.30073E-004	0.00000E+000	-4.00011E-001	0.00000E+000	9	...........	1425.51
	67	8.1	-4.00685E-001	-1.26442E-004	0.00000E+000	-4.00011E-001	0.00000E+000	9	...........	1425.51
	68	9.1	-4.00693E-001	-1.23232E-004	0.00000E+000	-4.00011E-001	0.00000E+000	9	...........	1425.51
	69	10.1	-4.00691E-001	-1.20391E-004	0.00000E+000	-4.00011E-001	0.00000E+000	9	...........	1425.51
	70	11.1	-4.00704E-001	-1.17825E-004	0.00000E+000	-4.00011E-001	0.00000E+000	9	...........	1425.60
	71	12.1	-4.00696E-001	-1.15458E-004	0.00000E+000	-4.00011E-001	0.00000E+000	9	...........	1425.51
	72	13.1	-4.00687E-001	-1.13256E-004	0.00000E+000	-4.00011E-001	0.00000E+000	9	...........	1425.60
	73	14.1	-4.00700E-001	-1.11253E-004	0.00000E+000	-4.00011E-001	0.00000E+000	9	...........	1425.51
	74	15.1	-4.00704E-001	-1.09406E-004	0.00000E+000	-4.00011E-001	0.00000E+000	9	...........	1425.42
	75	16.1	-4.00701E-001	-1.07690E-004	0.00000E+000	-4.00011E-001	0.00000E+000	9	...........	1425.60
	76	26.1	-4.00682E-001	-9.53536E-005	0.00000E+000	-4.00011E-001	0.00000E+000	9	...........	1425.60
	77	36.1	-4.00693E-001	-8.75957E-005	0.00000E+000	-4.00011E-001	0.00000E+000	9	...........	1425.60
	78	46.1	-4.00697E-001	-8.20804E-005	0.00000E+000	-4.00011E-001	0.00000E+000	9	...........	1425.51
	79	56.1	-4.00708E-001	-7.77880E-005	0.00000E+000	-4.00011E-001	0.00000E+000	9	...........	1425.60
	80	66.1	-4.00680E-001	-7.44012E-005	0.00000E+000	-4.00011E-001	0.00000E+000	9	...........	1425.60
	81	76.1	-4.00689E-001	-7.18342E-005	0.00000E+000	-4.00011E-001	0.00000E+000	9	...........	1425.60
	82	86.1	-4.00694E-001	-6.97785E-005	0.00000E+000	-4.00011E-001	0.00000E+000	9	...........	1425.69
	83	96.1	-4.00692E-001	-6.79121E-005	0.00000E+000	-4.00011E-001	0.00000E+000	9	...........	1425.60
	84	106.1	-4.00698E-001	-6.59881E-005	0.00000E+000	-4.00011E-001	0.00000E+000	9	...........	1425.69
	85	116.1	-4.00699E-001	-6.45641E-005	0.00000E+000	-4.00011E-001	0.00000E+000	9	...........	1425.69
	86	216.1	-4.00703E-001	-5.62205E-005	0.00000E+000	-4.00011E-001	0.00000E+000	9	...........	1425.69
	87	300	-4.00696E-001	-5.22049E-005	0.00000E+000	-4.00011E-001	0.00000E+000	9	...........	1425.69
	88	300.1	-5.00705E-001	-3.95362E-004	0.00000E+000	-5.00010E-001	0.00000E+000	9	...........	1425.69
	89	300.2	-5.00702E-001	-3.11549E-004	0.00000E+000	-5.00010E-001	0.00000E+000	9	...........	1425.69
	90	300.3	-5.00693E-001	-2.62420E-004	0.00000E+000	-5.00010E-001	0.00000E+000	9	...........	1425.69
	91	300.4	-5.00690E-001	-2.31713E-004	0.00000E+000	-5.00010E-001	0.00000E+000	9	...........	1425.69
	92	300.5	-5.00695E-001	-2.11526E-004	0.00000E+000	-5.00010E-001	0.00000E+000	9	...........	1425.69
	93	300.6	-5.00693E-001	-1.97771E-004	0.00000E+000	-5.00010E-001	0.00000E+000	9	...........	1425.69
	94	300.7	-5.00708E-001	-1.87943E-004	0.00000E+000	-5.00010E-001	0.00000E+000	9	...........	1425.69
	95	300.8	-5.00704E-001	-1.80618E-004	0.00000E+000	-5.00010E-001	0.00000E+000	9	...........	1425.69
	96	300.9	-5.00698E-001	-1.75013E-004	0.00000E+000	-5.00010E-001	0.00000E+000	9	...........	1425.69
	97	301	-5.00692E-001	-1.70508E-004	0.00000E+000	-5.00010E-001	0.00000E+000	9	...........	1425.69
