EXPLAIN
TAG	CHRONOA
TITLE	LABEL	Chronoamperometry Scan	Test Identifier
DATE	LABEL	17/2/2022	Date
TIME	LABEL	15:11:44	Time
NOTES	NOTES	1	Notes...
	
PSTAT	PSTAT	IFC1010-21051	Potentiostat
VPRESTEP	POTEN	-3.00000E-001	F	Pre-step Voltage (V)
TPRESTEP	QUANT	5.00000E-001	Pre-step Delay Time (s)
VSTEP1	POTEN	-4.00000E-001	F	Step 1 Voltage (V)
TSTEP1	QUANT	3.00000E+002	Step 1 Time (s)
VSTEP2	POTEN	-5.00000E-001	F	Step 2 Voltage (V)
TSTEP2	QUANT	1.00000E+000	Step 2 Time (s)
SAMPLETIME	QUANT	1.00000E-001	Sample Period (s)
DECIMATE	TOGGLE	T	Decimate
ILIMIT	QUANT	1.00000E+000	Limit I (mA/cm^2)
IMODE	SELECTOR	1	I/E Range Mode
IRANGE	QUANT	3.00000E-001	Max Current (mA)
EQDELAY	QUANT	5.00000E+000	Equil. Time (s)
SAMPLINGMODE	SELECTOR	1	Sampling Mode
AREA	QUANT	1.00000E+000	Sample Area (cm^2)
IRCOMP	SELECTOR	0	IRComp
PFCOR	QUANT	5.00000E+001	PF Corr. (ohm)
SEQUENCER	TOGGLE	TRUE	Run as Sequence
PSTATMODEL	IQUANT	64	Pstat Model
PSTATSECTION	LABEL	IFC1010-21051	Pstat Section
PSTATSERIALNO	LABEL	21051	Pstat Serial Number
CTRLMODE	IQUANT	1	Control Mode
ELECTROMETER	IQUANT	0	RE=0 or CS=1
IESTAB	IQUANT	0	I/E Stability
CASPEED	IQUANT	4	Control Amp Speed
CONVENTION	IQUANT	1	Current Convention
ICHRANGE	IQUANT	2	Ich Range
ICHRANGEMODE	TOGGLE	T	Ich Auto Range
ICHOFFSETENABLE	TOGGLE	F	Ich Offset Enable
ICHOFFSET	QUANT	0	Ich Offset (V)
ICHFILTER	IQUANT	3	Ich Filter
VCHRANGE	IQUANT	3	Vch Range
VCHRANGEMODE	TOGGLE	T	Vch Auto Range
VCHOFFSETENABLE	TOGGLE	F	Vch Offset Enable
VCHOFFSET	QUANT	0	Vch Offset (V)
VCHFILTER	IQUANT	3	Vch Filter
IERANGELOWERLIMIT	IQUANT	4	I/E Range Lower Limit
IERANGEMODE	TOGGLE	F	I/E AutoRange
IERANGE	IQUANT	9	I/E Range
ACHSELECT	IQUANT	0	Ach Select
ACHRANGE	IQUANT	2	Ach Range
ACHOFFSETENABLE	TOGGLE	F	Ach Offset Enable
ACHOFFSET	QUANT	0	Ach Offset (V)
ACHFILTER	IQUANT	1	Ach Filter
SENSECABLEID	IQUANT	14	Sense Cable ID
PWRCABLEID	IQUANT	14	Power Cable ID
DCCALDATE	LABEL	1/24/2022	DC Calibration Date
ACCALDATE	LABEL	4/2/2018	AC Calibration Date
FRAMEWORKVERSION	QUANT	7.06	Framework Version
INSTRUMENTVERSION	LABEL	4.30	Instrument Version
CURVE	TABLE	98
	Pt	T	Vf	Im	Vu	Sig	Ach	IERange	Over	Temp
	#	s	V vs. Ref.	A	V	V	V	#	bits	deg C
	0	-0.4	-3.01343E-001	-7.24244E-005	0.00000E+000	-3.00011E-001	0.00000E+000	9	...........	1426.13
	1	-0.3	-3.00693E-001	-7.23045E-005	0.00000E+000	-3.00011E-001	0.00000E+000	9	...........	1426.13
	2	-0.2	-3.00702E-001	-7.21896E-005	0.00000E+000	-3.00011E-001	0.00000E+000	9	...........	1426.13
	3	-0.1	-3.00697E-001	-7.20613E-005	0.00000E+000	-3.00011E-001	0.00000E+000	9	...........	1426.13
	4	0	-3.00694E-001	-7.19344E-005	0.00000E+000	-3.00011E-001	0.00000E+000	9	...........	1426.13
	5	0.1	-4.00735E-001	-3.74257E-004	0.00000E+000	-4.00011E-001	0.00000E+000	9	...........	1426.13
	6	0.2	-4.00742E-001	-3.02140E-004	0.00000E+000	-4.00011E-001	0.00000E+000	9	...........	1426.13
	7	0.3	-4.00740E-001	-2.68632E-004	0.00000E+000	-4.00011E-001	0.00000E+000	9	...........	1426.13
	8	0.4	-4.00753E-001	-2.51310E-004	0.00000E+000	-4.00011E-001	0.00000E+000	9	...........	1426.13
	9	0.5	-4.00736E-001	-2.40949E-004	0.00000E+000	-4.00011E-001	0.00000E+000	9	...........	1426.13
	10	0.6	-4.00728E-001	-2.33927E-004	0.00000E+000	-4.00011E-001	0.00000E+000	9	...........	1426.13
	11	0.7	-4.00739E-001	-2.28741E-004	0.00000E+000	-4.00011E-001	0.00000E+000	9	...........	1426.13
	12	0.8	-4.00739E-001	-2.24572E-004	0.00000E+000	-4.00011E-001	0.00000E+000	9	...........	1426.13
	13	0.9	-4.00740E-001	-2.20995E-004	0.00000E+000	-4.00011E-001	0.00000E+000	9	...........	1426.13
	14	1	-4.00735E-001	-2.17978E-004	0.00000E+000	-4.00011E-001	0.00000E+000	9	...........	1426.13
	15	1.1	-4.00735E-001	-2.15174E-004	0.00000E+000	-4.00011E-001	0.00000E+000	9	...........	1426.13
	16	1.2	-4.00729E-001	-2.12654E-004	0.00000E+000	-4.00011E-001	0.00000E+000	9	...........	1426.13
	17	1.3	-4.00733E-001	-2.10332E-004	0.00000E+000	-4.00011E-001	0.00000E+000	9	...........	1426.13
	18	1.4	-4.00726E-001	-2.08156E-004	0.00000E+000	-4.00011E-001	0.00000E+000	9	...........	1426.13
	19	1.5	-4.00718E-001	-2.06089E-004	0.00000E+000	-4.00011E-001	0.00000E+000	9	...........	1426.13
	20	1.6	-4.00714E-001	-2.04177E-004	0.00000E+000	-4.00011E-001	0.00000E+000	9	...........	1426.13
	21	1.7	-4.00717E-001	-2.02345E-004	0.00000E+000	-4.00011E-001	0.00000E+000	9	...........	1425.69
	22	1.8	-4.00718E-001	-2.00571E-004	0.00000E+000	-4.00011E-001	0.00000E+000	9	...........	1425.69
	23	1.9	-4.00725E-001	-1.98933E-004	0.00000E+000	-4.00011E-001	0.00000E+000	9	...........	1425.69
	24	2	-4.00729E-001	-1.97332E-004	0.00000E+000	-4.00011E-001	0.00000E+000	9	...........	1425.69
	25	2.1	-4.00724E-001	-1.95804E-004	0.00000E+000	-4.00011E-001	0.00000E+000	9	...........	1425.69
	26	2.2	-4.00722E-001	-1.94332E-004	0.00000E+000	-4.00011E-001	0.00000E+000	9	...........	1425.69
	27	2.3	-4.00731E-001	-1.92926E-004	0.00000E+000	-4.00011E-001	0.00000E+000	9	...........	1425.69
	28	2.4	-4.00723E-001	-1.91546E-004	0.00000E+000	-4.00011E-001	0.00000E+000	9	...........	1425.69
	29	2.5	-4.00731E-001	-1.90236E-004	0.00000E+000	-4.00011E-001	0.00000E+000	9	...........	1425.69
	30	2.6	-4.00750E-001	-1.88969E-004	0.00000E+000	-4.00011E-001	0.00000E+000	9	...........	1425.69
	31	2.7	-4.00747E-001	-1.87706E-004	0.00000E+000	-4.00011E-001	0.00000E+000	9	...........	1425.69
	32	2.8	-4.00725E-001	-1.86537E-004	0.00000E+000	-4.00011E-001	0.00000E+000	9	...........	1425.69
	33	2.9	-4.00731E-001	-1.85384E-004	0.00000E+000	-4.00011E-001	0.00000E+000	9	...........	1425.69
	34	3	-4.00728E-001	-1.84251E-004	0.00000E+000	-4.00011E-001	0.00000E+000	9	...........	1425.69
	35	3.1	-4.00735E-001	-1.83174E-004	0.00000E+000	-4.00011E-001	0.00000E+000	9	...........	1425.69
	36	3.2	-4.00732E-001	-1.82104E-004	0.00000E+000	-4.00011E-001	0.00000E+000	9	...........	1425.69
	37	3.3	-4.00723E-001	-1.81087E-004	0.00000E+000	-4.00011E-001	0.00000E+000	9	...........	1425.69
	38	3.4	-4.00727E-001	-1.80092E-004	0.00000E+000	-4.00011E-001	0.00000E+000	9	...........	1425.69
	39	3.5	-4.00720E-001	-1.79106E-004	0.00000E+000	-4.00011E-001	0.00000E+000	9	...........	1425.69
	40	3.6	-4.00729E-001	-1.78152E-004	0.00000E+000	-4.00011E-001	0.00000E+000	9	...........	1425.69
	41	3.7	-4.00726E-001	-1.77212E-004	0.00000E+000	-4.00011E-001	0.00000E+000	9	...........	1425.87
	42	3.8	-4.00730E-001	-1.76314E-004	0.00000E+000	-4.00011E-001	0.00000E+000	9	...........	1425.87
	43	3.9	-4.00732E-001	-1.75431E-004	0.00000E+000	-4.00011E-001	0.00000E+000	9	...........	1425.87
	44	4	-4.00742E-001	-1.74591E-004	0.00000E+000	-4.00011E-001	0.00000E+000	9	...........	1425.87
	45	4.1	-4.00735E-001	-1.73729E-004	0.00000E+000	-4.00011E-001	0.00000E+000	9	...........	1425.87
	46	4.2	-4.00742E-001	-1.72909E-004	0.00000E+000	-4.00011E-001	0.00000E+000	9	...........	1425.87
	47	4.3	-4.00752E-001	-1.72079E-004	0.00000E+000	-4.00011E-001	0.00000E+000	9	...........	1425.87
	48	4.4	-4.00740E-001	-1.71330E-004	0.00000E+000	-4.00011E-001	0.00000E+000	9	...........	1425.87
	49	4.5	-4.00736E-001	-1.70564E-004	0.00000E+000	-4.00011E-001	0.00000E+000	9	...........	1425.87
	50	4.6	-4.00736E-001	-1.69801E-004	0.00000E+000	-4.00011E-001	0.00000E+000	9	...........	1425.87
	51	4.7	-4.00728E-001	-1.69061E-004	0.00000E+000	-4.00011E-001	0.00000E+000	9	...........	1425.69
	52	4.8	-4.00726E-001	-1.68338E-004	0.00000E+000	-4.00011E-001	0.00000E+000	9	...........	1425.69
	53	4.9	-4.00712E-001	-1.67570E-004	0.00000E+000	-4.00011E-001	0.00000E+000	9	...........	1425.69
	54	5	-4.00725E-001	-1.66862E-004	0.00000E+000	-4.00011E-001	0.00000E+000	9	...........	1425.69
	55	5.1	-4.00733E-001	-1.66217E-004	0.00000E+000	-4.00011E-001	0.00000E+000	9	...........	1425.69
	56	5.2	-4.00735E-001	-1.65524E-004	0.00000E+000	-4.00011E-001	0.00000E+000	9	...........	1425.69
	57	5.3	-4.00732E-001	-1.64840E-004	0.00000E+000	-4.00011E-001	0.00000E+000	9	...........	1425.69
	58	5.4	-4.00738E-001	-1.64198E-004	0.00000E+000	-4.00011E-001	0.00000E+000	9	...........	1425.69
	59	5.5	-4.00730E-001	-1.63601E-004	0.00000E+000	-4.00011E-001	0.00000E+000	9	...........	1425.69
	60	5.6	-4.00744E-001	-1.62938E-004	0.00000E+000	-4.00011E-001	0.00000E+000	9	...........	1425.69
	61	5.7	-4.00734E-001	-1.62354E-004	0.00000E+000	-4.00011E-001	0.00000E+000	9	...........	1425.69
	62	5.8	-4.00741E-001	-1.61740E-004	0.00000E+000	-4.00011E-001	0.00000E+000	9	...........	1425.69
	63	5.9	-4.00723E-001	-1.61136E-004	0.00000E+000	-4.00011E-001	0.00000E+000	9	...........	1425.69
	64	6	-4.00735E-001	-1.60552E-004	0.00000E+000	-4.00011E-001	0.00000E+000	9	...........	1425.69
	65	6.1	-4.00735E-001	-1.60008E-004	0.00000E+000	-4.00011E-001	0.00000E+000	9	...........	1425.69
	66	7.1	-4.00727E-001	-1.54798E-004	0.00000E+000	-4.00011E-001	0.00000E+000	9	...........	1425.69
	67	8.1	-4.00726E-001	-1.50271E-004	0.00000E+000	-4.00011E-001	0.00000E+000	9	...........	1426.13
	68	9.1	-4.00726E-001	-1.46354E-004	0.00000E+000	-4.00011E-001	0.00000E+000	9	...........	1426.13
	69	10.1	-4.00733E-001	-1.42843E-004	0.00000E+000	-4.00011E-001	0.00000E+000	9	...........	1426.13
	70	11.1	-4.00726E-001	-1.39640E-004	0.00000E+000	-4.00011E-001	0.00000E+000	9	...........	1426.13
	71	12.1	-4.00737E-001	-1.36768E-004	0.00000E+000	-4.00011E-001	0.00000E+000	9	...........	1426.13
	72	13.1	-4.00723E-001	-1.34163E-004	0.00000E+000	-4.00011E-001	0.00000E+000	9	...........	1426.13
	73	14.1	-4.00749E-001	-1.31842E-004	0.00000E+000	-4.00011E-001	0.00000E+000	9	...........	1426.13
	74	15.1	-4.00741E-001	-1.29730E-004	0.00000E+000	-4.00011E-001	0.00000E+000	9	...........	1426.13
	75	16.1	-4.00732E-001	-1.27702E-004	0.00000E+000	-4.00011E-001	0.00000E+000	9	...........	1426.13
	76	26.1	-4.00725E-001	-1.12615E-004	0.00000E+000	-4.00011E-001	0.00000E+000	9	...........	1426.13
	77	36.1	-4.00734E-001	-1.03653E-004	0.00000E+000	-4.00011E-001	0.00000E+000	9	...........	1426.22
	78	46.1	-4.00724E-001	-9.67491E-005	0.00000E+000	-4.00011E-001	0.00000E+000	9	...........	1426.22
	79	56.1	-4.00738E-001	-9.21750E-005	0.00000E+000	-4.00011E-001	0.00000E+000	9	...........	1426.22
	80	66.1	-4.00722E-001	-8.81045E-005	0.00000E+000	-4.00011E-001	0.00000E+000	9	...........	1426.22
	81	76.1	-4.00729E-001	-8.48251E-005	0.00000E+000	-4.00011E-001	0.00000E+000	9	...........	1426.22
	82	86.1	-4.00730E-001	-8.26290E-005	0.00000E+000	-4.00011E-001	0.00000E+000	9	...........	1426.31
	83	96.1	-4.00731E-001	-8.00668E-005	0.00000E+000	-4.00011E-001	0.00000E+000	9	...........	1426.22
	84	106.1	-4.00724E-001	-7.83999E-005	0.00000E+000	-4.00011E-001	0.00000E+000	9	...........	1426.22
	85	116.1	-4.00725E-001	-7.64195E-005	0.00000E+000	-4.00011E-001	0.00000E+000	9	...........	1426.22
	86	216.1	-4.00728E-001	-6.64197E-005	0.00000E+000	-4.00011E-001	0.00000E+000	9	...........	1426.31
	87	300	-4.00730E-001	-6.17300E-005	0.00000E+000	-4.00011E-001	0.00000E+000	9	...........	1426.31
	88	300.1	-5.00742E-001	-3.45407E-004	0.00000E+000	-5.00010E-001	0.00000E+000	9	...........	1426.31
	89	300.2	-5.00742E-001	-2.64809E-004	0.00000E+000	-5.00010E-001	0.00000E+000	9	...........	1426.31
	90	300.3	-5.00733E-001	-2.31580E-004	0.00000E+000	-5.00010E-001	0.00000E+000	9	...........	1426.31
	91	300.4	-5.00732E-001	-2.14800E-004	0.00000E+000	-5.00010E-001	0.00000E+000	9	...........	1426.31
	92	300.5	-5.00727E-001	-2.04851E-004	0.00000E+000	-5.00010E-001	0.00000E+000	9	...........	1426.31
	93	300.6	-5.00729E-001	-1.98204E-004	0.00000E+000	-5.00010E-001	0.00000E+000	9	...........	1426.31
	94	300.7	-5.00736E-001	-1.93255E-004	0.00000E+000	-5.00010E-001	0.00000E+000	9	...........	1426.22
	95	300.8	-5.00724E-001	-1.89396E-004	0.00000E+000	-5.00010E-001	0.00000E+000	9	...........	1426.22
	96	300.9	-5.00714E-001	-1.86108E-004	0.00000E+000	-5.00010E-001	0.00000E+000	9	...........	1426.22
	97	301	-5.00740E-001	-1.83370E-004	0.00000E+000	-5.00010E-001	0.00000E+000	9	...........	1426.22
