EXPLAIN
TAG	CHRONOA
TITLE	LABEL	Chronoamperometry Scan	Test Identifier
DATE	LABEL	17/2/2022	Date
TIME	LABEL	16:44:19	Time
NOTES	NOTES	1	Notes...
	
PSTAT	PSTAT	IFC1010-21051	Potentiostat
VPRESTEP	POTEN	3.00000E-001	F	Pre-step Voltage (V)
TPRESTEP	QUANT	5.00000E-001	Pre-step Delay Time (s)
VSTEP1	POTEN	4.00000E-001	F	Step 1 Voltage (V)
TSTEP1	QUANT	3.00000E+002	Step 1 Time (s)
VSTEP2	POTEN	3.00000E-001	F	Step 2 Voltage (V)
TSTEP2	QUANT	1.00000E+000	Step 2 Time (s)
SAMPLETIME	QUANT	1.00000E-001	Sample Period (s)
DECIMATE	TOGGLE	T	Decimate
ILIMIT	QUANT	1.00000E+000	Limit I (mA/cm^2)
IMODE	SELECTOR	1	I/E Range Mode
IRANGE	QUANT	3.00000E-001	Max Current (mA)
EQDELAY	QUANT	5.00000E+000	Equil. Time (s)
SAMPLINGMODE	SELECTOR	1	Sampling Mode
AREA	QUANT	1.00000E+000	Sample Area (cm^2)
IRCOMP	SELECTOR	0	IRComp
PFCOR	QUANT	5.00000E+001	PF Corr. (ohm)
SEQUENCER	TOGGLE	TRUE	Run as Sequence
PSTATMODEL	IQUANT	64	Pstat Model
PSTATSECTION	LABEL	IFC1010-21051	Pstat Section
PSTATSERIALNO	LABEL	21051	Pstat Serial Number
CTRLMODE	IQUANT	1	Control Mode
ELECTROMETER	IQUANT	0	RE=0 or CS=1
IESTAB	IQUANT	0	I/E Stability
CASPEED	IQUANT	4	Control Amp Speed
CONVENTION	IQUANT	1	Current Convention
ICHRANGE	IQUANT	2	Ich Range
ICHRANGEMODE	TOGGLE	T	Ich Auto Range
ICHOFFSETENABLE	TOGGLE	F	Ich Offset Enable
ICHOFFSET	QUANT	0	Ich Offset (V)
ICHFILTER	IQUANT	3	Ich Filter
VCHRANGE	IQUANT	3	Vch Range
VCHRANGEMODE	TOGGLE	T	Vch Auto Range
VCHOFFSETENABLE	TOGGLE	F	Vch Offset Enable
VCHOFFSET	QUANT	0	Vch Offset (V)
VCHFILTER	IQUANT	3	Vch Filter
IERANGELOWERLIMIT	IQUANT	4	I/E Range Lower Limit
IERANGEMODE	TOGGLE	F	I/E AutoRange
IERANGE	IQUANT	9	I/E Range
ACHSELECT	IQUANT	0	Ach Select
ACHRANGE	IQUANT	2	Ach Range
ACHOFFSETENABLE	TOGGLE	F	Ach Offset Enable
ACHOFFSET	QUANT	0	Ach Offset (V)
ACHFILTER	IQUANT	1	Ach Filter
SENSECABLEID	IQUANT	14	Sense Cable ID
PWRCABLEID	IQUANT	14	Power Cable ID
DCCALDATE	LABEL	1/24/2022	DC Calibration Date
ACCALDATE	LABEL	4/2/2018	AC Calibration Date
FRAMEWORKVERSION	QUANT	7.06	Framework Version
INSTRUMENTVERSION	LABEL	4.30	Instrument Version
CURVE	TABLE	98
	Pt	T	Vf	Im	Vu	Sig	Ach	IERange	Over	Temp
	#	s	V vs. Ref.	A	V	V	V	#	bits	deg C
	0	-0.4	2.99578E-001	9.38980E-006	0.00000E+000	3.00072E-001	0.00000E+000	9	...........	1426.22
	1	-0.3	3.00302E-001	9.30775E-006	0.00000E+000	3.00072E-001	0.00000E+000	9	...........	1426.22
	2	-0.2	3.00305E-001	9.24782E-006	0.00000E+000	3.00072E-001	0.00000E+000	9	...........	1426.22
	3	-0.1	3.00301E-001	9.17468E-006	0.00000E+000	3.00072E-001	0.00000E+000	9	...........	1426.22
	4	0	3.00295E-001	9.11208E-006	0.00000E+000	3.00072E-001	0.00000E+000	9	...........	1426.22
	5	0.1	4.00360E-001	3.93711E-004	0.00000E+000	4.00072E-001	0.00000E+000	9	...........	1426.22
	6	0.2	4.00337E-001	3.51881E-004	0.00000E+000	4.00072E-001	0.00000E+000	9	...........	1426.22
	7	0.3	4.00350E-001	3.21671E-004	0.00000E+000	4.00072E-001	0.00000E+000	9	...........	1426.22
	8	0.4	4.00349E-001	2.98732E-004	0.00000E+000	4.00072E-001	0.00000E+000	9	...........	1426.22
	9	0.5	4.00351E-001	2.80280E-004	0.00000E+000	4.00072E-001	0.00000E+000	9	...........	1426.22
	10	0.6	4.00337E-001	2.65110E-004	0.00000E+000	4.00072E-001	0.00000E+000	9	...........	1426.22
	11	0.7	4.00342E-001	2.52072E-004	0.00000E+000	4.00072E-001	0.00000E+000	9	...........	1426.22
	12	0.8	4.00357E-001	2.40664E-004	0.00000E+000	4.00072E-001	0.00000E+000	9	...........	1426.22
	13	0.9	4.00347E-001	2.30606E-004	0.00000E+000	4.00072E-001	0.00000E+000	9	...........	1426.22
	14	1	4.00344E-001	2.21556E-004	0.00000E+000	4.00072E-001	0.00000E+000	9	...........	1426.22
	15	1.1	4.00344E-001	2.13363E-004	0.00000E+000	4.00072E-001	0.00000E+000	9	...........	1426.22
	16	1.2	4.00347E-001	2.05910E-004	0.00000E+000	4.00072E-001	0.00000E+000	9	...........	1426.22
	17	1.3	4.00343E-001	1.99092E-004	0.00000E+000	4.00072E-001	0.00000E+000	9	...........	1426.22
	18	1.4	4.00348E-001	1.92855E-004	0.00000E+000	4.00072E-001	0.00000E+000	9	...........	1426.22
	19	1.5	4.00348E-001	1.87102E-004	0.00000E+000	4.00072E-001	0.00000E+000	9	...........	1426.22
	20	1.6	4.00357E-001	1.81773E-004	0.00000E+000	4.00072E-001	0.00000E+000	9	...........	1426.22
	21	1.7	4.00360E-001	1.76721E-004	0.00000E+000	4.00072E-001	0.00000E+000	9	...........	1426.22
	22	1.8	4.00356E-001	1.72056E-004	0.00000E+000	4.00072E-001	0.00000E+000	9	...........	1426.22
	23	1.9	4.00361E-001	1.67708E-004	0.00000E+000	4.00072E-001	0.00000E+000	9	...........	1426.22
	24	2	4.00345E-001	1.63580E-004	0.00000E+000	4.00072E-001	0.00000E+000	9	...........	1426.22
	25	2.1	4.00354E-001	1.59741E-004	0.00000E+000	4.00072E-001	0.00000E+000	9	...........	1426.22
	26	2.2	4.00346E-001	1.56080E-004	0.00000E+000	4.00072E-001	0.00000E+000	9	...........	1426.22
	27	2.3	4.00357E-001	1.52658E-004	0.00000E+000	4.00072E-001	0.00000E+000	9	...........	1426.22
	28	2.4	4.00353E-001	1.49380E-004	0.00000E+000	4.00072E-001	0.00000E+000	9	...........	1426.13
	29	2.5	4.00349E-001	1.46274E-004	0.00000E+000	4.00072E-001	0.00000E+000	9	...........	1426.13
	30	2.6	4.00358E-001	1.43319E-004	0.00000E+000	4.00072E-001	0.00000E+000	9	...........	1426.13
	31	2.7	4.00362E-001	1.40472E-004	0.00000E+000	4.00072E-001	0.00000E+000	9	...........	1426.13
	32	2.8	4.00345E-001	1.37806E-004	0.00000E+000	4.00072E-001	0.00000E+000	9	...........	1426.13
	33	2.9	4.00356E-001	1.35208E-004	0.00000E+000	4.00072E-001	0.00000E+000	9	...........	1426.13
	34	3	4.00344E-001	1.32759E-004	0.00000E+000	4.00072E-001	0.00000E+000	9	...........	1426.13
	35	3.1	4.00348E-001	1.30362E-004	0.00000E+000	4.00072E-001	0.00000E+000	9	...........	1426.13
	36	3.2	4.00357E-001	1.28106E-004	0.00000E+000	4.00072E-001	0.00000E+000	9	...........	1426.13
	37	3.3	4.00357E-001	1.25912E-004	0.00000E+000	4.00072E-001	0.00000E+000	9	...........	1426.13
	38	3.4	4.00359E-001	1.23815E-004	0.00000E+000	4.00072E-001	0.00000E+000	9	...........	1426.13
	39	3.5	4.00366E-001	1.21797E-004	0.00000E+000	4.00072E-001	0.00000E+000	9	...........	1426.13
	40	3.6	4.00348E-001	1.19867E-004	0.00000E+000	4.00072E-001	0.00000E+000	9	...........	1426.13
	41	3.7	4.00364E-001	1.17967E-004	0.00000E+000	4.00072E-001	0.00000E+000	9	...........	1426.13
	42	3.8	4.00345E-001	1.16117E-004	0.00000E+000	4.00072E-001	0.00000E+000	9	...........	1426.13
	43	3.9	4.00345E-001	1.14409E-004	0.00000E+000	4.00072E-001	0.00000E+000	9	...........	1426.13
	44	4	4.00354E-001	1.12691E-004	0.00000E+000	4.00072E-001	0.00000E+000	9	...........	1426.13
	45	4.1	4.00363E-001	1.11003E-004	0.00000E+000	4.00072E-001	0.00000E+000	9	...........	1426.13
	46	4.2	4.00354E-001	1.09433E-004	0.00000E+000	4.00072E-001	0.00000E+000	9	...........	1426.13
	47	4.3	4.00348E-001	1.07868E-004	0.00000E+000	4.00072E-001	0.00000E+000	9	...........	1426.13
	48	4.4	4.00351E-001	1.06349E-004	0.00000E+000	4.00072E-001	0.00000E+000	9	...........	1426.22
	49	4.5	4.00357E-001	1.04864E-004	0.00000E+000	4.00072E-001	0.00000E+000	9	...........	1426.22
	50	4.6	4.00351E-001	1.03429E-004	0.00000E+000	4.00072E-001	0.00000E+000	9	...........	1426.22
	51	4.7	4.00353E-001	1.02070E-004	0.00000E+000	4.00072E-001	0.00000E+000	9	...........	1426.22
	52	4.8	4.00352E-001	1.00699E-004	0.00000E+000	4.00072E-001	0.00000E+000	9	...........	1426.22
	53	4.9	4.00364E-001	9.93660E-005	0.00000E+000	4.00072E-001	0.00000E+000	9	...........	1426.22
	54	5	4.00340E-001	9.80706E-005	0.00000E+000	4.00072E-001	0.00000E+000	9	...........	1426.22
	55	5.1	4.00339E-001	9.68603E-005	0.00000E+000	4.00072E-001	0.00000E+000	9	...........	1426.22
	56	5.2	4.00353E-001	9.56604E-005	0.00000E+000	4.00072E-001	0.00000E+000	9	...........	1426.22
	57	5.3	4.00352E-001	9.44422E-005	0.00000E+000	4.00072E-001	0.00000E+000	9	...........	1426.22
	58	5.4	4.00352E-001	9.32962E-005	0.00000E+000	4.00072E-001	0.00000E+000	9	...........	1426.13
	59	5.5	4.00347E-001	9.21923E-005	0.00000E+000	4.00072E-001	0.00000E+000	9	...........	1426.13
	60	5.6	4.00373E-001	9.10781E-005	0.00000E+000	4.00072E-001	0.00000E+000	9	...........	1426.13
	61	5.7	4.00353E-001	9.00443E-005	0.00000E+000	4.00072E-001	0.00000E+000	9	...........	1426.13
	62	5.8	4.00360E-001	8.90380E-005	0.00000E+000	4.00072E-001	0.00000E+000	9	...........	1426.13
	63	5.9	4.00362E-001	8.80171E-005	0.00000E+000	4.00072E-001	0.00000E+000	9	...........	1426.13
	64	6	4.00357E-001	8.70497E-005	0.00000E+000	4.00072E-001	0.00000E+000	9	...........	1426.13
	65	6.1	4.00350E-001	8.60867E-005	0.00000E+000	4.00072E-001	0.00000E+000	9	...........	1426.13
	66	7.1	4.00346E-001	7.75859E-005	0.00000E+000	4.00072E-001	0.00000E+000	9	...........	1426.13
	67	8.1	4.00361E-001	7.06099E-005	0.00000E+000	4.00072E-001	0.00000E+000	9	...........	1426.22
	68	9.1	4.00354E-001	6.48378E-005	0.00000E+000	4.00072E-001	0.00000E+000	9	...........	1426.22
	69	10.1	4.00362E-001	6.00259E-005	0.00000E+000	4.00072E-001	0.00000E+000	9	...........	1426.22
	70	11.1	4.00357E-001	5.57946E-005	0.00000E+000	4.00072E-001	0.00000E+000	9	...........	1426.22
	71	12.1	4.00358E-001	5.21049E-005	0.00000E+000	4.00072E-001	0.00000E+000	9	...........	1426.22
	72	13.1	4.00351E-001	4.90306E-005	0.00000E+000	4.00072E-001	0.00000E+000	9	...........	1426.22
	73	14.1	4.00358E-001	4.63294E-005	0.00000E+000	4.00072E-001	0.00000E+000	9	...........	1426.22
	74	15.1	4.00345E-001	4.39622E-005	0.00000E+000	4.00072E-001	0.00000E+000	9	...........	1426.22
	75	16.1	4.00364E-001	4.19805E-005	0.00000E+000	4.00072E-001	0.00000E+000	9	...........	1426.22
	76	26.1	4.00359E-001	2.90921E-005	0.00000E+000	4.00072E-001	0.00000E+000	9	...........	1426.22
	77	36.1	4.00364E-001	2.35774E-005	0.00000E+000	4.00072E-001	0.00000E+000	9	...........	1426.22
	78	46.1	4.00352E-001	2.08400E-005	0.00000E+000	4.00072E-001	0.00000E+000	9	...........	1426.22
	79	56.1	4.00356E-001	1.86768E-005	0.00000E+000	4.00072E-001	0.00000E+000	9	...........	1426.22
	80	66.1	4.00343E-001	1.77436E-005	0.00000E+000	4.00072E-001	0.00000E+000	9	...........	1426.22
	81	76.1	4.00351E-001	1.69338E-005	0.00000E+000	4.00072E-001	0.00000E+000	9	...........	1426.22
	82	86.1	4.00347E-001	1.60880E-005	0.00000E+000	4.00072E-001	0.00000E+000	9	...........	1426.22
	83	96.1	4.00360E-001	1.58146E-005	0.00000E+000	4.00072E-001	0.00000E+000	9	...........	1426.22
	84	106.1	4.00342E-001	1.52205E-005	0.00000E+000	4.00072E-001	0.00000E+000	9	...........	1426.22
	85	116.1	4.00354E-001	1.50845E-005	0.00000E+000	4.00072E-001	0.00000E+000	9	...........	1426.22
	86	216.1	4.00364E-001	1.37441E-005	0.00000E+000	4.00072E-001	0.00000E+000	9	...........	1426.22
	87	300	4.00358E-001	1.33481E-005	0.00000E+000	4.00072E-001	0.00000E+000	9	...........	1426.13
	88	300.1	3.00310E-001	-2.73620E-004	0.00000E+000	3.00072E-001	0.00000E+000	9	...........	1426.13
	89	300.2	3.00309E-001	-1.95780E-004	0.00000E+000	3.00072E-001	0.00000E+000	9	...........	1426.13
	90	300.3	3.00303E-001	-1.49941E-004	0.00000E+000	3.00072E-001	0.00000E+000	9	...........	1426.13
	91	300.4	3.00299E-001	-1.20804E-004	0.00000E+000	3.00072E-001	0.00000E+000	9	...........	1426.22
	92	300.5	3.00300E-001	-1.01280E-004	0.00000E+000	3.00072E-001	0.00000E+000	9	...........	1426.22
	93	300.6	3.00303E-001	-8.75155E-005	0.00000E+000	3.00072E-001	0.00000E+000	9	...........	1426.22
	94	300.7	3.00305E-001	-7.74013E-005	0.00000E+000	3.00072E-001	0.00000E+000	9	...........	1426.22
	95	300.8	3.00314E-001	-6.96765E-005	0.00000E+000	3.00072E-001	0.00000E+000	9	...........	1426.22
	96	300.9	3.00322E-001	-6.35595E-005	0.00000E+000	3.00072E-001	0.00000E+000	9	...........	1426.22
	97	301	3.00312E-001	-5.86090E-005	0.00000E+000	3.00072E-001	0.00000E+000	9	...........	1426.22
