EXPLAIN
TAG	CHRONOA
TITLE	LABEL	Chronoamperometry Scan	Test Identifier
DATE	LABEL	17/2/2022	Date
TIME	LABEL	13:02:27	Time
NOTES	NOTES	1	Notes...
	
PSTAT	PSTAT	IFC1010-21051	Potentiostat
VPRESTEP	POTEN	-3.00000E-001	F	Pre-step Voltage (V)
TPRESTEP	QUANT	5.00000E-001	Pre-step Delay Time (s)
VSTEP1	POTEN	-4.00000E-001	F	Step 1 Voltage (V)
TSTEP1	QUANT	3.00000E+002	Step 1 Time (s)
VSTEP2	POTEN	-5.00000E-001	F	Step 2 Voltage (V)
TSTEP2	QUANT	1.00000E+000	Step 2 Time (s)
SAMPLETIME	QUANT	1.00000E-001	Sample Period (s)
DECIMATE	TOGGLE	T	Decimate
ILIMIT	QUANT	1.00000E+000	Limit I (mA/cm^2)
IMODE	SELECTOR	1	I/E Range Mode
IRANGE	QUANT	3.00000E-001	Max Current (mA)
EQDELAY	QUANT	5.00000E+000	Equil. Time (s)
SAMPLINGMODE	SELECTOR	1	Sampling Mode
AREA	QUANT	1.00000E+000	Sample Area (cm^2)
IRCOMP	SELECTOR	0	IRComp
PFCOR	QUANT	5.00000E+001	PF Corr. (ohm)
SEQUENCER	TOGGLE	TRUE	Run as Sequence
PSTATMODEL	IQUANT	64	Pstat Model
PSTATSECTION	LABEL	IFC1010-21051	Pstat Section
PSTATSERIALNO	LABEL	21051	Pstat Serial Number
CTRLMODE	IQUANT	1	Control Mode
ELECTROMETER	IQUANT	0	RE=0 or CS=1
IESTAB	IQUANT	0	I/E Stability
CASPEED	IQUANT	4	Control Amp Speed
CONVENTION	IQUANT	1	Current Convention
ICHRANGE	IQUANT	2	Ich Range
ICHRANGEMODE	TOGGLE	T	Ich Auto Range
ICHOFFSETENABLE	TOGGLE	F	Ich Offset Enable
ICHOFFSET	QUANT	0	Ich Offset (V)
ICHFILTER	IQUANT	3	Ich Filter
VCHRANGE	IQUANT	3	Vch Range
VCHRANGEMODE	TOGGLE	T	Vch Auto Range
VCHOFFSETENABLE	TOGGLE	F	Vch Offset Enable
VCHOFFSET	QUANT	0	Vch Offset (V)
VCHFILTER	IQUANT	3	Vch Filter
IERANGELOWERLIMIT	IQUANT	4	I/E Range Lower Limit
IERANGEMODE	TOGGLE	F	I/E AutoRange
IERANGE	IQUANT	9	I/E Range
ACHSELECT	IQUANT	0	Ach Select
ACHRANGE	IQUANT	2	Ach Range
ACHOFFSETENABLE	TOGGLE	F	Ach Offset Enable
ACHOFFSET	QUANT	0	Ach Offset (V)
ACHFILTER	IQUANT	1	Ach Filter
SENSECABLEID	IQUANT	14	Sense Cable ID
PWRCABLEID	IQUANT	14	Power Cable ID
DCCALDATE	LABEL	1/24/2022	DC Calibration Date
ACCALDATE	LABEL	4/2/2018	AC Calibration Date
FRAMEWORKVERSION	QUANT	7.06	Framework Version
INSTRUMENTVERSION	LABEL	4.30	Instrument Version
CURVE	TABLE	98
	Pt	T	Vf	Im	Vu	Sig	Ach	IERange	Over	Temp
	#	s	V vs. Ref.	A	V	V	V	#	bits	deg C
	0	-0.4	-3.01268E-001	-7.15947E-005	0.00000E+000	-3.00011E-001	0.00000E+000	9	...........	1425.95
	1	-0.3	-3.00676E-001	-7.14651E-005	0.00000E+000	-3.00011E-001	0.00000E+000	9	...........	1425.95
	2	-0.2	-3.00663E-001	-7.13293E-005	0.00000E+000	-3.00011E-001	0.00000E+000	9	...........	1425.95
	3	-0.1	-3.00669E-001	-7.12003E-005	0.00000E+000	-3.00011E-001	0.00000E+000	9	...........	1425.95
	4	0	-3.00658E-001	-7.10470E-005	0.00000E+000	-3.00011E-001	0.00000E+000	9	...........	1425.95
	5	0.1	-4.00720E-001	-4.21926E-004	0.00000E+000	-4.00011E-001	0.00000E+000	9	...........	1426.01
	6	0.2	-4.00726E-001	-3.44868E-004	0.00000E+000	-4.00011E-001	0.00000E+000	9	...........	1426.04
	7	0.3	-4.00722E-001	-2.96626E-004	0.00000E+000	-4.00011E-001	0.00000E+000	9	...........	1426.04
	8	0.4	-4.00728E-001	-2.67540E-004	0.00000E+000	-4.00011E-001	0.00000E+000	9	...........	1426.04
	9	0.5	-4.00722E-001	-2.48997E-004	0.00000E+000	-4.00011E-001	0.00000E+000	9	...........	1426.04
	10	0.6	-4.00724E-001	-2.36400E-004	0.00000E+000	-4.00011E-001	0.00000E+000	9	...........	1426.04
	11	0.7	-4.00731E-001	-2.27369E-004	0.00000E+000	-4.00011E-001	0.00000E+000	9	...........	1426.04
	12	0.8	-4.00723E-001	-2.20581E-004	0.00000E+000	-4.00011E-001	0.00000E+000	9	...........	1426.04
	13	0.9	-4.00719E-001	-2.15270E-004	0.00000E+000	-4.00011E-001	0.00000E+000	9	...........	1426.04
	14	1	-4.00717E-001	-2.10909E-004	0.00000E+000	-4.00011E-001	0.00000E+000	9	...........	1426.04
	15	1.1	-4.00713E-001	-2.07224E-004	0.00000E+000	-4.00011E-001	0.00000E+000	9	...........	1425.87
	16	1.2	-4.00720E-001	-2.04070E-004	0.00000E+000	-4.00011E-001	0.00000E+000	9	...........	1425.78
	17	1.3	-4.00713E-001	-2.01287E-004	0.00000E+000	-4.00011E-001	0.00000E+000	9	...........	1425.78
	18	1.4	-4.00725E-001	-1.98763E-004	0.00000E+000	-4.00011E-001	0.00000E+000	9	...........	1425.78
	19	1.5	-4.00733E-001	-1.96493E-004	0.00000E+000	-4.00011E-001	0.00000E+000	9	...........	1425.78
	20	1.6	-4.00719E-001	-1.94394E-004	0.00000E+000	-4.00011E-001	0.00000E+000	9	...........	1425.78
	21	1.7	-4.00719E-001	-1.92426E-004	0.00000E+000	-4.00011E-001	0.00000E+000	9	...........	1425.78
	22	1.8	-4.00722E-001	-1.90624E-004	0.00000E+000	-4.00011E-001	0.00000E+000	9	...........	1425.78
	23	1.9	-4.00728E-001	-1.88919E-004	0.00000E+000	-4.00011E-001	0.00000E+000	9	...........	1425.78
	24	2	-4.00716E-001	-1.87303E-004	0.00000E+000	-4.00011E-001	0.00000E+000	9	...........	1425.78
	25	2.1	-4.00718E-001	-1.85739E-004	0.00000E+000	-4.00011E-001	0.00000E+000	9	...........	1425.78
	26	2.2	-4.00717E-001	-1.84325E-004	0.00000E+000	-4.00011E-001	0.00000E+000	9	...........	1425.78
	27	2.3	-4.00716E-001	-1.82900E-004	0.00000E+000	-4.00011E-001	0.00000E+000	9	...........	1425.78
	28	2.4	-4.00718E-001	-1.81603E-004	0.00000E+000	-4.00011E-001	0.00000E+000	9	...........	1425.78
	29	2.5	-4.00721E-001	-1.80318E-004	0.00000E+000	-4.00011E-001	0.00000E+000	9	...........	1425.78
	30	2.6	-4.00715E-001	-1.79065E-004	0.00000E+000	-4.00011E-001	0.00000E+000	9	...........	1425.78
	31	2.7	-4.00709E-001	-1.77856E-004	0.00000E+000	-4.00011E-001	0.00000E+000	9	...........	1425.78
	32	2.8	-4.00720E-001	-1.76738E-004	0.00000E+000	-4.00011E-001	0.00000E+000	9	...........	1425.78
	33	2.9	-4.00725E-001	-1.75626E-004	0.00000E+000	-4.00011E-001	0.00000E+000	9	...........	1425.78
	34	3	-4.00717E-001	-1.74546E-004	0.00000E+000	-4.00011E-001	0.00000E+000	9	...........	1425.78
	35	3.1	-4.00718E-001	-1.73514E-004	0.00000E+000	-4.00011E-001	0.00000E+000	9	...........	1425.78
	36	3.2	-4.00716E-001	-1.72495E-004	0.00000E+000	-4.00011E-001	0.00000E+000	9	...........	1425.78
	37	3.3	-4.00717E-001	-1.71514E-004	0.00000E+000	-4.00011E-001	0.00000E+000	9	...........	1425.78
	38	3.4	-4.00712E-001	-1.70551E-004	0.00000E+000	-4.00011E-001	0.00000E+000	9	...........	1425.78
	39	3.5	-4.00737E-001	-1.69632E-004	0.00000E+000	-4.00011E-001	0.00000E+000	9	...........	1425.78
	40	3.6	-4.00727E-001	-1.68744E-004	0.00000E+000	-4.00011E-001	0.00000E+000	9	...........	1425.78
	41	3.7	-4.00725E-001	-1.67862E-004	0.00000E+000	-4.00011E-001	0.00000E+000	9	...........	1425.78
	42	3.8	-4.00719E-001	-1.67003E-004	0.00000E+000	-4.00011E-001	0.00000E+000	9	...........	1425.78
	43	3.9	-4.00714E-001	-1.66187E-004	0.00000E+000	-4.00011E-001	0.00000E+000	9	...........	1425.78
	44	4	-4.00717E-001	-1.65374E-004	0.00000E+000	-4.00011E-001	0.00000E+000	9	...........	1425.78
	45	4.1	-4.00718E-001	-1.64569E-004	0.00000E+000	-4.00011E-001	0.00000E+000	9	...........	1425.84
	46	4.2	-4.00722E-001	-1.63799E-004	0.00000E+000	-4.00011E-001	0.00000E+000	9	...........	1425.87
	47	4.3	-4.00726E-001	-1.63051E-004	0.00000E+000	-4.00011E-001	0.00000E+000	9	...........	1425.87
	48	4.4	-4.00732E-001	-1.62301E-004	0.00000E+000	-4.00011E-001	0.00000E+000	9	...........	1425.87
	49	4.5	-4.00726E-001	-1.61590E-004	0.00000E+000	-4.00011E-001	0.00000E+000	9	...........	1425.87
	50	4.6	-4.00714E-001	-1.60870E-004	0.00000E+000	-4.00011E-001	0.00000E+000	9	...........	1425.87
	51	4.7	-4.00716E-001	-1.60198E-004	0.00000E+000	-4.00011E-001	0.00000E+000	9	...........	1425.87
	52	4.8	-4.00715E-001	-1.59526E-004	0.00000E+000	-4.00011E-001	0.00000E+000	9	...........	1425.87
	53	4.9	-4.00709E-001	-1.58848E-004	0.00000E+000	-4.00011E-001	0.00000E+000	9	...........	1425.87
	54	5	-4.00716E-001	-1.58212E-004	0.00000E+000	-4.00011E-001	0.00000E+000	9	...........	1425.87
	55	5.1	-4.00717E-001	-1.57547E-004	0.00000E+000	-4.00011E-001	0.00000E+000	9	...........	1425.81
	56	5.2	-4.00722E-001	-1.56976E-004	0.00000E+000	-4.00011E-001	0.00000E+000	9	...........	1425.78
	57	5.3	-4.00715E-001	-1.56334E-004	0.00000E+000	-4.00011E-001	0.00000E+000	9	...........	1425.78
	58	5.4	-4.00719E-001	-1.55738E-004	0.00000E+000	-4.00011E-001	0.00000E+000	9	...........	1425.78
	59	5.5	-4.00712E-001	-1.55093E-004	0.00000E+000	-4.00011E-001	0.00000E+000	9	...........	1425.78
	60	5.6	-4.00709E-001	-1.54525E-004	0.00000E+000	-4.00011E-001	0.00000E+000	9	...........	1425.78
	61	5.7	-4.00707E-001	-1.53930E-004	0.00000E+000	-4.00011E-001	0.00000E+000	9	...........	1425.78
	62	5.8	-4.00710E-001	-1.53385E-004	0.00000E+000	-4.00011E-001	0.00000E+000	9	...........	1425.78
	63	5.9	-4.00713E-001	-1.52804E-004	0.00000E+000	-4.00011E-001	0.00000E+000	9	...........	1425.78
	64	6	-4.00723E-001	-1.52287E-004	0.00000E+000	-4.00011E-001	0.00000E+000	9	...........	1425.78
	65	6.1	-4.00720E-001	-1.51732E-004	0.00000E+000	-4.00011E-001	0.00000E+000	9	...........	1425.78
	66	7.1	-4.00718E-001	-1.46780E-004	0.00000E+000	-4.00011E-001	0.00000E+000	9	...........	1425.78
	67	8.1	-4.00724E-001	-1.42501E-004	0.00000E+000	-4.00011E-001	0.00000E+000	9	...........	1425.78
	68	9.1	-4.00713E-001	-1.38820E-004	0.00000E+000	-4.00011E-001	0.00000E+000	9	...........	1425.84
	69	10.1	-4.00719E-001	-1.35521E-004	0.00000E+000	-4.00011E-001	0.00000E+000	9	...........	1425.81
	70	11.1	-4.00730E-001	-1.32651E-004	0.00000E+000	-4.00011E-001	0.00000E+000	9	...........	1425.78
	71	12.1	-4.00720E-001	-1.29920E-004	0.00000E+000	-4.00011E-001	0.00000E+000	9	...........	1425.84
	72	13.1	-4.00725E-001	-1.27418E-004	0.00000E+000	-4.00011E-001	0.00000E+000	9	...........	1425.87
	73	14.1	-4.00732E-001	-1.25053E-004	0.00000E+000	-4.00011E-001	0.00000E+000	9	...........	1425.87
	74	15.1	-4.00719E-001	-1.22935E-004	0.00000E+000	-4.00011E-001	0.00000E+000	9	...........	1425.87
	75	16.1	-4.00712E-001	-1.20941E-004	0.00000E+000	-4.00011E-001	0.00000E+000	9	...........	1425.87
	76	26.1	-4.00726E-001	-1.06671E-004	0.00000E+000	-4.00011E-001	0.00000E+000	9	...........	1425.95
	77	36.1	-4.00722E-001	-9.76791E-005	0.00000E+000	-4.00011E-001	0.00000E+000	9	...........	1425.95
	78	46.1	-4.00716E-001	-9.13605E-005	0.00000E+000	-4.00011E-001	0.00000E+000	9	...........	1425.95
	79	56.1	-4.00721E-001	-8.69419E-005	0.00000E+000	-4.00011E-001	0.00000E+000	9	...........	1426.01
	80	66.1	-4.00708E-001	-8.29611E-005	0.00000E+000	-4.00011E-001	0.00000E+000	9	...........	1425.95
	81	76.1	-4.00728E-001	-7.99001E-005	0.00000E+000	-4.00011E-001	0.00000E+000	9	...........	1425.95
	82	86.1	-4.00701E-001	-7.75872E-005	0.00000E+000	-4.00011E-001	0.00000E+000	9	...........	1425.95
	83	96.1	-4.00717E-001	-7.54792E-005	0.00000E+000	-4.00011E-001	0.00000E+000	9	...........	1425.95
	84	106.1	-4.00706E-001	-7.35494E-005	0.00000E+000	-4.00011E-001	0.00000E+000	9	...........	1425.95
	85	116.1	-4.00717E-001	-7.17055E-005	0.00000E+000	-4.00011E-001	0.00000E+000	9	...........	1425.95
	86	216.1	-4.00728E-001	-6.15297E-005	0.00000E+000	-4.00011E-001	0.00000E+000	9	...........	1425.95
	87	300	-4.00704E-001	-5.73687E-005	0.00000E+000	-4.00011E-001	0.00000E+000	9	...........	1426.04
	88	300.1	-5.00723E-001	-3.95453E-004	0.00000E+000	-5.00010E-001	0.00000E+000	9	...........	1425.98
	89	300.2	-5.00727E-001	-3.07838E-004	0.00000E+000	-5.00010E-001	0.00000E+000	9	...........	1425.95
	90	300.3	-5.00729E-001	-2.60994E-004	0.00000E+000	-5.00010E-001	0.00000E+000	9	...........	1425.95
	91	300.4	-5.00722E-001	-2.33799E-004	0.00000E+000	-5.00010E-001	0.00000E+000	9	...........	1425.95
	92	300.5	-5.00718E-001	-2.16839E-004	0.00000E+000	-5.00010E-001	0.00000E+000	9	...........	1425.95
	93	300.6	-5.00719E-001	-2.05589E-004	0.00000E+000	-5.00010E-001	0.00000E+000	9	...........	1425.95
	94	300.7	-5.00716E-001	-1.97638E-004	0.00000E+000	-5.00010E-001	0.00000E+000	9	...........	1425.95
	95	300.8	-5.00728E-001	-1.91722E-004	0.00000E+000	-5.00010E-001	0.00000E+000	9	...........	1425.95
	96	300.9	-5.00727E-001	-1.87119E-004	0.00000E+000	-5.00010E-001	0.00000E+000	9	...........	1425.95
	97	301	-5.00725E-001	-1.83432E-004	0.00000E+000	-5.00010E-001	0.00000E+000	9	...........	1425.95
