EXPLAIN
TAG	CHRONOA
TITLE	LABEL	Chronoamperometry Scan	Test Identifier
DATE	LABEL	17/2/2022	Date
TIME	LABEL	15:00:25	Time
NOTES	NOTES	1	Notes...
	
PSTAT	PSTAT	IFC1010-21051	Potentiostat
VPRESTEP	POTEN	3.00000E-001	F	Pre-step Voltage (V)
TPRESTEP	QUANT	5.00000E-001	Pre-step Delay Time (s)
VSTEP1	POTEN	4.00000E-001	F	Step 1 Voltage (V)
TSTEP1	QUANT	3.00000E+002	Step 1 Time (s)
VSTEP2	POTEN	3.00000E-001	F	Step 2 Voltage (V)
TSTEP2	QUANT	1.00000E+000	Step 2 Time (s)
SAMPLETIME	QUANT	1.00000E-001	Sample Period (s)
DECIMATE	TOGGLE	T	Decimate
ILIMIT	QUANT	1.00000E+000	Limit I (mA/cm^2)
IMODE	SELECTOR	1	I/E Range Mode
IRANGE	QUANT	3.00000E-001	Max Current (mA)
EQDELAY	QUANT	5.00000E+000	Equil. Time (s)
SAMPLINGMODE	SELECTOR	1	Sampling Mode
AREA	QUANT	1.00000E+000	Sample Area (cm^2)
IRCOMP	SELECTOR	0	IRComp
PFCOR	QUANT	5.00000E+001	PF Corr. (ohm)
SEQUENCER	TOGGLE	TRUE	Run as Sequence
PSTATMODEL	IQUANT	64	Pstat Model
PSTATSECTION	LABEL	IFC1010-21051	Pstat Section
PSTATSERIALNO	LABEL	21051	Pstat Serial Number
CTRLMODE	IQUANT	1	Control Mode
ELECTROMETER	IQUANT	0	RE=0 or CS=1
IESTAB	IQUANT	0	I/E Stability
CASPEED	IQUANT	4	Control Amp Speed
CONVENTION	IQUANT	1	Current Convention
ICHRANGE	IQUANT	2	Ich Range
ICHRANGEMODE	TOGGLE	T	Ich Auto Range
ICHOFFSETENABLE	TOGGLE	F	Ich Offset Enable
ICHOFFSET	QUANT	0	Ich Offset (V)
ICHFILTER	IQUANT	3	Ich Filter
VCHRANGE	IQUANT	3	Vch Range
VCHRANGEMODE	TOGGLE	T	Vch Auto Range
VCHOFFSETENABLE	TOGGLE	F	Vch Offset Enable
VCHOFFSET	QUANT	0	Vch Offset (V)
VCHFILTER	IQUANT	3	Vch Filter
IERANGELOWERLIMIT	IQUANT	4	I/E Range Lower Limit
IERANGEMODE	TOGGLE	F	I/E AutoRange
IERANGE	IQUANT	9	I/E Range
ACHSELECT	IQUANT	0	Ach Select
ACHRANGE	IQUANT	2	Ach Range
ACHOFFSETENABLE	TOGGLE	F	Ach Offset Enable
ACHOFFSET	QUANT	0	Ach Offset (V)
ACHFILTER	IQUANT	1	Ach Filter
SENSECABLEID	IQUANT	14	Sense Cable ID
PWRCABLEID	IQUANT	14	Power Cable ID
DCCALDATE	LABEL	1/24/2022	DC Calibration Date
ACCALDATE	LABEL	4/2/2018	AC Calibration Date
FRAMEWORKVERSION	QUANT	7.06	Framework Version
INSTRUMENTVERSION	LABEL	4.30	Instrument Version
CURVE	TABLE	98
	Pt	T	Vf	Im	Vu	Sig	Ach	IERange	Over	Temp
	#	s	V vs. Ref.	A	V	V	V	#	bits	deg C
	0	-0.4	2.99535E-001	9.27222E-006	0.00000E+000	3.00072E-001	0.00000E+000	9	...........	1426.13
	1	-0.3	3.00303E-001	9.19360E-006	0.00000E+000	3.00072E-001	0.00000E+000	9	...........	1426.13
	2	-0.2	3.00311E-001	9.09987E-006	0.00000E+000	3.00072E-001	0.00000E+000	9	...........	1426.13
	3	-0.1	3.00306E-001	9.02012E-006	0.00000E+000	3.00072E-001	0.00000E+000	9	...........	1426.13
	4	0	3.00313E-001	8.98028E-006	0.00000E+000	3.00072E-001	0.00000E+000	9	...........	1426.13
	5	0.1	4.00356E-001	4.08037E-004	0.00000E+000	4.00072E-001	0.00000E+000	9	...........	1426.13
	6	0.2	4.00350E-001	3.55828E-004	0.00000E+000	4.00072E-001	0.00000E+000	9	...........	1426.13
	7	0.3	4.00356E-001	3.20942E-004	0.00000E+000	4.00072E-001	0.00000E+000	9	...........	1426.13
	8	0.4	4.00349E-001	2.95002E-004	0.00000E+000	4.00072E-001	0.00000E+000	9	...........	1426.13
	9	0.5	4.00349E-001	2.74655E-004	0.00000E+000	4.00072E-001	0.00000E+000	9	...........	1426.13
	10	0.6	4.00358E-001	2.58110E-004	0.00000E+000	4.00072E-001	0.00000E+000	9	...........	1426.13
	11	0.7	4.00358E-001	2.44296E-004	0.00000E+000	4.00072E-001	0.00000E+000	9	...........	1426.13
	12	0.8	4.00357E-001	2.32495E-004	0.00000E+000	4.00072E-001	0.00000E+000	9	...........	1426.13
	13	0.9	4.00350E-001	2.22183E-004	0.00000E+000	4.00072E-001	0.00000E+000	9	...........	1426.13
	14	1	4.00346E-001	2.13169E-004	0.00000E+000	4.00072E-001	0.00000E+000	9	...........	1426.13
	15	1.1	4.00349E-001	2.05090E-004	0.00000E+000	4.00072E-001	0.00000E+000	9	...........	1426.13
	16	1.2	4.00352E-001	1.97757E-004	0.00000E+000	4.00072E-001	0.00000E+000	9	...........	1426.13
	17	1.3	4.00340E-001	1.91064E-004	0.00000E+000	4.00072E-001	0.00000E+000	9	...........	1426.13
	18	1.4	4.00343E-001	1.84958E-004	0.00000E+000	4.00072E-001	0.00000E+000	9	...........	1426.13
	19	1.5	4.00352E-001	1.79325E-004	0.00000E+000	4.00072E-001	0.00000E+000	9	...........	1426.13
	20	1.6	4.00349E-001	1.74105E-004	0.00000E+000	4.00072E-001	0.00000E+000	9	...........	1426.13
	21	1.7	4.00345E-001	1.69282E-004	0.00000E+000	4.00072E-001	0.00000E+000	9	...........	1426.13
	22	1.8	4.00356E-001	1.64743E-004	0.00000E+000	4.00072E-001	0.00000E+000	9	...........	1426.13
	23	1.9	4.00354E-001	1.60549E-004	0.00000E+000	4.00072E-001	0.00000E+000	9	...........	1426.13
	24	2	4.00350E-001	1.56590E-004	0.00000E+000	4.00072E-001	0.00000E+000	9	...........	1426.13
	25	2.1	4.00354E-001	1.52896E-004	0.00000E+000	4.00072E-001	0.00000E+000	9	...........	1426.13
	26	2.2	4.00354E-001	1.49373E-004	0.00000E+000	4.00072E-001	0.00000E+000	9	...........	1426.13
	27	2.3	4.00350E-001	1.46090E-004	0.00000E+000	4.00072E-001	0.00000E+000	9	...........	1426.13
	28	2.4	4.00354E-001	1.42994E-004	0.00000E+000	4.00072E-001	0.00000E+000	9	...........	1426.13
	29	2.5	4.00352E-001	1.40001E-004	0.00000E+000	4.00072E-001	0.00000E+000	9	...........	1426.13
	30	2.6	4.00357E-001	1.37195E-004	0.00000E+000	4.00072E-001	0.00000E+000	9	...........	1425.69
	31	2.7	4.00351E-001	1.34509E-004	0.00000E+000	4.00072E-001	0.00000E+000	9	...........	1425.69
	32	2.8	4.00352E-001	1.31946E-004	0.00000E+000	4.00072E-001	0.00000E+000	9	...........	1425.69
	33	2.9	4.00355E-001	1.29493E-004	0.00000E+000	4.00072E-001	0.00000E+000	9	...........	1425.69
	34	3	4.00355E-001	1.27128E-004	0.00000E+000	4.00072E-001	0.00000E+000	9	...........	1425.69
	35	3.1	4.00355E-001	1.24904E-004	0.00000E+000	4.00072E-001	0.00000E+000	9	...........	1425.69
	36	3.2	4.00349E-001	1.22734E-004	0.00000E+000	4.00072E-001	0.00000E+000	9	...........	1425.69
	37	3.3	4.00347E-001	1.20645E-004	0.00000E+000	4.00072E-001	0.00000E+000	9	...........	1425.69
	38	3.4	4.00351E-001	1.18647E-004	0.00000E+000	4.00072E-001	0.00000E+000	9	...........	1425.69
	39	3.5	4.00348E-001	1.16698E-004	0.00000E+000	4.00072E-001	0.00000E+000	9	...........	1425.69
	40	3.6	4.00355E-001	1.14863E-004	0.00000E+000	4.00072E-001	0.00000E+000	9	...........	1425.69
	41	3.7	4.00351E-001	1.13070E-004	0.00000E+000	4.00072E-001	0.00000E+000	9	...........	1425.69
	42	3.8	4.00349E-001	1.11331E-004	0.00000E+000	4.00072E-001	0.00000E+000	9	...........	1425.69
	43	3.9	4.00356E-001	1.09635E-004	0.00000E+000	4.00072E-001	0.00000E+000	9	...........	1425.69
	44	4	4.00352E-001	1.07977E-004	0.00000E+000	4.00072E-001	0.00000E+000	9	...........	1425.69
	45	4.1	4.00355E-001	1.06397E-004	0.00000E+000	4.00072E-001	0.00000E+000	9	...........	1425.69
	46	4.2	4.00347E-001	1.04863E-004	0.00000E+000	4.00072E-001	0.00000E+000	9	...........	1425.69
	47	4.3	4.00364E-001	1.03334E-004	0.00000E+000	4.00072E-001	0.00000E+000	9	...........	1425.69
	48	4.4	4.00345E-001	1.01911E-004	0.00000E+000	4.00072E-001	0.00000E+000	9	...........	1425.69
	49	4.5	4.00349E-001	1.00522E-004	0.00000E+000	4.00072E-001	0.00000E+000	9	...........	1425.69
	50	4.6	4.00350E-001	9.91471E-005	0.00000E+000	4.00072E-001	0.00000E+000	9	...........	1425.69
	51	4.7	4.00355E-001	9.78112E-005	0.00000E+000	4.00072E-001	0.00000E+000	9	...........	1425.69
	52	4.8	4.00350E-001	9.65372E-005	0.00000E+000	4.00072E-001	0.00000E+000	9	...........	1425.69
	53	4.9	4.00337E-001	9.52727E-005	0.00000E+000	4.00072E-001	0.00000E+000	9	...........	1425.69
	54	5	4.00344E-001	9.40274E-005	0.00000E+000	4.00072E-001	0.00000E+000	9	...........	1425.69
	55	5.1	4.00345E-001	9.28554E-005	0.00000E+000	4.00072E-001	0.00000E+000	9	...........	1425.69
	56	5.2	4.00351E-001	9.17023E-005	0.00000E+000	4.00072E-001	0.00000E+000	9	...........	1425.69
	57	5.3	4.00358E-001	9.05596E-005	0.00000E+000	4.00072E-001	0.00000E+000	9	...........	1425.69
	58	5.4	4.00359E-001	8.94221E-005	0.00000E+000	4.00072E-001	0.00000E+000	9	...........	1425.69
	59	5.5	4.00370E-001	8.83462E-005	0.00000E+000	4.00072E-001	0.00000E+000	9	...........	1425.69
	60	5.6	4.00367E-001	8.73014E-005	0.00000E+000	4.00072E-001	0.00000E+000	9	...........	1425.69
	61	5.7	4.00364E-001	8.62632E-005	0.00000E+000	4.00072E-001	0.00000E+000	9	...........	1425.69
	62	5.8	4.00364E-001	8.52565E-005	0.00000E+000	4.00072E-001	0.00000E+000	9	...........	1425.69
	63	5.9	4.00346E-001	8.42605E-005	0.00000E+000	4.00072E-001	0.00000E+000	9	...........	1425.69
	64	6	4.00351E-001	8.32490E-005	0.00000E+000	4.00072E-001	0.00000E+000	9	...........	1425.69
	65	6.1	4.00357E-001	8.23681E-005	0.00000E+000	4.00072E-001	0.00000E+000	9	...........	1425.69
	66	7.1	4.00352E-001	7.40344E-005	0.00000E+000	4.00072E-001	0.00000E+000	9	...........	1425.95
	67	8.1	4.00364E-001	6.73493E-005	0.00000E+000	4.00072E-001	0.00000E+000	9	...........	1426.04
	68	9.1	4.00354E-001	6.17929E-005	0.00000E+000	4.00072E-001	0.00000E+000	9	...........	1426.13
	69	10.1	4.00353E-001	5.71031E-005	0.00000E+000	4.00072E-001	0.00000E+000	9	...........	1426.13
	70	11.1	4.00363E-001	5.30614E-005	0.00000E+000	4.00072E-001	0.00000E+000	9	...........	1426.13
	71	12.1	4.00348E-001	4.95511E-005	0.00000E+000	4.00072E-001	0.00000E+000	9	...........	1426.13
	72	13.1	4.00356E-001	4.65615E-005	0.00000E+000	4.00072E-001	0.00000E+000	9	...........	1426.13
	73	14.1	4.00352E-001	4.39330E-005	0.00000E+000	4.00072E-001	0.00000E+000	9	...........	1426.13
	74	15.1	4.00346E-001	4.16747E-005	0.00000E+000	4.00072E-001	0.00000E+000	9	...........	1426.13
	75	16.1	4.00361E-001	3.96827E-005	0.00000E+000	4.00072E-001	0.00000E+000	9	...........	1426.13
	76	26.1	4.00353E-001	2.87974E-005	0.00000E+000	4.00072E-001	0.00000E+000	9	...........	1426.13
	77	36.1	4.00361E-001	2.44588E-005	0.00000E+000	4.00072E-001	0.00000E+000	9	...........	1426.13
	78	46.1	4.00360E-001	2.23371E-005	0.00000E+000	4.00072E-001	0.00000E+000	9	...........	1426.13
	79	56.1	4.00350E-001	2.06367E-005	0.00000E+000	4.00072E-001	0.00000E+000	9	...........	1426.13
	80	66.1	4.00347E-001	1.97906E-005	0.00000E+000	4.00072E-001	0.00000E+000	9	...........	1426.13
	81	76.1	4.00355E-001	1.92947E-005	0.00000E+000	4.00072E-001	0.00000E+000	9	...........	1426.13
	82	86.1	4.00361E-001	1.88690E-005	0.00000E+000	4.00072E-001	0.00000E+000	9	...........	1426.13
	83	96.1	4.00351E-001	1.83404E-005	0.00000E+000	4.00072E-001	0.00000E+000	9	...........	1426.13
	84	106.1	4.00357E-001	1.79785E-005	0.00000E+000	4.00072E-001	0.00000E+000	9	...........	1426.13
	85	116.1	4.00368E-001	1.77788E-005	0.00000E+000	4.00072E-001	0.00000E+000	9	...........	1426.13
	86	216.1	4.00366E-001	1.69840E-005	0.00000E+000	4.00072E-001	0.00000E+000	9	...........	1426.04
	87	300	4.00347E-001	1.63338E-005	0.00000E+000	4.00072E-001	0.00000E+000	9	...........	1426.13
	88	300.1	3.00314E-001	-3.19631E-004	0.00000E+000	3.00072E-001	0.00000E+000	9	...........	1426.13
	89	300.2	3.00311E-001	-2.52165E-004	0.00000E+000	3.00072E-001	0.00000E+000	9	...........	1426.13
	90	300.3	3.00306E-001	-2.05942E-004	0.00000E+000	3.00072E-001	0.00000E+000	9	...........	1426.13
	91	300.4	3.00306E-001	-1.72404E-004	0.00000E+000	3.00072E-001	0.00000E+000	9	...........	1426.13
	92	300.5	3.00308E-001	-1.47382E-004	0.00000E+000	3.00072E-001	0.00000E+000	9	...........	1426.13
	93	300.6	3.00306E-001	-1.28330E-004	0.00000E+000	3.00072E-001	0.00000E+000	9	...........	1426.04
	94	300.7	3.00310E-001	-1.13556E-004	0.00000E+000	3.00072E-001	0.00000E+000	9	...........	1426.04
	95	300.8	3.00310E-001	-1.01869E-004	0.00000E+000	3.00072E-001	0.00000E+000	9	...........	1426.04
	96	300.9	3.00299E-001	-9.24478E-005	0.00000E+000	3.00072E-001	0.00000E+000	9	...........	1426.04
	97	301	3.00313E-001	-8.47533E-005	0.00000E+000	3.00072E-001	0.00000E+000	9	...........	1426.04
