EXPLAIN
TAG	CHRONOA
TITLE	LABEL	Chronoamperometry Scan	Test Identifier
DATE	LABEL	17/2/2022	Date
TIME	LABEL	14:21:02	Time
NOTES	NOTES	1	Notes...
	
PSTAT	PSTAT	IFC1010-21051	Potentiostat
VPRESTEP	POTEN	3.00000E-001	F	Pre-step Voltage (V)
TPRESTEP	QUANT	5.00000E-001	Pre-step Delay Time (s)
VSTEP1	POTEN	4.00000E-001	F	Step 1 Voltage (V)
TSTEP1	QUANT	3.00000E+002	Step 1 Time (s)
VSTEP2	POTEN	3.00000E-001	F	Step 2 Voltage (V)
TSTEP2	QUANT	1.00000E+000	Step 2 Time (s)
SAMPLETIME	QUANT	1.00000E-001	Sample Period (s)
DECIMATE	TOGGLE	T	Decimate
ILIMIT	QUANT	1.00000E+000	Limit I (mA/cm^2)
IMODE	SELECTOR	1	I/E Range Mode
IRANGE	QUANT	3.00000E-001	Max Current (mA)
EQDELAY	QUANT	5.00000E+000	Equil. Time (s)
SAMPLINGMODE	SELECTOR	1	Sampling Mode
AREA	QUANT	1.00000E+000	Sample Area (cm^2)
IRCOMP	SELECTOR	0	IRComp
PFCOR	QUANT	5.00000E+001	PF Corr. (ohm)
SEQUENCER	TOGGLE	TRUE	Run as Sequence
PSTATMODEL	IQUANT	64	Pstat Model
PSTATSECTION	LABEL	IFC1010-21051	Pstat Section
PSTATSERIALNO	LABEL	21051	Pstat Serial Number
CTRLMODE	IQUANT	1	Control Mode
ELECTROMETER	IQUANT	0	RE=0 or CS=1
IESTAB	IQUANT	0	I/E Stability
CASPEED	IQUANT	4	Control Amp Speed
CONVENTION	IQUANT	1	Current Convention
ICHRANGE	IQUANT	2	Ich Range
ICHRANGEMODE	TOGGLE	T	Ich Auto Range
ICHOFFSETENABLE	TOGGLE	F	Ich Offset Enable
ICHOFFSET	QUANT	0	Ich Offset (V)
ICHFILTER	IQUANT	3	Ich Filter
VCHRANGE	IQUANT	3	Vch Range
VCHRANGEMODE	TOGGLE	T	Vch Auto Range
VCHOFFSETENABLE	TOGGLE	F	Vch Offset Enable
VCHOFFSET	QUANT	0	Vch Offset (V)
VCHFILTER	IQUANT	3	Vch Filter
IERANGELOWERLIMIT	IQUANT	4	I/E Range Lower Limit
IERANGEMODE	TOGGLE	F	I/E AutoRange
IERANGE	IQUANT	9	I/E Range
ACHSELECT	IQUANT	0	Ach Select
ACHRANGE	IQUANT	2	Ach Range
ACHOFFSETENABLE	TOGGLE	F	Ach Offset Enable
ACHOFFSET	QUANT	0	Ach Offset (V)
ACHFILTER	IQUANT	1	Ach Filter
SENSECABLEID	IQUANT	14	Sense Cable ID
PWRCABLEID	IQUANT	14	Power Cable ID
DCCALDATE	LABEL	1/24/2022	DC Calibration Date
ACCALDATE	LABEL	4/2/2018	AC Calibration Date
FRAMEWORKVERSION	QUANT	7.06	Framework Version
INSTRUMENTVERSION	LABEL	4.30	Instrument Version
CURVE	TABLE	98
	Pt	T	Vf	Im	Vu	Sig	Ach	IERange	Over	Temp
	#	s	V vs. Ref.	A	V	V	V	#	bits	deg C
	0	-0.4	2.99557E-001	9.38557E-006	0.00000E+000	3.00072E-001	0.00000E+000	9	...........	1426.04
	1	-0.3	3.00311E-001	9.29748E-006	0.00000E+000	3.00072E-001	0.00000E+000	9	...........	1426.04
	2	-0.2	3.00314E-001	9.20238E-006	0.00000E+000	3.00072E-001	0.00000E+000	9	...........	1426.04
	3	-0.1	3.00312E-001	9.11976E-006	0.00000E+000	3.00072E-001	0.00000E+000	9	...........	1426.04
	4	0	3.00318E-001	9.03687E-006	0.00000E+000	3.00072E-001	0.00000E+000	9	...........	1426.04
	5	0.1	4.00347E-001	4.14985E-004	0.00000E+000	4.00072E-001	0.00000E+000	9	...........	1426.04
	6	0.2	4.00350E-001	3.59855E-004	0.00000E+000	4.00072E-001	0.00000E+000	9	...........	1426.04
	7	0.3	4.00370E-001	3.23097E-004	0.00000E+000	4.00072E-001	0.00000E+000	9	...........	1426.04
	8	0.4	4.00346E-001	2.95920E-004	0.00000E+000	4.00072E-001	0.00000E+000	9	...........	1426.04
	9	0.5	4.00358E-001	2.74780E-004	0.00000E+000	4.00072E-001	0.00000E+000	9	...........	1426.04
	10	0.6	4.00361E-001	2.57707E-004	0.00000E+000	4.00072E-001	0.00000E+000	9	...........	1426.04
	11	0.7	4.00355E-001	2.43556E-004	0.00000E+000	4.00072E-001	0.00000E+000	9	...........	1426.04
	12	0.8	4.00352E-001	2.31477E-004	0.00000E+000	4.00072E-001	0.00000E+000	9	...........	1425.95
	13	0.9	4.00355E-001	2.21013E-004	0.00000E+000	4.00072E-001	0.00000E+000	9	...........	1425.95
	14	1	4.00340E-001	2.11761E-004	0.00000E+000	4.00072E-001	0.00000E+000	9	...........	1425.95
	15	1.1	4.00346E-001	2.03570E-004	0.00000E+000	4.00072E-001	0.00000E+000	9	...........	1425.95
	16	1.2	4.00357E-001	1.96238E-004	0.00000E+000	4.00072E-001	0.00000E+000	9	...........	1425.95
	17	1.3	4.00366E-001	1.89503E-004	0.00000E+000	4.00072E-001	0.00000E+000	9	...........	1425.95
	18	1.4	4.00361E-001	1.83458E-004	0.00000E+000	4.00072E-001	0.00000E+000	9	...........	1425.95
	19	1.5	4.00357E-001	1.77888E-004	0.00000E+000	4.00072E-001	0.00000E+000	9	...........	1425.95
	20	1.6	4.00349E-001	1.72722E-004	0.00000E+000	4.00072E-001	0.00000E+000	9	...........	1425.95
	21	1.7	4.00358E-001	1.67963E-004	0.00000E+000	4.00072E-001	0.00000E+000	9	...........	1425.95
	22	1.8	4.00353E-001	1.63498E-004	0.00000E+000	4.00072E-001	0.00000E+000	9	...........	1425.95
	23	1.9	4.00350E-001	1.59352E-004	0.00000E+000	4.00072E-001	0.00000E+000	9	...........	1425.95
	24	2	4.00358E-001	1.55492E-004	0.00000E+000	4.00072E-001	0.00000E+000	9	...........	1425.95
	25	2.1	4.00353E-001	1.51842E-004	0.00000E+000	4.00072E-001	0.00000E+000	9	...........	1425.95
	26	2.2	4.00357E-001	1.48383E-004	0.00000E+000	4.00072E-001	0.00000E+000	9	...........	1425.95
	27	2.3	4.00346E-001	1.45110E-004	0.00000E+000	4.00072E-001	0.00000E+000	9	...........	1425.95
	28	2.4	4.00349E-001	1.42056E-004	0.00000E+000	4.00072E-001	0.00000E+000	9	...........	1425.95
	29	2.5	4.00348E-001	1.39122E-004	0.00000E+000	4.00072E-001	0.00000E+000	9	...........	1425.95
	30	2.6	4.00361E-001	1.36371E-004	0.00000E+000	4.00072E-001	0.00000E+000	9	...........	1425.95
	31	2.7	4.00352E-001	1.33675E-004	0.00000E+000	4.00072E-001	0.00000E+000	9	...........	1425.95
	32	2.8	4.00357E-001	1.31184E-004	0.00000E+000	4.00072E-001	0.00000E+000	9	...........	1425.95
	33	2.9	4.00360E-001	1.28768E-004	0.00000E+000	4.00072E-001	0.00000E+000	9	...........	1425.95
	34	3	4.00354E-001	1.26452E-004	0.00000E+000	4.00072E-001	0.00000E+000	9	...........	1425.95
	35	3.1	4.00367E-001	1.24201E-004	0.00000E+000	4.00072E-001	0.00000E+000	9	...........	1425.95
	36	3.2	4.00361E-001	1.22061E-004	0.00000E+000	4.00072E-001	0.00000E+000	9	...........	1425.95
	37	3.3	4.00359E-001	1.20027E-004	0.00000E+000	4.00072E-001	0.00000E+000	9	...........	1425.95
	38	3.4	4.00361E-001	1.18021E-004	0.00000E+000	4.00072E-001	0.00000E+000	9	...........	1425.95
	39	3.5	4.00355E-001	1.16062E-004	0.00000E+000	4.00072E-001	0.00000E+000	9	...........	1425.95
	40	3.6	4.00351E-001	1.14253E-004	0.00000E+000	4.00072E-001	0.00000E+000	9	...........	1425.95
	41	3.7	4.00359E-001	1.12461E-004	0.00000E+000	4.00072E-001	0.00000E+000	9	...........	1425.95
	42	3.8	4.00355E-001	1.10733E-004	0.00000E+000	4.00072E-001	0.00000E+000	9	...........	1425.95
	43	3.9	4.00349E-001	1.09047E-004	0.00000E+000	4.00072E-001	0.00000E+000	9	...........	1425.95
	44	4	4.00367E-001	1.07393E-004	0.00000E+000	4.00072E-001	0.00000E+000	9	...........	1425.95
	45	4.1	4.00360E-001	1.05830E-004	0.00000E+000	4.00072E-001	0.00000E+000	9	...........	1425.95
	46	4.2	4.00354E-001	1.04285E-004	0.00000E+000	4.00072E-001	0.00000E+000	9	...........	1425.95
	47	4.3	4.00355E-001	1.02809E-004	0.00000E+000	4.00072E-001	0.00000E+000	9	...........	1425.95
	48	4.4	4.00348E-001	1.01331E-004	0.00000E+000	4.00072E-001	0.00000E+000	9	...........	1425.95
	49	4.5	4.00352E-001	9.99554E-005	0.00000E+000	4.00072E-001	0.00000E+000	9	...........	1425.95
	50	4.6	4.00350E-001	9.85854E-005	0.00000E+000	4.00072E-001	0.00000E+000	9	...........	1425.95
	51	4.7	4.00343E-001	9.72567E-005	0.00000E+000	4.00072E-001	0.00000E+000	9	...........	1425.95
	52	4.8	4.00353E-001	9.59620E-005	0.00000E+000	4.00072E-001	0.00000E+000	9	...........	1425.95
	53	4.9	4.00359E-001	9.46761E-005	0.00000E+000	4.00072E-001	0.00000E+000	9	...........	1425.95
	54	5	4.00344E-001	9.34693E-005	0.00000E+000	4.00072E-001	0.00000E+000	9	...........	1425.95
	55	5.1	4.00347E-001	9.22662E-005	0.00000E+000	4.00072E-001	0.00000E+000	9	...........	1425.95
	56	5.2	4.00346E-001	9.10973E-005	0.00000E+000	4.00072E-001	0.00000E+000	9	...........	1425.95
	57	5.3	4.00361E-001	8.99488E-005	0.00000E+000	4.00072E-001	0.00000E+000	9	...........	1425.95
	58	5.4	4.00356E-001	8.88444E-005	0.00000E+000	4.00072E-001	0.00000E+000	9	...........	1425.95
	59	5.5	4.00353E-001	8.77361E-005	0.00000E+000	4.00072E-001	0.00000E+000	9	...........	1425.95
	60	5.6	4.00349E-001	8.66854E-005	0.00000E+000	4.00072E-001	0.00000E+000	9	...........	1425.95
	61	5.7	4.00359E-001	8.56303E-005	0.00000E+000	4.00072E-001	0.00000E+000	9	...........	1425.95
	62	5.8	4.00362E-001	8.45864E-005	0.00000E+000	4.00072E-001	0.00000E+000	9	...........	1425.95
	63	5.9	4.00358E-001	8.36105E-005	0.00000E+000	4.00072E-001	0.00000E+000	9	...........	1425.95
	64	6	4.00359E-001	8.26258E-005	0.00000E+000	4.00072E-001	0.00000E+000	9	...........	1425.95
	65	6.1	4.00357E-001	8.16773E-005	0.00000E+000	4.00072E-001	0.00000E+000	9	...........	1425.95
	66	7.1	4.00355E-001	7.31752E-005	0.00000E+000	4.00072E-001	0.00000E+000	9	...........	1425.51
	67	8.1	4.00345E-001	6.61485E-005	0.00000E+000	4.00072E-001	0.00000E+000	9	...........	1425.95
	68	9.1	4.00335E-001	6.03590E-005	0.00000E+000	4.00072E-001	0.00000E+000	9	...........	1425.95
	69	10.1	4.00365E-001	5.55296E-005	0.00000E+000	4.00072E-001	0.00000E+000	9	...........	1426.04
	70	11.1	4.00356E-001	5.14847E-005	0.00000E+000	4.00072E-001	0.00000E+000	9	...........	1426.04
	71	12.1	4.00354E-001	4.79830E-005	0.00000E+000	4.00072E-001	0.00000E+000	9	...........	1426.04
	72	13.1	4.00351E-001	4.50395E-005	0.00000E+000	4.00072E-001	0.00000E+000	9	...........	1426.04
	73	14.1	4.00362E-001	4.26919E-005	0.00000E+000	4.00072E-001	0.00000E+000	9	...........	1426.04
	74	15.1	4.00367E-001	4.06785E-005	0.00000E+000	4.00072E-001	0.00000E+000	9	...........	1426.04
	75	16.1	4.00360E-001	3.88557E-005	0.00000E+000	4.00072E-001	0.00000E+000	9	...........	1426.04
	76	26.1	4.00356E-001	2.87435E-005	0.00000E+000	4.00072E-001	0.00000E+000	9	...........	1426.04
	77	36.1	4.00364E-001	2.48349E-005	0.00000E+000	4.00072E-001	0.00000E+000	9	...........	1426.04
	78	46.1	4.00366E-001	2.24264E-005	0.00000E+000	4.00072E-001	0.00000E+000	9	...........	1426.04
	79	56.1	4.00375E-001	2.13026E-005	0.00000E+000	4.00072E-001	0.00000E+000	9	...........	1426.04
	80	66.1	4.00347E-001	2.02775E-005	0.00000E+000	4.00072E-001	0.00000E+000	9	...........	1426.04
	81	76.1	4.00350E-001	1.98881E-005	0.00000E+000	4.00072E-001	0.00000E+000	9	...........	1426.04
	82	86.1	4.00363E-001	1.93168E-005	0.00000E+000	4.00072E-001	0.00000E+000	9	...........	1426.04
	83	96.1	4.00357E-001	1.92149E-005	0.00000E+000	4.00072E-001	0.00000E+000	9	...........	1426.04
	84	106.1	4.00362E-001	1.89026E-005	0.00000E+000	4.00072E-001	0.00000E+000	9	...........	1426.04
	85	116.1	4.00362E-001	1.85107E-005	0.00000E+000	4.00072E-001	0.00000E+000	9	...........	1425.95
	86	216.1	4.00381E-001	1.77980E-005	0.00000E+000	4.00072E-001	0.00000E+000	9	...........	1425.95
	87	300	4.00359E-001	1.72443E-005	0.00000E+000	4.00072E-001	0.00000E+000	9	...........	1425.95
	88	300.1	3.00329E-001	-3.39101E-004	0.00000E+000	3.00072E-001	0.00000E+000	9	...........	1425.95
	89	300.2	3.00310E-001	-2.79439E-004	0.00000E+000	3.00072E-001	0.00000E+000	9	...........	1425.95
	90	300.3	3.00313E-001	-2.35278E-004	0.00000E+000	3.00072E-001	0.00000E+000	9	...........	1425.95
	91	300.4	3.00314E-001	-2.01154E-004	0.00000E+000	3.00072E-001	0.00000E+000	9	...........	1425.95
	92	300.5	3.00319E-001	-1.74201E-004	0.00000E+000	3.00072E-001	0.00000E+000	9	...........	1425.95
	93	300.6	3.00314E-001	-1.52691E-004	0.00000E+000	3.00072E-001	0.00000E+000	9	...........	1425.95
	94	300.7	3.00323E-001	-1.35454E-004	0.00000E+000	3.00072E-001	0.00000E+000	9	...........	1425.95
	95	300.8	3.00315E-001	-1.21572E-004	0.00000E+000	3.00072E-001	0.00000E+000	9	...........	1426.04
	96	300.9	3.00317E-001	-1.10323E-004	0.00000E+000	3.00072E-001	0.00000E+000	9	...........	1426.04
	97	301	3.00307E-001	-1.01050E-004	0.00000E+000	3.00072E-001	0.00000E+000	9	...........	1426.04
