EXPLAIN
TAG	CHRONOA
TITLE	LABEL	Chronoamperometry Scan	Test Identifier
DATE	LABEL	17/2/2022	Date
TIME	LABEL	16:34:06	Time
NOTES	NOTES	1	Notes...
	
PSTAT	PSTAT	IFC1010-21051	Potentiostat
VPRESTEP	POTEN	1.00000E-002	F	Pre-step Voltage (V)
TPRESTEP	QUANT	5.00000E-001	Pre-step Delay Time (s)
VSTEP1	POTEN	0.00000E+000	F	Step 1 Voltage (V)
TSTEP1	QUANT	3.00000E+002	Step 1 Time (s)
VSTEP2	POTEN	-1.00000E-001	F	Step 2 Voltage (V)
TSTEP2	QUANT	1.00000E+000	Step 2 Time (s)
SAMPLETIME	QUANT	1.00000E-001	Sample Period (s)
DECIMATE	TOGGLE	T	Decimate
ILIMIT	QUANT	1.00000E+000	Limit I (mA/cm^2)
IMODE	SELECTOR	1	I/E Range Mode
IRANGE	QUANT	3.00000E-001	Max Current (mA)
EQDELAY	QUANT	5.00000E+000	Equil. Time (s)
SAMPLINGMODE	SELECTOR	1	Sampling Mode
AREA	QUANT	1.00000E+000	Sample Area (cm^2)
IRCOMP	SELECTOR	0	IRComp
PFCOR	QUANT	5.00000E+001	PF Corr. (ohm)
SEQUENCER	TOGGLE	TRUE	Run as Sequence
PSTATMODEL	IQUANT	64	Pstat Model
PSTATSECTION	LABEL	IFC1010-21051	Pstat Section
PSTATSERIALNO	LABEL	21051	Pstat Serial Number
CTRLMODE	IQUANT	1	Control Mode
ELECTROMETER	IQUANT	0	RE=0 or CS=1
IESTAB	IQUANT	0	I/E Stability
CASPEED	IQUANT	4	Control Amp Speed
CONVENTION	IQUANT	1	Current Convention
ICHRANGE	IQUANT	2	Ich Range
ICHRANGEMODE	TOGGLE	T	Ich Auto Range
ICHOFFSETENABLE	TOGGLE	F	Ich Offset Enable
ICHOFFSET	QUANT	0	Ich Offset (V)
ICHFILTER	IQUANT	3	Ich Filter
VCHRANGE	IQUANT	3	Vch Range
VCHRANGEMODE	TOGGLE	T	Vch Auto Range
VCHOFFSETENABLE	TOGGLE	F	Vch Offset Enable
VCHOFFSET	QUANT	0	Vch Offset (V)
VCHFILTER	IQUANT	3	Vch Filter
IERANGELOWERLIMIT	IQUANT	4	I/E Range Lower Limit
IERANGEMODE	TOGGLE	F	I/E AutoRange
IERANGE	IQUANT	9	I/E Range
ACHSELECT	IQUANT	0	Ach Select
ACHRANGE	IQUANT	2	Ach Range
ACHOFFSETENABLE	TOGGLE	F	Ach Offset Enable
ACHOFFSET	QUANT	0	Ach Offset (V)
ACHFILTER	IQUANT	1	Ach Filter
SENSECABLEID	IQUANT	14	Sense Cable ID
PWRCABLEID	IQUANT	14	Power Cable ID
DCCALDATE	LABEL	1/24/2022	DC Calibration Date
ACCALDATE	LABEL	4/2/2018	AC Calibration Date
FRAMEWORKVERSION	QUANT	7.06	Framework Version
INSTRUMENTVERSION	LABEL	4.30	Instrument Version
CURVE	TABLE	98
	Pt	T	Vf	Im	Vu	Sig	Ach	IERange	Over	Temp
	#	s	V vs. Ref.	A	V	V	V	#	bits	deg C
	0	-0.4	9.21310E-003	-8.39598E-006	0.00000E+000	1.00559E-002	0.00000E+000	9	...........	1426.22
	1	-0.3	9.88291E-003	-8.29568E-006	0.00000E+000	1.00559E-002	0.00000E+000	9	...........	1426.13
	2	-0.2	1.00367E-002	-8.18573E-006	0.00000E+000	1.00559E-002	0.00000E+000	9	...........	1426.13
	3	-0.1	1.00513E-002	-8.07795E-006	0.00000E+000	1.00559E-002	0.00000E+000	9	...........	1426.13
	4	0	1.00506E-002	-7.99387E-006	0.00000E+000	1.00559E-002	0.00000E+000	9	...........	1426.13
	5	0.1	4.38799E-005	-2.46111E-005	0.00000E+000	5.34840E-005	0.00000E+000	9	...........	1426.13
	6	0.2	4.31630E-005	-1.61178E-005	0.00000E+000	5.34840E-005	0.00000E+000	9	...........	1426.13
	7	0.3	4.31310E-005	-1.31593E-005	0.00000E+000	5.34840E-005	0.00000E+000	9	...........	1426.13
	8	0.4	4.30979E-005	-1.18384E-005	0.00000E+000	5.34840E-005	0.00000E+000	9	...........	1426.13
	9	0.5	4.23390E-005	-1.11240E-005	0.00000E+000	5.34840E-005	0.00000E+000	9	...........	1426.13
	10	0.6	4.32511E-005	-1.06595E-005	0.00000E+000	5.34840E-005	0.00000E+000	9	...........	1426.13
	11	0.7	4.31510E-005	-1.03373E-005	0.00000E+000	5.34840E-005	0.00000E+000	9	...........	1426.13
	12	0.8	4.30809E-005	-1.01084E-005	0.00000E+000	5.34840E-005	0.00000E+000	9	...........	1426.13
	13	0.9	4.38198E-005	-9.93720E-006	0.00000E+000	5.34840E-005	0.00000E+000	9	...........	1426.13
	14	1	4.33062E-005	-9.80350E-006	0.00000E+000	5.34840E-005	0.00000E+000	9	...........	1426.13
	15	1.1	4.33773E-005	-9.67871E-006	0.00000E+000	5.34840E-005	0.00000E+000	9	...........	1426.13
	16	1.2	4.43164E-005	-9.53933E-006	0.00000E+000	5.34840E-005	0.00000E+000	9	...........	1426.13
	17	1.3	4.30960E-005	-9.43365E-006	0.00000E+000	5.34840E-005	0.00000E+000	9	...........	1426.13
	18	1.4	4.40071E-005	-9.31583E-006	0.00000E+000	5.34840E-005	0.00000E+000	9	...........	1426.13
	19	1.5	4.30028E-005	-9.22313E-006	0.00000E+000	5.34840E-005	0.00000E+000	9	...........	1426.13
	20	1.6	4.32161E-005	-9.12673E-006	0.00000E+000	5.34840E-005	0.00000E+000	9	...........	1426.13
	21	1.7	4.28186E-005	-9.04655E-006	0.00000E+000	5.34840E-005	0.00000E+000	9	...........	1426.49
	22	1.8	4.22199E-005	-8.96040E-006	0.00000E+000	5.34840E-005	0.00000E+000	9	...........	1426.49
	23	1.9	4.15390E-005	-8.88792E-006	0.00000E+000	5.34840E-005	0.00000E+000	9	...........	1426.49
	24	2	4.10124E-005	-8.81955E-006	0.00000E+000	5.34840E-005	0.00000E+000	9	...........	1426.49
	25	2.1	4.14269E-005	-8.75869E-006	0.00000E+000	5.34840E-005	0.00000E+000	9	...........	1426.49
	26	2.2	4.14079E-005	-8.70580E-006	0.00000E+000	5.34840E-005	0.00000E+000	9	...........	1426.49
	27	2.3	4.04397E-005	-8.68188E-006	0.00000E+000	5.34840E-005	0.00000E+000	9	...........	1426.49
	28	2.4	4.07050E-005	-8.65498E-006	0.00000E+000	5.34840E-005	0.00000E+000	9	...........	1426.49
	29	2.5	4.07681E-005	-8.63883E-006	0.00000E+000	5.34840E-005	0.00000E+000	9	...........	1426.49
	30	2.6	4.13918E-005	-8.60530E-006	0.00000E+000	5.34840E-005	0.00000E+000	9	...........	1426.49
	31	2.7	4.17102E-005	-8.58855E-006	0.00000E+000	5.34840E-005	0.00000E+000	9	...........	1426.49
	32	2.8	4.19185E-005	-8.55374E-006	0.00000E+000	5.34840E-005	0.00000E+000	9	...........	1426.49
	33	2.9	4.26634E-005	-8.52355E-006	0.00000E+000	5.34840E-005	0.00000E+000	9	...........	1426.49
	34	3	4.16612E-005	-8.51150E-006	0.00000E+000	5.34840E-005	0.00000E+000	9	...........	1426.49
	35	3.1	4.26674E-005	-8.50179E-006	0.00000E+000	5.34840E-005	0.00000E+000	9	...........	1426.49
	36	3.2	4.32431E-005	-8.49795E-006	0.00000E+000	5.34840E-005	0.00000E+000	9	...........	1426.49
	37	3.3	4.21388E-005	-8.47917E-006	0.00000E+000	5.34840E-005	0.00000E+000	9	...........	1426.49
	38	3.4	4.32631E-005	-8.43332E-006	0.00000E+000	5.34840E-005	0.00000E+000	9	...........	1426.49
	39	3.5	4.30669E-005	-8.39501E-006	0.00000E+000	5.34840E-005	0.00000E+000	9	...........	1426.49
	40	3.6	4.24031E-005	-8.36091E-006	0.00000E+000	5.34840E-005	0.00000E+000	9	...........	1426.49
	41	3.7	4.34975E-005	-8.33211E-006	0.00000E+000	5.34840E-005	0.00000E+000	9	...........	1426.49
	42	3.8	4.30659E-005	-8.28660E-006	0.00000E+000	5.34840E-005	0.00000E+000	9	...........	1426.49
	43	3.9	4.17463E-005	-8.25570E-006	0.00000E+000	5.34840E-005	0.00000E+000	9	...........	1426.49
	44	4	4.22108E-005	-8.22277E-006	0.00000E+000	5.34840E-005	0.00000E+000	9	...........	1426.49
	45	4.1	4.23050E-005	-8.16164E-006	0.00000E+000	5.34840E-005	0.00000E+000	9	...........	1426.49
	46	4.2	4.24071E-005	-8.10845E-006	0.00000E+000	5.34840E-005	0.00000E+000	9	...........	1426.49
	47	4.3	4.19155E-005	-8.05416E-006	0.00000E+000	5.34840E-005	0.00000E+000	9	...........	1426.49
	48	4.4	4.13248E-005	-8.00855E-006	0.00000E+000	5.34840E-005	0.00000E+000	9	...........	1426.49
	49	4.5	4.17953E-005	-7.98289E-006	0.00000E+000	5.34840E-005	0.00000E+000	9	...........	1426.49
	50	4.6	4.25633E-005	-7.96427E-006	0.00000E+000	5.34840E-005	0.00000E+000	9	...........	1426.49
	51	4.7	4.24121E-005	-7.95870E-006	0.00000E+000	5.34840E-005	0.00000E+000	9	...........	1426.04
	52	4.8	4.15140E-005	-7.92443E-006	0.00000E+000	5.34840E-005	0.00000E+000	9	...........	1426.04
	53	4.9	4.22970E-005	-7.89193E-006	0.00000E+000	5.34840E-005	0.00000E+000	9	...........	1426.04
	54	5	4.14659E-005	-7.86590E-006	0.00000E+000	5.34840E-005	0.00000E+000	9	...........	1426.04
	55	5.1	4.31370E-005	-7.83811E-006	0.00000E+000	5.34840E-005	0.00000E+000	9	...........	1426.04
	56	5.2	4.30239E-005	-7.81875E-006	0.00000E+000	5.34840E-005	0.00000E+000	9	...........	1426.04
	57	5.3	4.27355E-005	-7.79536E-006	0.00000E+000	5.34840E-005	0.00000E+000	9	...........	1426.04
	58	5.4	4.34334E-005	-7.75879E-006	0.00000E+000	5.34840E-005	0.00000E+000	9	...........	1426.04
	59	5.5	4.28386E-005	-7.70387E-006	0.00000E+000	5.34840E-005	0.00000E+000	9	...........	1426.04
	60	5.6	4.34244E-005	-7.64467E-006	0.00000E+000	5.34840E-005	0.00000E+000	9	...........	1426.04
	61	5.7	4.37788E-005	-7.57807E-006	0.00000E+000	5.34840E-005	0.00000E+000	9	...........	1426.31
	62	5.8	4.27635E-005	-7.52124E-006	0.00000E+000	5.34840E-005	0.00000E+000	9	...........	1426.31
	63	5.9	4.32101E-005	-7.46549E-006	0.00000E+000	5.34840E-005	0.00000E+000	9	...........	1426.31
	64	6	4.30068E-005	-7.43102E-006	0.00000E+000	5.34840E-005	0.00000E+000	9	...........	1426.31
	65	6.1	4.27745E-005	-7.38257E-006	0.00000E+000	5.34840E-005	0.00000E+000	9	...........	1426.31
	66	7.1	4.28526E-005	-7.02844E-006	0.00000E+000	5.34840E-005	0.00000E+000	9	...........	1426.49
	67	8.1	4.27475E-005	-6.88729E-006	0.00000E+000	5.34840E-005	0.00000E+000	9	...........	1426.49
	68	9.1	4.30429E-005	-6.88205E-006	0.00000E+000	5.34840E-005	0.00000E+000	9	...........	1426.49
	69	10.1	4.35856E-005	-6.87831E-006	0.00000E+000	5.34840E-005	0.00000E+000	9	...........	1426.57
	70	11.1	4.16802E-005	-6.68028E-006	0.00000E+000	5.34840E-005	0.00000E+000	9	...........	1426.49
	71	12.1	4.27866E-005	-6.56165E-006	0.00000E+000	5.34840E-005	0.00000E+000	9	...........	1426.49
	72	13.1	4.52426E-005	-6.17949E-006	0.00000E+000	5.34840E-005	0.00000E+000	9	...........	1426.49
	73	14.1	4.49042E-005	-6.01856E-006	0.00000E+000	5.34840E-005	0.00000E+000	9	...........	1426.49
	74	15.1	4.38939E-005	-5.97932E-006	0.00000E+000	5.34840E-005	0.00000E+000	9	...........	1426.40
	75	16.1	4.45097E-005	-5.91115E-006	0.00000E+000	5.34840E-005	0.00000E+000	9	...........	1426.49
	76	26.1	4.40741E-005	-5.52295E-006	0.00000E+000	5.34840E-005	0.00000E+000	9	...........	1426.49
	77	36.1	4.24031E-005	-5.16054E-006	0.00000E+000	5.34840E-005	0.00000E+000	9	...........	1426.49
	78	46.1	4.45327E-005	-4.81392E-006	0.00000E+000	5.34840E-005	0.00000E+000	9	...........	1426.49
	79	56.1	4.41813E-005	-4.88896E-006	0.00000E+000	5.34840E-005	0.00000E+000	9	...........	1426.49
	80	66.1	4.36927E-005	-4.93291E-006	0.00000E+000	5.34840E-005	0.00000E+000	9	...........	1426.49
	81	76.1	4.49783E-005	-4.83217E-006	0.00000E+000	5.34840E-005	0.00000E+000	9	...........	1426.49
	82	86.1	4.30549E-005	-4.53687E-006	0.00000E+000	5.34840E-005	0.00000E+000	9	...........	1426.49
	83	96.1	4.59264E-005	-4.62562E-006	0.00000E+000	5.34840E-005	0.00000E+000	9	...........	1426.49
	84	106.1	4.50273E-005	-4.75766E-006	0.00000E+000	5.34840E-005	0.00000E+000	9	...........	1426.49
	85	116.1	4.41242E-005	-4.68902E-006	0.00000E+000	5.34840E-005	0.00000E+000	9	...........	1426.49
	86	216.1	4.40401E-005	-4.11833E-006	0.00000E+000	5.34840E-005	0.00000E+000	9	...........	1426.57
	87	300	4.42804E-005	-4.17703E-006	0.00000E+000	5.34840E-005	0.00000E+000	9	...........	1426.57
	88	300.1	-3.29270E-002	-1.51396E-004	0.00000E+000	-9.99460E-002	0.00000E+000	9	.........v.	1426.57
	89	300.2	-9.99835E-002	-8.00144E-005	0.00000E+000	-9.99460E-002	0.00000E+000	9	...........	1426.57
	90	300.3	-9.99830E-002	-6.11113E-005	0.00000E+000	-9.99460E-002	0.00000E+000	9	...........	1426.57
	91	300.4	-9.99823E-002	-5.38341E-005	0.00000E+000	-9.99460E-002	0.00000E+000	9	...........	1426.57
	92	300.5	-9.99843E-002	-4.99507E-005	0.00000E+000	-9.99460E-002	0.00000E+000	9	...........	1426.57
	93	300.6	-9.99831E-002	-4.73740E-005	0.00000E+000	-9.99460E-002	0.00000E+000	9	...........	1426.57
	94	300.7	-9.99842E-002	-4.54214E-005	0.00000E+000	-9.99460E-002	0.00000E+000	9	...........	1426.57
	95	300.8	-9.99835E-002	-4.38132E-005	0.00000E+000	-9.99460E-002	0.00000E+000	9	...........	1426.57
	96	300.9	-9.99847E-002	-4.24601E-005	0.00000E+000	-9.99460E-002	0.00000E+000	9	...........	1426.57
	97	301	-9.99840E-002	-4.12808E-005	0.00000E+000	-9.99460E-002	0.00000E+000	9	...........	1426.57
